File: Bakgrunnsmateriale/MATLAB/FTIR/ftir_data/subBb/Mapping_36/C-4040-8_t27.asc
PE IR       SPECTRUM    SPECTRUM    ASCII       PEDS        1.60
  -1
C-BD26~1.ASC
17/05/02
13:11:19.00
17/05/02
13:11:45.00
tln
$C-4040-8_t0027$<tbV0>[2.5,7.0,8.0,0.0,22,1,0]
27.028
64

2002,4.07
MIRTGS : RIGHTBACK : INTERNAL 2
MIR : ON : INTERNAL 2
OPTKBR

0.200000
8
8.000000
FILLER
RATIO
SPECTRUM
UNLOCKED 256

DOUBLE
64
COMBINED
1
0
0

0.002000
RATIO

1
0
TRUE
51149
0
LEFT NOT FITTED RIGHT NOT FITTED 0
NONE
NONE
15600
12
4.427000
51148
TRUE
1 0 8 72 0 0 0 0

15798

#HDR
-1
-1
#GR
µM
%T
2.38419e-05
0.0
1.282000
0.002000
12874
8
87.236
36.3949
#DATA
1.282000	 87.236
1.368000	 64.6572
1.454000	 65.4252
1.540000	 65.0701
1.626000	 65.2041
1.712000	 65.0376
1.798000	 65.3213
1.884000	 64.5265
1.970000	 64.8946
2.056000	 64.6689
2.142000	 65.4429
2.228000	 65.3943
2.314000	 65.4088
2.400000	 65.2186
2.486000	 65.0699
2.572000	 65.609
2.658000	 65.163
2.744000	 65.0994
2.830000	 65.4475
2.916000	 65.3384
3.002000	 65.227
3.088000	 65.2519
3.174000	 65.3475
3.260000	 65.3343
3.346000	 65.247
3.432000	 64.977
3.518000	 65.2031
3.604000	 65.2462
3.690000	 65.3939
3.776000	 65.2947
3.862000	 65.4839
3.948000	 65.3984
4.034000	 65.305
4.120000	 65.3025
4.206000	 65.3339
4.292000	 65.2741
4.378000	 65.4224
4.464000	 65.4023
4.550000	 65.4007
4.636000	 65.3821
4.722000	 65.4285
4.808000	 65.4409
4.894000	 65.4724
4.980000	 65.417
5.066000	 65.5688
5.152000	 65.4702
5.238000	 65.3886
5.324000	 65.4483
5.410000	 65.3796
5.496000	 65.3796
5.582000	 65.3527
5.668000	 65.3353
5.754000	 65.1427
5.840000	 65.2894
5.926000	 65.3774
6.012000	 65.3886
6.098000	 65.2119
6.184000	 65.2759
6.270000	 65.2022
6.356000	 65.1609
6.442000	 65.1529
6.528000	 65.2817
6.614000	 65.2404
6.700000	 65.2963
6.786000	 65.183
6.872000	 65.2058
6.958000	 65.2145
7.044000	 65.1856
7.130000	 65.1499
7.216000	 65.0553
7.302000	 65.1818
7.388000	 65.1938
7.474000	 65.175
7.560000	 65.1128
7.646000	 65.1255
7.732000	 65.0866
7.818000	 65.2182
7.904000	 65.1489
7.990000	 65.1042
8.076000	 65.2003
8.161999	 65.1354
8.248000	 65.0462
8.334000	 65.1335
8.420000	 64.9708
8.506000	 65.0234
8.592000	 64.9508
8.678000	 64.8487
8.763999	 64.8973
8.850000	 65.0258
8.936000	 64.9736
9.022000	 64.8422
9.108000	 64.9632
9.193999	 65.0548
9.280000	 64.9001
9.366000	 64.8132
9.452000	 64.852
9.538000	 64.7765
9.624000	 64.854
9.710000	 64.7322
9.795999	 64.7262
9.882000	 64.9255
9.968000	 64.9543
10.054	64.8311
10.14	65.1147
10.226	65.1378
10.312	64.8742
10.398	65.0245
10.484	64.753
10.57	64.5957
10.656	64.7515
10.742	64.7822
10.828	65.1888
10.914	65.2661
11	64.9225
11.086	63.8612
11.172	63.0251
11.258	63.3927
11.344	63.9316
11.43	64.4729
11.516	64.0959
11.602	64.5748
11.688	64.7082
11.774	64.509
11.86	64.5981
11.946	64.6672
12.032	64.4802
12.118	64.6396
12.204	64.5437
12.29	64.6136
12.376	64.5634
12.462	64.3019
12.548	64.1553
12.634	64.277
12.72	64.3023
12.806	64.1932
12.892	64.1904
12.978	64.2189
13.064	64.2333
13.15	64.323
13.236	64.213
13.322	64.0026
13.408	63.849
13.494	63.6463
13.58	63.7055
13.666	63.8915
13.752	63.9183
13.838	63.861
13.924	63.9271
14.01	64.0845
14.096	64.0212
14.182	63.7442
14.268	63.3588
14.354	63.2678
14.44	63.5655
14.526	63.7418
14.612	63.5786
14.698	63.3058
14.784	63.2129
14.87	63.2977
14.956	63.4723
15.042	63.6073
15.128	63.5436
15.214	63.4052
15.3	63.3284
15.386	63.2754
15.472	63.2286
15.558	63.2355
15.644	63.2704
15.73	63.199
15.816	63.0392
15.902	63.0037
15.988	63.1638
16.074	63.3335
16.16	63.3093
16.246	63.1092
16.332	62.9623
16.418	62.9682
16.504	62.9738
16.59	62.9064
16.676	62.8564
16.762	62.8346
16.848	62.8028
16.934	62.7644
17.02	62.7001
17.106	62.6341
17.192	62.6374
17.278	62.6535
17.364	62.54
17.45	62.3332
17.536	62.2399
17.622	62.3407
17.708	62.4997
17.794	62.577
17.88	62.5895
17.966	62.5995
18.052	62.5979
18.138	62.5802
18.224	62.5895
18.31	62.6238
18.396	62.6052
18.482	62.4841
18.568	62.3004
18.654	62.1278
18.74	62.0153
18.826	61.9635
18.912	61.9169
18.998	61.7978
19.084	61.5883
19.17	61.3633
19.256	61.1986
19.342	61.0849
19.428	60.9944
19.514	60.9633
19.6	61.0296
19.686	61.1466
19.772	61.2332
19.858	61.264
19.944	61.282
20.03	61.3304
20.116	61.3953
20.202	61.4057
20.288	61.304
20.374	61.0998
20.46	60.8598
20.546	60.646
20.632	60.4702
20.718	60.3035
20.804	60.1242
20.89	59.9501
20.976	59.8438
21.062	59.87
21.148	60.0524
21.234	60.3523
21.32	60.6776
21.406	60.922
21.492	61.0139
21.578	60.943
21.664	60.7684
21.75	60.5914
21.836	60.4953
21.922	60.4963
22.008	60.5181
22.094	60.4328
22.18	60.1484
22.266	59.6761
22.352	59.1573
22.438	58.7999
22.524	58.7523
22.61	59.0046
22.696	59.3689
22.782	59.6009
22.868	59.5354
22.954	59.1888
23.04	58.7228
23.126	58.3597
23.212	58.2701
23.298	58.5169
23.384	59.0217
23.47	59.6126
23.556	60.0945
23.642	60.3373
23.728	60.2789
23.814	59.9651
23.9	59.5023
23.986	59.0101
24.072	58.6114
24.158	58.4277
24.244	58.5466
24.33	58.9876
24.416	59.677
24.502	60.4525
24.588	61.0993
24.674	61.4736
24.76	61.5863
24.846	61.5976
24.932	61.7531
25.018	62.217
25.104	62.9414
25.19	63.5289
25.276	63.3839
25.362	61.9532
25.448	59.0202
25.534	54.8959
25.62	50.3629
25.706	46.3961
25.792	43.7753
25.878	42.8702
25.964	43.5477
26.05	45.2872
26.136	47.4081
26.222	49.1866
26.308	50.0131
26.394	49.5505
26.48	47.8129
26.566	45.1526
26.652	42.1438
26.738	39.3943
26.824	37.3939
26.91	36.452
26.996	36.744
27.028	36.9885