File: Bakgrunnsmateriale/MATLAB/FTIR/ftir_data/subBb/Mapping_36/C-4040-8_t36.asc
PE IR       SPECTRUM    SPECTRUM    ASCII       PEDS        1.60
  -1
C-B132~1.ASC
17/05/02
13:54:07.00
17/05/02
13:54:33.00
tln
$C-4040-8_t0036$<tbV0>[-12.5,12.0,8.0,0.0,22,1,0]
27.028
64

2002,4.07
MIRTGS : RIGHTBACK : INTERNAL 2
MIR : ON : INTERNAL 2
OPTKBR

0.200000
8
8.000000
FILLER
RATIO
SPECTRUM
UNLOCKED 256

DOUBLE
64
COMBINED
1
0
0

0.002000
RATIO

1
0
TRUE
51149
0
LEFT NOT FITTED RIGHT NOT FITTED 0
NONE
NONE
15600
12
4.427000
51148
TRUE
1 0 8 72 0 0 0 0

15798

#HDR
-1
-1
#GR
µM
%T
2.38419e-05
0.0
1.282000
0.002000
12874
8
78.3943
49.2407
#DATA
1.282000	 68.406
1.368000	 65.9339
1.454000	 63.4525
1.540000	 63.3267
1.626000	 63.9497
1.712000	 64.9224
1.798000	 64.575
1.884000	 63.7403
1.970000	 64.9276
2.056000	 64.2536
2.142000	 64.7814
2.228000	 64.5753
2.314000	 64.8281
2.400000	 64.8071
2.486000	 64.5984
2.572000	 64.7359
2.658000	 64.7416
2.744000	 64.8695
2.830000	 64.741
2.916000	 64.7015
3.002000	 64.8495
3.088000	 64.7607
3.174000	 64.8639
3.260000	 64.6155
3.346000	 64.7885
3.432000	 64.6064
3.518000	 64.725
3.604000	 64.9158
3.690000	 64.9516
3.776000	 64.7173
3.862000	 64.9579
3.948000	 65.0713
4.034000	 64.9058
4.120000	 64.9395
4.206000	 64.9314
4.292000	 64.9542
4.378000	 65.0643
4.464000	 64.9532
4.550000	 64.9903
4.636000	 64.8437
4.722000	 64.885
4.808000	 64.9056
4.894000	 64.9704
4.980000	 64.9747
5.066000	 65.0103
5.152000	 65.0029
5.238000	 64.9371
5.324000	 64.9422
5.410000	 64.9352
5.496000	 64.8927
5.582000	 64.8553
5.668000	 64.8777
5.754000	 64.7094
5.840000	 64.8015
5.926000	 64.8067
6.012000	 64.7793
6.098000	 64.7751
6.184000	 64.845
6.270000	 64.766
6.356000	 64.6691
6.442000	 64.7712
6.528000	 64.7138
6.614000	 64.7446
6.700000	 64.6855
6.786000	 64.6915
6.872000	 64.783
6.958000	 64.7109
7.044000	 64.7191
7.130000	 64.7491
7.216000	 64.5428
7.302000	 64.7369
7.388000	 64.527
7.474000	 64.549
7.560000	 64.6467
7.646000	 64.6373
7.732000	 64.6222
7.818000	 64.5168
7.904000	 64.5844
7.990000	 64.5666
8.076000	 64.6304
8.161999	 64.5477
8.248000	 64.415
8.334000	 64.5955
8.420000	 64.3747
8.506000	 64.3924
8.592000	 64.3465
8.678000	 64.3701
8.763999	 64.3079
8.850000	 64.2786
8.936000	 64.4803
9.022000	 64.1837
9.108000	 64.5124
9.193999	 64.2952
9.280000	 64.2744
9.366000	 64.2989
9.452000	 64.3309
9.538000	 64.3654
9.624000	 64.2674
9.710000	 64.3624
9.795999	 64.3788
9.882000	 64.375
9.968000	 64.1944
10.054	64.1569
10.14	64.3287
10.226	64.6004
10.312	64.3157
10.398	63.9069
10.484	64.3341
10.57	64.1135
10.656	64.5296
10.742	64.5813
10.828	64.2655
10.914	63.6835
11	64.2997
11.086	64.6727
11.172	64.3445
11.258	64.2059
11.344	63.8698
11.43	63.7599
11.516	63.7744
11.602	63.9181
11.688	63.8245
11.774	63.9065
11.86	63.9657
11.946	63.8733
12.032	63.7842
12.118	63.9572
12.204	63.9567
12.29	63.8015
12.376	63.6144
12.462	63.6892
12.548	63.6063
12.634	63.614
12.72	63.6255
12.806	63.4177
12.892	63.4689
12.978	63.398
13.064	63.3332
13.15	63.4815
13.236	63.4095
13.322	63.2315
13.408	63.1003
13.494	62.9955
13.58	62.9705
13.666	62.8745
13.752	62.8759
13.838	62.9797
13.924	62.9641
14.01	62.849
14.096	62.6935
14.182	62.6328
14.268	62.6741
14.354	62.7563
14.44	62.6898
14.526	62.5088
14.612	62.4361
14.698	62.467
14.784	62.4859
14.87	62.4253
14.956	62.3722
15.042	62.2851
15.128	62.1351
15.214	62.1257
15.3	62.1956
15.386	62.1683
15.472	62.1391
15.558	62.2309
15.644	62.4085
15.73	62.4747
15.816	62.2586
15.902	61.938
15.988	61.8312
16.074	61.9454
16.16	62.1078
16.246	62.2502
16.332	62.3305
16.418	62.287
16.504	62.1627
16.59	62.0676
16.676	62.026
16.762	61.9754
16.848	61.8791
16.934	61.7424
17.02	61.6064
17.106	61.5478
17.192	61.5475
17.278	61.485
17.364	61.3017
17.45	61.0906
17.536	61.0231
17.622	61.1351
17.708	61.2744
17.794	61.3158
17.88	61.2994
17.966	61.2856
18.052	61.234
18.138	61.1123
18.224	60.995
18.31	60.9687
18.396	61.0344
18.482	61.1217
18.568	61.1424
18.654	61.0264
18.74	60.7841
18.826	60.5337
18.912	60.4044
18.998	60.3898
19.084	60.3745
19.17	60.3126
19.256	60.2869
19.342	60.3639
19.428	60.4728
19.514	60.4813
19.6	60.3363
19.686	60.114
19.772	59.9404
19.858	59.8768
19.944	59.8892
20.03	59.9175
20.116	59.9215
20.202	59.8586
20.288	59.7024
20.374	59.5
20.46	59.3554
20.546	59.3279
20.632	59.3802
20.718	59.4331
20.804	59.4415
20.89	59.4067
20.976	59.3484
21.062	59.277
21.148	59.1964
21.234	59.1305
21.32	59.1286
21.406	59.2254
21.492	59.3935
21.578	59.5495
21.664	59.6179
21.75	59.5919
21.836	59.5277
21.922	59.4775
22.008	59.4228
22.094	59.2846
22.18	59.0018
22.266	58.603
22.352	58.2108
22.438	57.9533
22.524	57.8823
22.61	57.9464
22.696	58.0426
22.782	58.0981
22.868	58.0994
22.954	58.0785
23.04	58.0633
23.126	58.0423
23.212	57.97
23.298	57.8105
23.384	57.5732
23.47	57.3138
23.556	57.1093
23.642	57.02
23.728	57.0653
23.814	57.2364
23.9	57.5161
23.986	57.8822
24.072	58.3033
24.158	58.7166
24.244	59.0205
24.33	59.1033
24.416	58.9145
24.502	58.4848
24.588	57.9544
24.674	57.5128
24.76	57.3248
24.846	57.4374
24.932	57.7526
25.018	58.067
25.104	58.1698
25.19	57.9116
25.276	57.2679
25.362	56.3211
25.448	55.2448
25.534	54.2133
25.62	53.3519
25.706	52.7256
25.792	52.3639
25.878	52.3276
25.964	52.7537
26.05	53.8335
26.136	55.6951
26.222	58.2662
26.308	61.2177
26.394	64.0446
26.48	66.2639
26.566	67.5308
26.652	67.7644
26.738	67.1564
26.824	66.04
26.91	64.7841
26.996	63.5236
27.028	63.1791