File: Bakgrunnsmateriale/MATLAB/FTIR/ftir_data/subBb/Mapping_36/C-4040-8_t28_cm-1.asc
PE IR       SPECTRUM    SPECTRUM    ASCII       PEDS        1.60
  -1
C-9A65~1.ASC
17/05/02
13:16:01.00
17/05/02
13:16:01.00
tln
$C-4040-8_t0028$<tbV0>[-2.5,7.0,8.0,0.0,22,1,0]
370
64

2002,4.07
MIRTGS : RIGHTBACK : INTERNAL 2
MIR : ON : INTERNAL 2
OPTKBR

0.200000
8
8.000000
FILLER
RATIO
SPECTRUM
UNLOCKED 256

DOUBLE
64
COMBINED
1
0
0

1.000000
RATIO

1
0
TRUE
51149
0
LEFT NOT FITTED RIGHT NOT FITTED 0
NONE
NONE
15600
12
4.427000
51148
TRUE
1 0 8 72 0 0 0 0

15798

#HDR
-1
-1
#GR
CM-1
%T
2.38419e-05
0.0
7800
-1.000000
7431
8
77.1982
36.9513
#DATA
7800	76.7479
7775	64.9221
7750	71.7585
7725	70.0495
7700	64.2158
7675	71.7897
7650	71.7968
7625	67.7972
7600	65.6746
7575	67.2799
7550	67.3456
7525	68.3547
7500	65.9995
7475	62.761
7450	68.3305
7425	61.2813
7400	62.6416
7375	65.7383
7350	66.8658
7325	64.4909
7300	63.4206
7275	66.1375
7250	62.5815
7225	67.6682
7200	67.0705
7175	63.5733
7150	65.0501
7125	64.9505
7100	64.8901
7075	63.9097
7050	63.5966
7025	67.3308
7000	65.8887
6975	62.4804
6950	64.1659
6925	65.959
6900	63.8448
6875	65.5123
6850	64.7276
6825	65.6502
6800	66.1943
6775	64.7267
6750	63.5881
6725	62.9856
6700	64.5755
6675	64.877
6650	66.0819
6625	66.7327
6600	64.1099
6575	64.019
6550	64.7202
6525	64.8815
6500	64.3831
6475	63.8986
6450	64.0926
6425	64.9939
6400	65.2223
6375	65.3328
6350	65.5127
6325	64.4408
6300	64.6868
6275	65.2522
6250	64.9789
6225	65.3896
6200	63.9963
6175	64.7938
6150	65.3605
6125	64.7041
6100	65.5859
6075	64.2097
6050	64.801
6025	64.859
6000	65.3165
5975	65.0529
5950	64.5178
5925	65.0789
5900	65.0814
5875	64.6922
5850	65.0899
5825	65.0486
5800	64.6607
5775	63.7122
5750	65.7896
5725	65.0578
5700	65.1828
5675	65.155
5650	65.4765
5625	64.723
5600	65.5106
5575	64.9971
5550	65.1002
5525	64.987
5500	64.9009
5475	64.7342
5450	65.6729
5425	65.0461
5400	65.511
5375	65.9282
5350	65.5297
5325	64.3868
5300	64.7832
5275	67.039
5250	65.074
5225	64.3496
5200	64.3106
5175	64.7237
5150	64.5564
5125	64.8733
5100	65.1508
5075	65.1976
5050	65.0532
5025	64.9809
5000	65.0649
4975	64.9744
4950	64.8369
4925	64.3539
4900	65.0495
4875	64.9602
4850	64.7922
4825	65.4045
4800	64.8542
4775	65.4219
4750	65.2602
4725	65.1183
4700	64.9539
4675	65.1741
4650	64.9665
4625	65.3529
4600	65.1742
4575	65.1267
4550	64.6564
4525	64.6745
4500	65.0895
4475	65.1453
4450	64.7132
4425	64.5302
4400	64.5046
4375	65.5149
4350	65.2461
4325	64.9248
4300	64.8212
4275	65.408
4250	65.1814
4225	64.9515
4200	65.1782
4175	64.9359
4150	65.212
4125	65.151
4100	65.1866
4075	64.9053
4050	65.2788
4025	64.9884
4000	65.0316
3975	64.9764
3950	65.1479
3925	65.1957
3900	65.0777
3875	65.1149
3850	65.2666
3825	65.3429
3800	65.2
3775	65.024
3750	65.2795
3725	65.2154
3700	65.273
3675	65.2194
3650	65.3859
3625	65.1572
3600	65.3329
3575	65.3563
3550	65.2418
3525	65.0409
3500	65.0139
3475	65.2499
3450	65.4574
3425	65.3538
3400	65.315
3375	65.0876
3350	65.2735
3325	65.1807
3300	65.1753
3275	65.1299
3250	64.9416
3225	65.2261
3200	65.2417
3175	65.1549
3150	65.3056
3125	65.2198
3100	65.2771
3075	65.2064
3050	65.1819
3025	65.2689
3000	65.292
2975	65.0812
2950	65.0533
2925	64.9479
2900	65.0392
2875	65.1965
2850	65.1287
2825	65.3409
2800	65.4014
2775	65.3811
2750	65.2174
2725	65.2945
2700	65.4474
2675	65.3182
2650	65.2421
2625	65.366
2600	65.3453
2575	65.2815
2550	65.3643
2525	65.3047
2500	65.3743
2475	65.3112
2450	65.3642
2425	65.3088
2400	65.3375
2375	65.3075
2350	65.3111
2325	65.2859
2300	65.324
2275	65.3123
2250	65.445
2225	65.3193
2200	65.3286
2175	65.326
2150	65.4431
2125	65.4205
2100	65.4007
2075	65.2029
2050	65.3576
2025	65.327
2000	65.4128
1975	65.5284
1950	65.3207
1925	65.3547
1900	65.4329
1875	65.3695
1850	65.4396
1825	65.2804
1800	65.3408
1775	65.3465
1750	65.1973
1725	65.1258
1700	65.3496
1675	65.3111
1650	65.2349
1625	65.2769
1600	65.1267
1575	65.1388
1550	65.1621
1525	65.1026
1500	65.0419
1475	65.0785
1450	65.1855
1425	65.1875
1400	64.9385
1375	65.0436
1350	65.1223
1325	65.1805
1300	65.1295
1275	65.0215
1250	64.979
1225	65.0588
1200	65.1271
1175	64.9719
1150	64.9377
1125	64.9482
1100	65.0201
1075	64.7778
1050	64.8613
1025	64.741
1000	64.8167
975	 64.9435
950	 64.9484
925	 64.7277
900	 63.58
875	 64.7011
850	 64.5856
825	 64.5278
800	 64.2464
775	 64.2679
750	 64.003
725	 63.5269
700	 63.184
675	 63.3739
650	 63.3224
625	 62.8963
600	 62.8688
575	 62.538
550	 61.7463
525	 61.8605
500	 62.1617
475	 60.9783
450	 60.8086
425	 58.4772
400	 57.6002
375	 61.6496
370	 36.9513