File: Bakgrunnsmateriale/MATLAB/FTIR/ftir_data/subBb/Mapping_36/C-4040-8_e38_cm-1.asc
PE IR       SPECTRUM    SPECTRUM    ASCII       PEDS        1.60
  -1
C-1BA1~1.ASC
17/05/02
11:52:50.00
17/05/02
11:52:50.00
tln
$C-4040-8_e0038$<ebV0>[-23.3,12.1,10.0,0.0,22,1,0]
370
64

2002,4.07
MIRTGS : RIGHTBACK : INTERNAL 2
MIR : ON : INTERNAL 2
OPTKBR

0.200000
8
8.000000
FILLER
SINGLE
SPECTRUM
UNLOCKED 256

DOUBLE

COMBINED
1
0
0

1.000000
BACKG

1
0
TRUE
51149
0
LEFT NOT FITTED RIGHT NOT FITTED 0
NONE
NONE
15600
12
4.427000
51148
TRUE
1 0 8 72 0 0 0 0

15798

#HDR
-1
-1
#GR
CM-1
EGY
2.38419e-05
0.0
7800
-1.000000
7431
8
2.449655
0.008630
#DATA
7800	0.033617
7775	0.039982
7750	0.045895
7725	0.048899
7700	0.052285
7675	0.057840
7650	0.062417
7625	0.065732
7600	0.068950
7575	0.073266
7550	0.077867
7525	0.078582
7500	0.081896
7475	0.087118
7450	0.087809
7425	0.090718
7400	0.094652
7375	0.097417
7350	0.099706
7325	0.100660
7300	0.106263
7275	0.112104
7250	0.114393
7225	0.119185
7200	0.123810
7175	0.123929
7150	0.129032
7125	0.131440
7100	0.136542
7075	0.141096
7050	0.146555
7025	0.148224
7000	0.152492
6975	0.155377
6950	0.158882
6925	0.160241
6900	0.164914
6875	0.167036
6850	0.174665
6825	0.174546
6800	0.177550
6775	0.187015
6750	0.187087
6725	0.190448
6700	0.191998
6675	0.195884
6650	0.199532
6625	0.196552
6600	0.202536
6575	0.206160
6550	0.207662
6525	0.214576
6500	0.216150
6475	0.223040
6450	0.229501
6425	0.237369
6400	0.236368
6375	0.246644
6350	0.251364
6325	0.259542
6300	0.265574
6275	0.277733
6250	0.282716
6225	0.287890
6200	0.293874
6175	0.300908
6150	0.306606
6125	0.313448
6100	0.325250
6075	0.331592
6050	0.338387
6025	0.348162
6000	0.353074
5975	0.362062
5950	0.368762
5925	0.374650
5900	0.379085
5875	0.385570
5850	0.391030
5825	0.398087
5800	0.406384
5775	0.414347
5750	0.417757
5725	0.422000
5700	0.427746
5675	0.433945
5650	0.436472
5625	0.436949
5600	0.446844
5575	0.457119
5550	0.468134
5525	0.475597
5500	0.486946
5475	0.496053
5450	0.506806
5425	0.517249
5400	0.526475
5375	0.536298
5350	0.553584
5325	0.570297
5300	0.586843
5275	0.613641
5250	0.593304
5225	0.629878
5200	0.646996
5175	0.659465
5150	0.673866
5125	0.686788
5100	0.703096
5075	0.720143
5050	0.738644
5025	0.755810
5000	0.767374
4975	0.781679
4950	0.792884
4925	0.804066
4900	0.811100
4875	0.824141
4850	0.837326
4825	0.850844
4800	0.868082
4775	0.877308
4750	0.890183
4725	0.896930
4700	0.901007
4675	0.907611
4650	0.911045
4625	0.922179
4600	0.936722
4575	0.955748
4550	0.973749
4525	0.993847
4500	1.004123
4475	1.013016
4450	1.016473
4425	1.021790
4400	1.031780
4375	1.080393
4350	1.068925
4325	1.098585
4300	1.123809
4275	1.146793
4250	1.169466
4225	1.185250
4200	1.199293
4175	1.208019
4150	1.222229
4125	1.243162
4100	1.262021
4075	1.298284
4050	1.327753
4025	1.359367
4000	1.386594
3975	1.404500
3950	1.419663
3925	1.426696
3900	1.436686
3875	1.449918
3850	1.462221
3825	1.491975
3800	1.518273
3775	1.547241
3750	1.541376
3725	1.572012
3700	1.577854
3675	1.566910
3650	1.572775
3625	1.580905
3600	1.595354
3575	1.605558
3550	1.617527
3525	1.624727
3500	1.624441
3475	1.609468
3450	1.594066
3425	1.585173
3400	1.597642
3375	1.615166
3350	1.646733
3325	1.683402
3300	1.718449
3275	1.747298
3250	1.769495
3225	1.782822
3200	1.787686
3175	1.793670
3150	1.809763
3125	1.831984
3100	1.869988
3075	1.916670
3050	1.954078
3025	1.961112
3000	2.020597
2975	1.996994
2950	1.916503
2925	1.766228
2900	1.962494
2875	1.997280
2850	1.986956
2825	2.121376
2800	2.176403
2775	2.221775
2750	2.248334
2725	2.253699
2700	2.245831
2675	2.236485
2650	2.221965
2625	2.221870
2600	2.226352
2575	2.253270
2550	2.283477
2525	2.310371
2500	2.322530
2475	2.319264
2450	2.299666
2425	2.274489
2400	2.258086
2375	2.242398
2350	2.258181
2325	2.290105
2300	2.333950
2275	2.361440
2250	2.373790
2225	2.372598
2200	2.355337
2175	2.337670
2150	2.331256
2125	2.332425
2100	2.335143
2075	2.346587
2050	2.396154
2025	2.433252
2000	2.448964
1975	2.436494
1950	2.415490
1925	2.392339
1900	2.366828
1875	2.367186
1850	2.383542
1825	2.403497
1800	2.421164
1775	2.406907
1750	2.371907
1725	2.315974
1700	2.252602
1675	2.227234
1650	2.154731
1625	2.102208
1600	1.984000
1575	1.974129
1550	1.948070
1525	2.101826
1500	1.841783
1475	1.968669
1450	1.760315
1425	1.860547
1400	1.725602
1375	1.804375
1350	1.806592
1325	1.842427
1300	1.846599
1275	1.819467
1250	1.805949
1225	1.808595
1200	1.740646
1175	1.689195
1150	1.603507
1125	1.520800
1100	1.421904
1075	1.424765
1050	1.294231
1025	1.356458
1000	1.392793
975	 1.357507
950	 1.273512
925	 1.223349
900	 1.149868
875	 1.022362
850	 1.082205
825	 0.847196
800	 0.941610
775	 0.971245
750	 0.947809
725	 0.888657
700	 0.809860
675	 0.728487
650	 0.668239
625	 0.600576
600	 0.522541
575	 0.498032
550	 0.458979
525	 0.408959
500	 0.344514
475	 0.259113
450	 0.175118
425	 0.103044
400	 0.038504
375	 0.010323
370	 0.008630