File: Bakgrunnsmateriale/MATLAB/FTIR/ftir_data/subBb/Mapping_36/C-4040-8_t12_cm-1.asc
PE IR       SPECTRUM    SPECTRUM    ASCII       PEDS        1.60
  -1
C-1A64~1.ASC
17/05/02
11:46:56.00
17/05/02
11:46:56.00
tln
$C-4040-8_t0012$<tbV0>[-12.5,-8.0,8.0,0.0,22,1,0]
370
64

2002,4.07
MIRTGS : RIGHTBACK : INTERNAL 2
MIR : ON : INTERNAL 2
OPTKBR

0.200000
8
8.000000
FILLER
RATIO
SPECTRUM
UNLOCKED 256

DOUBLE
64
COMBINED
1
0
0

1.000000
RATIO

1
0
TRUE
51149
0
LEFT NOT FITTED RIGHT NOT FITTED 0
NONE
NONE
15600
12
4.427000
51148
TRUE
1 0 8 72 0 0 0 0

15798

#HDR
-1
-1
#GR
CM-1
%T
2.38419e-05
0.0
7800
-1.000000
7431
8
80.9199
42.3431
#DATA
7800	69.2177
7775	71.4405
7750	65.7208
7725	59.692
7700	57.1733
7675	70.8041
7650	71.2322
7625	65.7682
7600	62.9872
7575	70.5452
7550	65.6375
7525	60.6968
7500	62.1309
7475	65.0604
7450	67.0583
7425	67.1773
7400	66.6199
7375	64.8781
7350	62.0259
7325	66.6985
7300	64.2904
7275	65.3393
7250	66.8238
7225	62.6163
7200	67.0258
7175	63.9271
7150	64.9795
7125	64.4132
7100	65.7346
7075	62.0879
7050	63.4212
7025	65.2116
7000	65.6362
6975	63.7999
6950	63.3749
6925	66.253
6900	64.6336
6875	63.6716
6850	65.4272
6825	65.6547
6800	64.5422
6775	65.4009
6750	62.5456
6725	64.5659
6700	65.1986
6675	64.15
6650	65.5859
6625	63.2313
6600	64.9519
6575	66.3744
6550	65.1221
6525	64.8943
6500	64.4984
6475	62.9962
6450	64.4332
6425	65.162
6400	65.4174
6375	64.9258
6350	66.2959
6325	64.537
6300	63.8796
6275	65.1908
6250	65.2148
6225	66.2893
6200	65.3966
6175	65.2807
6150	64.0543
6125	65.2263
6100	66.8755
6075	64.8068
6050	65.1588
6025	65.6545
6000	65.4967
5975	65.3617
5950	64.3781
5925	64.6394
5900	64.729
5875	65.1386
5850	64.952
5825	64.9692
5800	66.7069
5775	64.9546
5750	64.7732
5725	64.9854
5700	64.9026
5675	65.283
5650	64.8257
5625	64.701
5600	65.1152
5575	63.946
5550	65.3835
5525	64.6085
5500	64.9217
5475	66.1949
5450	65.8367
5425	65.5961
5400	65.3399
5375	65.7599
5350	65.7943
5325	64.7649
5300	64.5852
5275	64.9025
5250	66.4743
5225	64.3575
5200	65.0836
5175	66.7989
5150	64.1411
5125	65.0018
5100	65.1628
5075	65.1546
5050	65.1343
5025	64.6217
5000	65.4658
4975	64.7551
4950	65.6346
4925	65.3863
4900	64.8542
4875	65.6322
4850	65.0514
4825	65.4299
4800	65.2126
4775	65.2244
4750	64.762
4725	65.1589
4700	64.9877
4675	64.9046
4650	64.9599
4625	65.2169
4600	65.1875
4575	65.3506
4550	65.5348
4525	65.1519
4500	65.6567
4475	65.0653
4450	66.2645
4425	65.7474
4400	64.9665
4375	66.903
4350	66.0033
4325	65.8524
4300	65.6047
4275	65.8773
4250	65.3506
4225	65.4927
4200	65.1522
4175	65.6733
4150	65.2704
4125	64.9646
4100	64.9445
4075	65.3381
4050	65.0851
4025	65.2283
4000	65.3353
3975	65.3079
3950	65.1711
3925	65.2936
3900	65.4504
3875	65.4702
3850	65.292
3825	65.4863
3800	65.4367
3775	65.2122
3750	65.37
3725	65.3628
3700	65.3449
3675	65.2949
3650	65.3451
3625	65.2632
3600	65.4223
3575	65.4699
3550	65.2411
3525	65.3966
3500	65.2829
3475	65.2644
3450	65.3725
3425	65.4456
3400	65.2549
3375	65.3079
3350	65.3733
3325	65.1435
3300	65.3058
3275	65.3482
3250	65.5139
3225	65.2561
3200	65.3289
3175	65.3116
3150	65.48
3125	65.2107
3100	65.2142
3075	65.3449
3050	65.2666
3025	65.5406
3000	65.235
2975	65.3043
2950	65.1462
2925	65.0802
2900	65.1564
2875	65.1794
2850	65.1596
2825	65.349
2800	65.374
2775	65.3586
2750	65.264
2725	65.2651
2700	65.3323
2675	65.3302
2650	65.237
2625	65.3805
2600	65.328
2575	65.3426
2550	65.3426
2525	65.4989
2500	65.4346
2475	65.3176
2450	65.2581
2425	65.2511
2400	65.5054
2375	65.4271
2350	65.3366
2325	65.3792
2300	65.3502
2275	65.3787
2250	65.4813
2225	65.3756
2200	65.3591
2175	65.2803
2150	65.3305
2125	65.2905
2100	65.4237
2075	65.4447
2050	65.3333
2025	65.3394
2000	65.382
1975	65.3953
1950	65.4015
1925	65.4125
1900	65.4337
1875	65.4225
1850	65.3835
1825	65.4528
1800	65.4454
1775	65.4603
1750	65.2781
1725	65.2081
1700	65.4165
1675	65.2461
1650	65.273
1625	65.3052
1600	65.2933
1575	65.0959
1550	65.1388
1525	65.1697
1500	65.2683
1475	65.012
1450	65.1017
1425	65.0672
1400	65.1468
1375	65.0679
1350	65.2813
1325	64.9995
1300	65.0833
1275	64.9567
1250	65.0492
1225	65.0281
1200	65.078
1175	64.9542
1150	64.8837
1125	64.9908
1100	65.1371
1075	65.0193
1050	64.9884
1025	64.8229
1000	64.8336
975	 64.6272
950	 64.7911
925	 64.7838
900	 64.6256
875	 64.7212
850	 64.8043
825	 64.0039
800	 64.391
775	 64.3412
750	 63.7927
725	 63.6877
700	 63.4275
675	 63.1065
650	 63.4651
625	 62.8971
600	 62.5545
575	 62.3884
550	 62.3059
525	 60.9537
500	 60.7941
475	 60.7462
450	 59.3738
425	 56.6651
400	 56.0592
375	 66.3656
370	 60.7284