File: Bakgrunnsmateriale/MATLAB/FTIR/ftir_data/subBb/Mapping_36/C-4040-8_t33.asc
PE IR       SPECTRUM    SPECTRUM    ASCII       PEDS        1.60
  -1
C-A136~1.ASC
17/05/02
13:40:03.00
17/05/02
13:40:29.00
tln
$C-4040-8_t0033$<tbV0>[2.5,12.0,8.0,0.0,22,1,0]
27.028
64

2002,4.07
MIRTGS : RIGHTBACK : INTERNAL 2
MIR : ON : INTERNAL 2
OPTKBR

0.200000
8
8.000000
FILLER
RATIO
SPECTRUM
UNLOCKED 256

DOUBLE
64
COMBINED
1
0
0

0.002000
RATIO

1
0
TRUE
51149
0
LEFT NOT FITTED RIGHT NOT FITTED 0
NONE
NONE
15600
12
4.427000
51148
TRUE
1 0 8 72 0 0 0 0

15798

#HDR
-1
-1
#GR
µM
%T
2.38419e-05
0.0
1.282000
0.002000
12874
8
90.5434
58.04
#DATA
1.282000	 71.7353
1.368000	 66.1781
1.454000	 65.5173
1.540000	 64.4488
1.626000	 65.1415
1.712000	 64.3144
1.798000	 63.8241
1.884000	 64.4543
1.970000	 64.6592
2.056000	 64.2302
2.142000	 64.3752
2.228000	 63.9022
2.314000	 64.0499
2.400000	 64.4762
2.486000	 64.4278
2.572000	 64.7688
2.658000	 64.5947
2.744000	 64.4964
2.830000	 64.6776
2.916000	 64.8093
3.002000	 64.487
3.088000	 64.5226
3.174000	 64.5691
3.260000	 64.6584
3.346000	 64.6137
3.432000	 64.3157
3.518000	 64.4834
3.604000	 64.7738
3.690000	 64.7373
3.776000	 64.6645
3.862000	 64.8069
3.948000	 64.7121
4.034000	 64.721
4.120000	 64.8914
4.206000	 64.868
4.292000	 64.7905
4.378000	 64.7896
4.464000	 64.7935
4.550000	 64.755
4.636000	 64.7542
4.722000	 64.5491
4.808000	 64.7398
4.894000	 64.6374
4.980000	 64.634
5.066000	 64.7076
5.152000	 64.6005
5.238000	 64.4706
5.324000	 64.4812
5.410000	 64.4629
5.496000	 64.4306
5.582000	 64.4322
5.668000	 64.3737
5.754000	 64.2491
5.840000	 64.2651
5.926000	 64.2493
6.012000	 64.2699
6.098000	 64.2026
6.184000	 64.2911
6.270000	 64.1305
6.356000	 64.0113
6.442000	 64.1754
6.528000	 64.1453
6.614000	 64.1486
6.700000	 64.2495
6.786000	 64.169
6.872000	 64.1909
6.958000	 64.2154
7.044000	 64.1409
7.130000	 64.0955
7.216000	 64.1273
7.302000	 64.294
7.388000	 64.1258
7.474000	 64.1177
7.560000	 64.0718
7.646000	 64.0067
7.732000	 64.0525
7.818000	 63.963
7.904000	 64.0979
7.990000	 64.0415
8.076000	 64.0307
8.161999	 64.1106
8.248000	 64.1211
8.334000	 64.1346
8.420000	 64.2366
8.506000	 64.2667
8.592000	 64.188
8.678000	 64.0458
8.763999	 64.1537
8.850000	 64.3181
8.936000	 64.2033
9.022000	 64.1203
9.108000	 64.2937
9.193999	 64.2929
9.280000	 64.3132
9.366000	 64.195
9.452000	 64.0136
9.538000	 64.1492
9.624000	 63.9821
9.710000	 63.9726
9.795999	 64.0921
9.882000	 63.9944
9.968000	 64.1111
10.054	64.3386
10.14	63.7577
10.226	64.0142
10.312	63.7841
10.398	63.924
10.484	63.9321
10.57	63.6183
10.656	63.8913
10.742	63.8873
10.828	63.8195
10.914	63.6839
11	63.672
11.086	63.0475
11.172	63.2963
11.258	63.5893
11.344	63.9897
11.43	63.796
11.516	63.4003
11.602	63.3197
11.688	63.3812
11.774	63.5423
11.86	63.5703
11.946	63.5912
12.032	63.6478
12.118	63.6343
12.204	63.4865
12.29	63.4607
12.376	63.6371
12.462	63.6588
12.548	63.4381
12.634	63.3525
12.72	63.308
12.806	63.3059
12.892	63.4203
12.978	63.318
13.064	63.2858
13.15	63.3145
13.236	63.131
13.322	62.9474
13.408	62.9429
13.494	63.0115
13.58	63.0824
13.666	63.0621
13.752	63.123
13.838	63.1938
13.924	63.0841
14.01	62.9333
14.096	62.9135
14.182	62.8834
14.268	62.6004
14.354	62.4935
14.44	62.696
14.526	62.7471
14.612	62.5596
14.698	62.4785
14.784	62.5486
14.87	62.5335
14.956	62.4443
15.042	62.3859
15.128	62.3645
15.214	62.3587
15.3	62.4222
15.386	62.5124
15.472	62.4638
15.558	62.352
15.644	62.3874
15.73	62.4948
15.816	62.4331
15.902	62.24
15.988	62.1916
16.074	62.3339
16.16	62.4535
16.246	62.4588
16.332	62.432
16.418	62.37
16.504	62.1845
16.59	61.9402
16.676	61.8225
16.762	61.8828
16.848	62.0082
16.934	62.1068
17.02	62.1256
17.106	62.0166
17.192	61.8548
17.278	61.7749
17.364	61.7497
17.45	61.661
17.536	61.5154
17.622	61.3666
17.708	61.2052
17.794	61.0595
17.88	61.0033
17.966	61.0161
18.052	61.0208
18.138	61.0367
18.224	61.1502
18.31	61.3667
18.396	61.6013
18.482	61.7614
18.568	61.7789
18.654	61.6388
18.74	61.4215
18.826	61.2601
18.912	61.206
18.998	61.187
19.084	61.1208
19.17	61.0208
19.256	60.953
19.342	60.935
19.428	60.9079
19.514	60.808
19.6	60.6416
19.686	60.4777
19.772	60.3888
19.858	60.4051
19.944	60.5029
20.03	60.6154
20.116	60.665
20.202	60.6126
20.288	60.4915
20.374	60.3845
20.46	60.356
20.546	60.3973
20.632	60.4435
20.718	60.4375
20.804	60.3694
20.89	60.2672
20.976	60.1604
21.062	60.0624
21.148	59.9746
21.234	59.9051
21.32	59.8697
21.406	59.8696
21.492	59.8681
21.578	59.7968
21.664	59.5983
21.75	59.2817
21.836	58.9428
21.922	58.724
22.008	58.719
22.094	58.9054
22.18	59.1694
22.266	59.3858
22.352	59.4979
22.438	59.533
22.524	59.5492
22.61	59.5768
22.696	59.5997
22.782	59.5859
22.868	59.5244
22.954	59.4399
23.04	59.3689
23.126	59.342
23.212	59.3844
23.298	59.5183
23.384	59.7607
23.47	60.1043
23.556	60.4996
23.642	60.8596
23.728	61.0959
23.814	61.1694
23.9	61.1128
23.986	61.0157
24.072	60.9615
24.158	61.0035
24.244	61.1364
24.33	61.3152
24.416	61.5015
24.502	61.6538
24.588	61.7315
24.674	61.7015
24.76	61.5361
24.846	61.2492
24.932	60.8808
25.018	60.4898
25.104	60.1812
25.19	60.0164
25.276	59.9837
25.362	60.0258
25.448	60.0917
25.534	60.1822
25.62	60.365
25.706	60.762
25.792	61.5101
25.878	62.7247
25.964	64.4638
26.05	66.6757
26.136	69.1749
26.222	71.6517
26.308	73.6752
26.394	74.8826
26.48	75.2344
26.566	75.0953
26.652	75.1396
26.738	76.1548
26.824	78.7047
26.91	82.9252
26.996	88.7638
27.028	90.5434