File: Bakgrunnsmateriale/MATLAB/FTIR/ftir_data/subBb/Mapping_36/C-4040-8_t24.asc
PE IR       SPECTRUM    SPECTRUM    ASCII       PEDS        1.60
  -1
C-BD2A~1.ASC
17/05/02
12:50:44.00
17/05/02
12:51:11.00
tln
$C-4040-8_t0024$<tbV0>[-12.5,2.0,8.0,0.0,22,1,0]
27.028
64

2002,4.07
MIRTGS : RIGHTBACK : INTERNAL 2
MIR : ON : INTERNAL 2
OPTKBR

0.200000
8
8.000000
FILLER
RATIO
SPECTRUM
UNLOCKED 256

DOUBLE
64
COMBINED
1
0
0

0.002000
RATIO

1
0
TRUE
51149
0
LEFT NOT FITTED RIGHT NOT FITTED 0
NONE
NONE
15600
12
4.427000
51148
TRUE
1 0 8 72 0 0 0 0

15798

#HDR
-1
-1
#GR
µM
%T
2.38419e-05
0.0
1.282000
0.002000
12874
8
85.6056
43.4696
#DATA
1.282000	 61.5177
1.368000	 65.5456
1.454000	 63.3343
1.540000	 65.5956
1.626000	 65.5506
1.712000	 64.7058
1.798000	 65.7285
1.884000	 63.0844
1.970000	 64.7287
2.056000	 64.8066
2.142000	 65.0965
2.228000	 63.9865
2.314000	 64.384
2.400000	 65.0173
2.486000	 65.4214
2.572000	 65.2525
2.658000	 65.2045
2.744000	 65.229
2.830000	 65.2146
2.916000	 65.1425
3.002000	 64.9034
3.088000	 65.0479
3.174000	 65.1951
3.260000	 65.2193
3.346000	 65.1974
3.432000	 64.7962
3.518000	 65.0083
3.604000	 65.2045
3.690000	 65.181
3.776000	 65.2839
3.862000	 65.2717
3.948000	 65.4241
4.034000	 65.3366
4.120000	 65.2165
4.206000	 65.3346
4.292000	 65.3227
4.378000	 65.399
4.464000	 65.4168
4.550000	 65.3178
4.636000	 65.4318
4.722000	 65.3543
4.808000	 65.2198
4.894000	 65.241
4.980000	 65.3218
5.066000	 65.4055
5.152000	 65.3452
5.238000	 65.3648
5.324000	 65.3489
5.410000	 65.3157
5.496000	 65.3224
5.582000	 65.3229
5.668000	 65.3452
5.754000	 65.1442
5.840000	 65.2086
5.926000	 65.2271
6.012000	 65.1941
6.098000	 65.12
6.184000	 65.2511
6.270000	 65.1215
6.356000	 65.0788
6.442000	 65.1605
6.528000	 65.122
6.614000	 65.1088
6.700000	 65.1854
6.786000	 65.1678
6.872000	 65.0787
6.958000	 65.0585
7.044000	 65.0289
7.130000	 65.155
7.216000	 65.1478
7.302000	 65.0597
7.388000	 65.0992
7.474000	 65.191
7.560000	 65.1455
7.646000	 65.1391
7.732000	 65.0741
7.818000	 65.0628
7.904000	 65.0279
7.990000	 65.0482
8.076000	 65.0231
8.161999	 65.0985
8.248000	 64.992
8.334000	 64.9748
8.420000	 64.9493
8.506000	 65.0249
8.592000	 65.0071
8.678000	 64.894
8.763999	 64.8219
8.850000	 64.8302
8.936000	 64.7816
9.022000	 64.9573
9.108000	 64.8211
9.193999	 64.8238
9.280000	 64.7725
9.366000	 64.9933
9.452000	 64.7879
9.538000	 64.8384
9.624000	 65.0741
9.710000	 64.9253
9.795999	 64.7269
9.882000	 64.6905
9.968000	 64.8426
10.054	64.921
10.14	64.9568
10.226	64.6951
10.312	64.8318
10.398	64.8555
10.484	64.8489
10.57	64.8334
10.656	64.5705
10.742	64.6097
10.828	64.9357
10.914	64.5914
11	64.5838
11.086	64.3545
11.172	64.1686
11.258	64.6703
11.344	65.448
11.43	65.0495
11.516	64.8522
11.602	64.8093
11.688	64.366
11.774	64.3924
11.86	64.4337
11.946	64.3837
12.032	64.4387
12.118	64.6178
12.204	64.3576
12.29	64.123
12.376	64.0456
12.462	64.0023
12.548	64.0177
12.634	64.2987
12.72	64.469
12.806	64.2362
12.892	64.0867
12.978	64.1789
13.064	64.2183
13.15	64.1534
13.236	64.068
13.322	64.1473
13.408	64.007
13.494	63.787
13.58	63.7028
13.666	63.7239
13.752	63.8173
13.838	63.9615
13.924	63.8537
14.01	63.657
14.096	63.6315
14.182	63.6097
14.268	63.5464
14.354	63.4931
14.44	63.5535
14.526	63.5555
14.612	63.3812
14.698	63.313
14.784	63.3779
14.87	63.4304
14.956	63.3565
15.042	63.1168
15.128	62.9593
15.214	63.1001
15.3	63.3289
15.386	63.3577
15.472	63.1881
15.558	63.015
15.644	62.9658
15.73	63.0325
15.816	63.1614
15.902	63.2275
15.988	63.1551
16.074	63.0547
16.16	62.9765
16.246	62.8679
16.332	62.8491
16.418	63.0777
16.504	63.3349
16.59	63.3223
16.676	63.1876
16.762	63.1541
16.848	63.1878
16.934	63.162
17.02	62.9918
17.106	62.7592
17.192	62.6583
17.278	62.6724
17.364	62.5786
17.45	62.3689
17.536	62.3003
17.622	62.4605
17.708	62.6711
17.794	62.8104
17.88	62.9215
17.966	63.0271
18.052	63.0812
18.138	63.0786
18.224	63.0541
18.31	63.0077
18.396	62.9205
18.482	62.8011
18.568	62.6819
18.654	62.6113
18.74	62.6294
18.826	62.7171
18.912	62.7987
18.998	62.8106
19.084	62.7559
19.17	62.685
19.256	62.6189
19.342	62.5389
19.428	62.4454
19.514	62.3842
19.6	62.3787
19.686	62.3835
19.772	62.3328
19.858	62.1954
19.944	61.9759
20.03	61.6867
20.116	61.3457
20.202	61.0072
20.288	60.7702
20.374	60.739
20.46	60.9413
20.546	61.2832
20.632	61.5986
20.718	61.763
20.804	61.77
20.89	61.7119
20.976	61.6851
21.062	61.7004
21.148	61.6769
21.234	61.5239
21.32	61.2377
21.406	60.9189
21.492	60.6734
21.578	60.5214
21.664	60.4019
21.75	60.2558
21.836	60.0974
21.922	60.0001
22.008	60.0176
22.094	60.1113
22.18	60.1643
22.266	60.0625
22.352	59.7738
22.438	59.3833
22.524	59.042
22.61	58.8891
22.696	58.9779
22.782	59.2567
22.868	59.5959
22.954	59.8509
23.04	59.9375
23.126	59.8477
23.212	59.6485
23.298	59.4349
23.384	59.2417
23.47	59.0202
23.556	58.695
23.642	58.2152
23.728	57.6262
23.814	57.0847
23.9	56.7695
23.986	56.7954
24.072	57.1721
24.158	57.7536
24.244	58.3143
24.33	58.6093
24.416	58.4458
24.502	57.7529
24.588	56.6301
24.674	55.3599
24.76	54.3875
24.846	54.1729
24.932	55.0961
25.018	57.2721
25.104	60.4938
25.19	64.1848
25.276	67.5908
25.362	69.9729
25.448	70.8096
25.534	69.9503
25.62	67.569
25.706	64.0462
25.792	59.8478
25.878	55.4445
25.964	51.2756
26.05	47.714
26.136	45.0741
26.222	43.6551
26.308	43.644
26.394	45.0235
26.48	47.4428
26.566	50.3444
26.652	53.1088
26.738	55.3952
26.824	57.1981
26.91	58.812
26.996	60.5588
27.028	61.0647