File: Bakgrunnsmateriale/MATLAB/FTIR/ftir_data/subBb/Mapping_36/C-4040-8_t01_cm-1.asc
PE IR       SPECTRUM    SPECTRUM    ASCII       PEDS        1.60
  -1
C-4040~3.ASC
17/05/02
10:54:46.00
17/05/02
10:54:46.00
tln
$C-4040-8_t0001$<tbV0>[12.5,-13.0,8.0,0.0,22,1,0]
370
64

2002,4.07
MIRTGS : RIGHTBACK : INTERNAL 2
MIR : ON : INTERNAL 2
OPTKBR

0.200000
8
8.000000
FILLER
RATIO
SPECTRUM
UNLOCKED 256

DOUBLE
64
COMBINED
1
0
0

1.000000
RATIO

1
0
TRUE
51149
0
LEFT NOT FITTED RIGHT NOT FITTED 0
NONE
NONE
15600
12
4.427000
51148
TRUE
1 0 8 72 0 0 0 0

15798

#HDR
-1
-1
#GR
CM-1
%T
2.38419e-05
0.0
7800
-1.000000
7431
8
80.4978
52.3418
#DATA
7800	74.1576
7775	66.5333
7750	69.8815
7725	64.9711
7700	61.2588
7675	70.1574
7650	66.1051
7625	66.8941
7600	60.0641
7575	69.8527
7550	66.8622
7525	64.1074
7500	62.4108
7475	65.0326
7450	68.5417
7425	67.9136
7400	67.1909
7375	63.8438
7350	65.4823
7325	63.3329
7300	65.4895
7275	65.7354
7250	64.5494
7225	65.1664
7200	65.1947
7175	62.7994
7150	62.562
7125	64.1856
7100	65.2076
7075	63.3093
7050	65.8812
7025	62.6766
7000	63.7207
6975	64.59
6950	62.6818
6925	63.6031
6900	63.3087
6875	63.9849
6850	65.3248
6825	64.3713
6800	64.2449
6775	65.0069
6750	63.9868
6725	66.1296
6700	65.7567
6675	62.72
6650	62.0843
6625	62.1636
6600	65.7888
6575	65.6016
6550	64.5792
6525	64.9405
6500	64.4453
6475	63.9087
6450	66.1063
6425	64.8922
6400	62.7368
6375	63.6805
6350	65.4939
6325	63.9466
6300	62.9003
6275	64.9101
6250	64.0725
6225	64.3056
6200	64.0246
6175	65.2297
6150	64.6579
6125	63.9334
6100	65.2043
6075	64.6369
6050	64.2498
6025	64.593
6000	64.6615
5975	64.0621
5950	64.1911
5925	63.6345
5900	64.2127
5875	64.8974
5850	64.4674
5825	64.1477
5800	65.1239
5775	64.2356
5750	64.1769
5725	64.6062
5700	64.5765
5675	65.303
5650	64.9049
5625	64.5133
5600	64.6631
5575	65.1142
5550	64.5144
5525	64.7449
5500	64.6936
5475	64.2273
5450	64.6498
5425	63.8696
5400	64.5598
5375	64.7639
5350	63.6818
5325	64.1878
5300	66.3384
5275	65.1316
5250	62.6965
5225	60.2689
5200	62.3298
5175	65.7311
5150	64.1363
5125	64.6395
5100	64.4005
5075	64.4897
5050	64.4754
5025	64.1497
5000	64.5041
4975	64.1814
4950	64.8591
4925	64.686
4900	64.6496
4875	64.4687
4850	63.8693
4825	64.4689
4800	64.3037
4775	64.523
4750	64.5016
4725	64.6565
4700	65.0226
4675	64.4422
4650	64.4748
4625	64.7048
4600	64.9343
4575	64.5489
4550	65.261
4525	64.0012
4500	64.8976
4475	64.6431
4450	64.8754
4425	64.1031
4400	80.4978
4375	64.6176
4350	65.1114
4325	64.6569
4300	64.1701
4275	65.0043
4250	64.7973
4225	64.7025
4200	64.5093
4175	64.6966
4150	64.5572
4125	64.8127
4100	64.7184
4075	64.7515
4050	64.6872
4025	64.6201
4000	64.7174
3975	64.9265
3950	64.6882
3925	64.8738
3900	64.8681
3875	64.8689
3850	64.695
3825	64.6956
3800	64.8951
3775	64.6995
3750	64.7799
3725	64.8301
3700	64.8698
3675	64.7829
3650	64.9628
3625	64.8566
3600	64.8422
3575	64.9532
3550	64.7775
3525	64.8719
3500	64.7221
3475	64.9007
3450	64.6827
3425	64.7855
3400	64.7836
3375	64.8416
3350	64.8132
3325	64.7296
3300	64.8176
3275	64.7712
3250	64.836
3225	64.7743
3200	64.8232
3175	64.8421
3150	64.8028
3125	64.7561
3100	64.8546
3075	64.8823
3050	64.7751
3025	64.871
3000	64.8973
2975	64.7759
2950	64.618
2925	64.5563
2900	64.7689
2875	64.7264
2850	64.7532
2825	64.9836
2800	64.9205
2775	65.0101
2750	64.8852
2725	64.9706
2700	64.9748
2675	64.9162
2650	64.8783
2625	64.8369
2600	64.8403
2575	64.8707
2550	64.9362
2525	64.9562
2500	64.974
2475	64.9852
2450	64.8462
2425	65.0792
2400	65.0561
2375	64.9149
2350	64.9919
2325	65.0311
2300	64.9892
2275	64.8859
2250	64.8302
2225	64.9035
2200	64.8862
2175	64.9624
2150	64.8881
2125	64.811
2100	64.9902
2075	65.0297
2050	65.0067
2025	64.9057
2000	64.977
1975	64.8794
1950	64.9665
1925	64.9713
1900	64.9673
1875	65.0061
1850	64.8444
1825	65.0415
1800	65.0271
1775	64.9377
1750	64.8169
1725	64.8123
1700	64.931
1675	64.8597
1650	64.8445
1625	64.7677
1600	64.7803
1575	64.7249
1550	64.7704
1525	64.7954
1500	64.7541
1475	64.6965
1450	64.7087
1425	64.7384
1400	64.772
1375	64.7338
1350	64.7408
1325	64.6968
1300	64.7093
1275	64.5578
1250	64.5332
1225	64.5714
1200	64.7264
1175	64.5017
1150	64.5998
1125	64.4504
1100	64.5261
1075	64.502
1050	64.3096
1025	64.2858
1000	64.1883
975	 64.1114
950	 64.1601
925	 64.3125
900	 64.1261
875	 64.581
850	 64.4174
825	 63.607
800	 63.4672
775	 63.7249
750	 63.604
725	 63.2164
700	 62.7892
675	 62.6162
650	 62.1705
625	 62.2984
600	 62.3332
575	 61.9921
550	 61.4312
525	 60.9231
500	 60.2685
475	 58.7693
450	 57.342
425	 56.3352
400	 55.6379
375	 65.9257
370	 61.2886