File: Bakgrunnsmateriale/MATLAB/FTIR/ftir_data/subBb/Mapping_36/C-4040-8_e37_cm-1.asc
PE IR       SPECTRUM    SPECTRUM    ASCII       PEDS        1.60
  -1
C-4040~1.ASC
17/05/02
10:48:50.00
17/05/02
10:48:50.00
tln
$C-4040-8_e0037$<ebV0>[-23.3,12.1,10.0,0.0,22,1,0]
370
64

2002,4.07
MIRTGS : RIGHTBACK : INTERNAL 2
MIR : ON : INTERNAL 2
OPTKBR

0.200000
8
8.000000
FILLER
SINGLE
SPECTRUM
UNLOCKED 256

DOUBLE

COMBINED
1
0
0

1.000000
BACKG

1
0
TRUE
51149
0
LEFT NOT FITTED RIGHT NOT FITTED 0
NONE
NONE
15600
12
4.427000
51148
TRUE
1 0 8 72 0 0 0 0

15798

#HDR
-1
-1
#GR
CM-1
EGY
2.38419e-05
0.0
7800
-1.000000
7431
8
2.447628
0.006937
#DATA
7800	0.034904
7775	0.040721
7750	0.044703
7725	0.051283
7700	0.054240
7675	0.056719
7650	0.060701
7625	0.064873
7600	0.071883
7575	0.071048
7550	0.074386
7525	0.082087
7500	0.085258
7475	0.087642
7450	0.087594
7425	0.089788
7400	0.092244
7375	0.099778
7350	0.102233
7325	0.104212
7300	0.110530
7275	0.110173
7250	0.113701
7225	0.115895
7200	0.120687
7175	0.125527
7150	0.130915
7125	0.132489
7100	0.131940
7075	0.137853
7050	0.141024
7025	0.145697
7000	0.148010
6975	0.151467
6950	0.159049
6925	0.159740
6900	0.164151
6875	0.168061
6850	0.170207
6825	0.174927
6800	0.179409
6775	0.182604
6750	0.185227
6725	0.186419
6700	0.187969
6675	0.195407
6650	0.196146
6625	0.199294
6600	0.200414
6575	0.203418
6550	0.209403
6525	0.213527
6500	0.217843
6475	0.222492
6450	0.225663
6425	0.233912
6400	0.240015
6375	0.245547
6350	0.252294
6325	0.259375
6300	0.269389
6275	0.272774
6250	0.281095
6225	0.286483
6200	0.295758
6175	0.301814
6150	0.308704
6125	0.316548
6100	0.322341
6075	0.332331
6050	0.340819
6025	0.347185
6000	0.357055
5975	0.362610
5950	0.371241
5925	0.377750
5900	0.380468
5875	0.384759
5850	0.391745
5825	0.399160
5800	0.402307
5775	0.412535
5750	0.418663
5725	0.425124
5700	0.430440
5675	0.428390
5650	0.434088
5625	0.443100
5600	0.445890
5575	0.455760
5550	0.464677
5525	0.476956
5500	0.483131
5475	0.495839
5450	0.505661
5425	0.518083
5400	0.530195
5375	0.537467
5350	0.549197
5325	0.564980
5300	0.582122
5275	0.595688
5250	0.614905
5225	0.646162
5200	0.641560
5175	0.647234
5150	0.678944
5125	0.688147
5100	0.704097
5075	0.721287
5050	0.736522
5025	0.754618
5000	0.767540
4975	0.780987
4950	0.790286
4925	0.801205
4900	0.810790
4875	0.821781
4850	0.838899
4825	0.850009
4800	0.865340
4775	0.878429
4750	0.888776
4725	0.897383
4700	0.898647
4675	0.906443
4650	0.913524
4625	0.922322
4600	0.935387
4575	0.953102
4550	0.967860
4525	0.989341
4500	0.996828
4475	1.007175
4450	1.004409
4425	1.007199
4400	0.907611
4375	1.063442
4350	1.067423
4325	1.093864
4300	1.119637
4275	1.143717
4250	1.165604
4225	1.182413
4200	1.196765
4175	1.205420
4150	1.222872
4125	1.239538
4100	1.263475
4075	1.292419
4050	1.328921
4025	1.361012
4000	1.387572
3975	1.404166
3950	1.416540
3925	1.428484
3900	1.432490
3875	1.445174
3850	1.462173
3825	1.490259
3800	1.511597
3775	1.546573
3750	1.542019
3725	1.569008
3700	1.577830
3675	1.564884
3650	1.569366
3625	1.582598
3600	1.593422
3575	1.605653
3550	1.620173
3525	1.621985
3500	1.618957
3475	1.608252
3450	1.593685
3425	1.581668
3400	1.594972
3375	1.611614
3350	1.646208
3325	1.684737
3300	1.716208
3275	1.747369
3250	1.766681
3225	1.783585
3200	1.785063
3175	1.792383
3150	1.805853
3125	1.834535
3100	1.870441
3075	1.915693
3050	1.954293
3025	1.959395
3000	2.017760
2975	1.996207
2950	1.914834
2925	1.764941
2900	1.962041
2875	1.998186
2850	1.982116
2825	2.122044
2800	2.175116
2775	2.219223
2750	2.248024
2725	2.252674
2700	2.243328
2675	2.234768
2650	2.222847
2625	2.221465
2600	2.226352
2575	2.253460
2550	2.283740
2525	2.308964
2500	2.321195
2475	2.317237
2450	2.299761
2425	2.274441
2400	2.254414
2375	2.242255
2350	2.258729
2325	2.287149
2300	2.332806
2275	2.361869
2250	2.375912
2225	2.371788
2200	2.356648
2175	2.337074
2150	2.331686
2125	2.332115
2100	2.332901
2075	2.346992
2050	2.394914
2025	2.434563
2000	2.447628
1975	2.437019
1950	2.415728
1925	2.390456
1900	2.365779
1875	2.367758
1850	2.384710
1825	2.401423
1800	2.419257
1775	2.406573
1750	2.371835
1725	2.315568
1700	2.246236
1675	2.225375
1650	2.154541
1625	2.102684
1600	1.985144
1575	1.973938
1550	1.946878
1525	2.102184
1500	1.844358
1475	1.968574
1450	1.759576
1425	1.862549
1400	1.725983
1375	1.804423
1350	1.807641
1325	1.842451
1300	1.847410
1275	1.821208
1250	1.805639
1225	1.812481
1200	1.737976
1175	1.690888
1150	1.603603
1125	1.520776
1100	1.421976
1075	1.421594
1050	1.294779
1025	1.357746
1000	1.392793
975	 1.359653
950	 1.277446
925	 1.222634
900	 1.148891
875	 1.022410
850	 1.079320
825	 0.851130
800	 0.938105
775	 0.972580
750	 0.946021
725	 0.890040
700	 0.810790
675	 0.727367
650	 0.667452
625	 0.601792
600	 0.519704
575	 0.497436
550	 0.459289
525	 0.410246
500	 0.346088
475	 0.259780
450	 0.175857
425	 0.102734
400	 0.040960
375	 0.008106
370	 0.006937