File: Bakgrunnsmateriale/MATLAB/FTIR/ftir_data/subBb/Mapping_36/C-4040-8_e39_cm-1.asc
PE IR       SPECTRUM    SPECTRUM    ASCII       PEDS        1.60
  -1
C-1B25~1.ASC
17/05/02
12:56:27.00
17/05/02
12:56:27.00
tln
$C-4040-8_e0039$<ebV0>[-23.3,12.1,10.0,0.0,22,1,0]
370
64

2002,4.07
MIRTGS : RIGHTBACK : INTERNAL 2
MIR : ON : INTERNAL 2
OPTKBR

0.200000
8
8.000000
FILLER
SINGLE
SPECTRUM
UNLOCKED 256

DOUBLE

COMBINED
1
0
0

1.000000
BACKG

1
0
TRUE
51149
0
LEFT NOT FITTED RIGHT NOT FITTED 0
NONE
NONE
15600
12
4.427000
51148
TRUE
1 0 8 72 0 0 0 0

15798

#HDR
-1
-1
#GR
CM-1
EGY
2.38419e-05
0.0
7800
-1.000000
7431
8
2.449369
0.006222
#DATA
7800	0.030851
7775	0.039172
7750	0.043630
7725	0.048470
7700	0.054645
7675	0.055408
7650	0.060296
7625	0.064611
7600	0.068426
7575	0.068664
7550	0.074458
7525	0.078010
7500	0.083398
7475	0.086736
7450	0.089097
7425	0.090503
7400	0.096988
7375	0.100731
7350	0.100827
7325	0.105690
7300	0.112223
7275	0.110411
7250	0.114679
7225	0.115990
7200	0.120997
7175	0.127387
7150	0.128841
7125	0.133514
7100	0.136804
7075	0.140619
7050	0.142288
7025	0.148248
7000	0.150084
6975	0.155711
6950	0.158405
6925	0.160813
6900	0.164508
6875	0.166296
6850	0.169444
6825	0.173425
6800	0.177955
6775	0.180602
6750	0.185441
6725	0.191879
6700	0.189137
6675	0.195240
6650	0.195789
6625	0.197577
6600	0.202322
6575	0.205159
6550	0.210070
6525	0.216150
6500	0.217461
6475	0.226354
6450	0.230431
6425	0.236392
6400	0.238370
6375	0.245523
6350	0.251078
6325	0.258445
6300	0.266218
6275	0.272321
6250	0.282621
6225	0.288534
6200	0.294923
6175	0.304126
6150	0.309729
6125	0.316858
6100	0.324034
6075	0.335526
6050	0.338125
6025	0.350666
6000	0.356912
5975	0.362706
5950	0.370573
5925	0.374579
5900	0.378847
5875	0.385999
5850	0.390982
5825	0.396132
5800	0.407290
5775	0.411534
5750	0.415706
5725	0.423955
5700	0.428175
5675	0.431752
5650	0.434255
5625	0.440454
5600	0.445246
5575	0.454282
5550	0.466871
5525	0.478672
5500	0.488567
5475	0.498461
5450	0.505256
5425	0.513124
5400	0.523424
5375	0.533175
5350	0.547933
5325	0.567007
5300	0.595307
5275	0.607800
5250	0.616359
5225	0.638413
5200	0.647377
5175	0.662922
5150	0.675392
5125	0.689506
5100	0.703883
5075	0.721716
5050	0.740551
5025	0.754189
5000	0.769472
4975	0.780844
4950	0.794649
4925	0.800609
4900	0.812983
4875	0.826406
4850	0.837993
4825	0.849795
4800	0.867819
4775	0.878024
4750	0.892615
4725	0.900578
4700	0.907230
4675	0.908708
4650	0.914573
4625	0.925016
4600	0.937271
4575	0.952363
4550	0.974822
4525	0.986766
4500	1.001572
4475	1.006507
4450	1.011228
4425	1.012468
4400	1.017189
4375	1.056885
4350	1.066589
4325	1.090192
4300	1.116514
4275	1.143693
4250	1.167464
4225	1.184487
4200	1.197171
4175	1.210951
4150	1.222443
4125	1.239848
4100	1.263642
4075	1.299166
4050	1.328611
4025	1.364064
4000	1.388406
3975	1.409220
3950	1.418495
3925	1.428270
3900	1.434493
3875	1.450538
3850	1.462960
3825	1.491713
3800	1.517534
3775	1.549625
3750	1.547145
3725	1.570701
3700	1.579403
3675	1.568698
3650	1.572728
3625	1.585316
3600	1.598668
3575	1.609277
3550	1.619005
3525	1.625275
3500	1.622486
3475	1.614570
3450	1.595044
3425	1.584267
3400	1.595926
3375	1.614165
3350	1.646137
3325	1.683235
3300	1.718831
3275	1.747941
3250	1.770401
3225	1.781487
3200	1.790046
3175	1.792287
3150	1.809525
3125	1.836895
3100	1.871633
3075	1.919770
3050	1.955819
3025	1.963591
3000	2.018165
2975	1.999235
2950	1.916599
2925	1.767873
2900	1.963591
2875	1.999187
2850	1.984548
2825	2.122282
2800	2.177500
2775	2.222299
2750	2.249526
2725	2.255058
2700	2.243852
2675	2.237725
2650	2.224421
2625	2.220797
2600	2.226591
2575	2.253937
2550	2.282762
2525	2.311706
2500	2.321600
2475	2.319884
2450	2.300953
2425	2.275657
2400	2.258443
2375	2.244257
2350	2.261567
2325	2.291822
2300	2.333259
2275	2.363944
2250	2.373743
2225	2.373218
2200	2.354764
2175	2.336311
2150	2.330374
2125	2.331018
2100	2.333664
2075	2.348256
2050	2.398705
2025	2.433943
2000	2.448129
1975	2.435231
1950	2.414703
1925	2.393531
1900	2.365612
1875	2.368235
1850	2.383542
1825	2.403569
1800	2.419137
1775	2.407860
1750	2.372479
1725	2.318525
1700	2.252912
1675	2.226519
1650	2.155399
1625	2.101659
1600	1.985502
1575	1.976060
1550	1.948833
1525	2.104735
1500	1.845741
1475	1.969408
1450	1.760864
1425	1.859712
1400	1.727271
1375	1.805925
1350	1.807904
1325	1.841855
1300	1.847028
1275	1.819729
1250	1.805782
1225	1.809835
1200	1.738858
1175	1.692128
1150	1.605129
1125	1.519298
1100	1.421403
1075	1.422786
1050	1.294445
1025	1.357936
1000	1.391792
975	 1.355242
950	 1.276540
925	 1.218914
900	 1.151371
875	 1.024937
850	 1.078748
825	 0.842142
800	 0.941157
775	 0.972414
750	 0.949168
725	 0.889348
700	 0.811648
675	 0.728273
650	 0.668454
625	 0.602173
600	 0.519776
575	 0.498104
550	 0.461196
525	 0.410056
500	 0.344419
475	 0.260901
450	 0.173640
425	 0.101780
400	 0.039768
375	 0.008749
370	 0.006222