File: Bakgrunnsmateriale/MATLAB/FTIR/ftir_data/subBb/Mapping_36/C-4040-8_t13_cm-1.asc
PE IR       SPECTRUM    SPECTRUM    ASCII       PEDS        1.60
  -1
C-1AE1~1.ASC
17/05/02
11:58:35.00
17/05/02
11:58:35.00
tln
$C-4040-8_t0013$<tbV0>[12.5,-3.0,8.0,0.0,22,1,0]
370
64

2002,4.07
MIRTGS : RIGHTBACK : INTERNAL 2
MIR : ON : INTERNAL 2
OPTKBR

0.200000
8
8.000000
FILLER
RATIO
SPECTRUM
UNLOCKED 256

DOUBLE
64
COMBINED
1
0
0

1.000000
RATIO

1
0
TRUE
51149
0
LEFT NOT FITTED RIGHT NOT FITTED 0
NONE
NONE
15600
12
4.427000
51148
TRUE
1 0 8 72 0 0 0 0

15798

#HDR
-1
-1
#GR
CM-1
%T
2.38419e-05
0.0
7800
-1.000000
7431
8
94.6613
37.6785
#DATA
7800	76.2345
7775	72.7765
7750	67.1378
7725	65.1352
7700	69.1502
7675	73.0934
7650	69.7882
7625	64.9888
7600	65.1717
7575	67.9958
7550	64.4714
7525	66.8535
7500	62.5465
7475	68.518
7450	63.1953
7425	64.7428
7400	66.2117
7375	64.1718
7350	67.4918
7325	66.4596
7300	66.4867
7275	68.4359
7250	66.6131
7225	65.2968
7200	63.3525
7175	65.6338
7150	66.2879
7125	65.8574
7100	64.1654
7075	65.1924
7050	64.3705
7025	62.4012
7000	62.1316
6975	63.8056
6950	62.9446
6925	63.8213
6900	64.7456
6875	65.3436
6850	63.2477
6825	64.203
6800	64.9727
6775	63.6504
6750	62.2834
6725	63.1437
6700	64.5039
6675	65.7095
6650	62.821
6625	64.5303
6600	64.3982
6575	64.2865
6550	66.1986
6525	63.2375
6500	66.4476
6475	64.0349
6450	64.8108
6425	63.6297
6400	65.8131
6375	65.7891
6350	64.8992
6325	64.4619
6300	65.0449
6275	64.1608
6250	64.6916
6225	66.182
6200	64.633
6175	65.467
6150	64.9559
6125	65.2857
6100	63.5957
6075	65.5351
6050	65.6578
6025	65.3162
6000	65.093
5975	64.6983
5950	64.8791
5925	65.1623
5900	65.39
5875	64.9368
5850	64.8834
5825	64.8811
5800	65.0416
5775	64.0362
5750	65.1675
5725	64.4672
5700	64.5696
5675	64.2082
5650	65.0087
5625	66.2815
5600	65.8204
5575	64.5985
5550	64.5241
5525	65.3471
5500	64.8902
5475	64.9125
5450	64.9298
5425	64.9424
5400	65.1842
5375	64.1869
5350	63.5664
5325	61.5858
5300	66.8839
5275	64.0938
5250	66.7341
5225	65.4318
5200	64.5364
5175	64.9919
5150	64.9875
5125	64.8166
5100	64.8773
5075	64.7984
5050	64.5799
5025	65.0229
5000	65.1282
4975	65.2178
4950	64.6758
4925	64.7493
4900	64.6902
4875	64.5998
4850	64.9703
4825	64.9985
4800	64.8229
4775	65.0614
4750	64.9809
4725	65.2146
4700	65.1639
4675	65.396
4650	65.219
4625	65.053
4600	65.2102
4575	64.9665
4550	64.8145
4525	64.5838
4500	64.5004
4475	63.8589
4450	64.1799
4425	63.7294
4400	61.8636
4375	66.9718
4350	63.9931
4325	64.5541
4300	64.8014
4275	64.8277
4250	64.8801
4225	64.981
4200	64.609
4175	65.1978
4150	64.9823
4125	65.1869
4100	65.2688
4075	65.0636
4050	65.4615
4025	65.2134
4000	65.2477
3975	65.2969
3950	64.9702
3925	65.1658
3900	64.9722
3875	65.1023
3850	65.1105
3825	65.1777
3800	65.1424
3775	65.085
3750	65.167
3725	65.1167
3700	65.1088
3675	65.2894
3650	65.1853
3625	65.3266
3600	65.2436
3575	65.3491
3550	65.2908
3525	65.0579
3500	64.9798
3475	65.0722
3450	65.3368
3425	65.1075
3400	64.9546
3375	65.0733
3350	65.205
3325	64.963
3300	65.1261
3275	65.0249
3250	65.0496
3225	65.0352
3200	65.1889
3175	65.1423
3150	65.0934
3125	65.2485
3100	65.3263
3075	65.1383
3050	65.2088
3025	65.2768
3000	65.1791
2975	65.0698
2950	64.9082
2925	64.9581
2900	64.9091
2875	65.1129
2850	64.8869
2825	65.2351
2800	65.2013
2775	65.2266
2750	65.2349
2725	65.3557
2700	65.3011
2675	65.1938
2650	65.2009
2625	65.2668
2600	65.2299
2575	65.2613
2550	65.3544
2525	65.2302
2500	65.22
2475	65.2927
2450	65.2256
2425	65.289
2400	65.2022
2375	65.241
2350	65.3145
2325	65.3931
2300	65.2645
2275	65.3039
2250	65.3816
2225	65.3368
2200	65.3959
2175	65.3169
2150	65.3101
2125	65.3207
2100	65.203
2075	65.3572
2050	65.2969
2025	65.2808
2000	65.2126
1975	65.3481
1950	65.3539
1925	65.2025
1900	65.2417
1875	65.3324
1850	65.3341
1825	65.2188
1800	65.2181
1775	65.3003
1750	65.0566
1725	65.1628
1700	65.2213
1675	65.1092
1650	65.1768
1625	65.2265
1600	65.2134
1575	65.0535
1550	64.9961
1525	65.0837
1500	65.1496
1475	65.0336
1450	64.9904
1425	64.9994
1400	65.1065
1375	64.826
1350	65.0269
1325	64.9784
1300	64.892
1275	64.8132
1250	64.8847
1225	64.9346
1200	64.8917
1175	65.0045
1150	64.7607
1125	64.6265
1100	64.808
1075	64.5299
1050	64.7166
1025	64.5427
1000	64.7805
975	 64.5754
950	 64.8002
925	 64.4871
900	 64.4812
875	 64.5185
850	 63.886
825	 63.8762
800	 63.7085
775	 63.7313
750	 63.4741
725	 63.489
700	 63.056
675	 62.6096
650	 62.5567
625	 62.498
600	 61.8844
575	 61.8981
550	 61.449
525	 60.5113
500	 60.7929
475	 59.1017
450	 58.3296
425	 57.8156
400	 58.2995
375	 67.5367
370	 37.6785