File: Bakgrunnsmateriale/MATLAB/FTIR/ftir_data/subBb/Mapping_36/C-4040-8_t28.asc
PE IR       SPECTRUM    SPECTRUM    ASCII       PEDS        1.60
  -1
C-CD2A~1.ASC
17/05/02
13:16:01.00
17/05/02
13:16:27.00
tln
$C-4040-8_t0028$<tbV0>[-2.5,7.0,8.0,0.0,22,1,0]
27.028
64

2002,4.07
MIRTGS : RIGHTBACK : INTERNAL 2
MIR : ON : INTERNAL 2
OPTKBR

0.200000
8
8.000000
FILLER
RATIO
SPECTRUM
UNLOCKED 256

DOUBLE
64
COMBINED
1
0
0

0.002000
RATIO

1
0
TRUE
51149
0
LEFT NOT FITTED RIGHT NOT FITTED 0
NONE
NONE
15600
12
4.427000
51148
TRUE
1 0 8 72 0 0 0 0

15798

#HDR
-1
-1
#GR
µM
%T
2.38419e-05
0.0
1.282000
0.002000
12874
8
76.7479
36.9513
#DATA
1.282000	 76.7479
1.368000	 63.4504
1.454000	 65.7731
1.540000	 65.3402
1.626000	 65.3693
1.712000	 65.2114
1.798000	 64.7902
1.884000	 65.1047
1.970000	 65.2468
2.056000	 65.1165
2.142000	 65.1223
2.228000	 64.9849
2.314000	 64.9836
2.400000	 64.6431
2.486000	 65.0616
2.572000	 65.2893
2.658000	 65.1909
2.744000	 65.2724
2.830000	 65.182
2.916000	 65.3286
3.002000	 65.1069
3.088000	 65.1896
3.174000	 65.2973
3.260000	 65.1432
3.346000	 65.1375
3.432000	 65.0044
3.518000	 65.169
3.604000	 65.3809
3.690000	 65.389
3.776000	 65.2234
3.862000	 65.3338
3.948000	 65.2357
4.034000	 65.3559
4.120000	 65.3251
4.206000	 65.2615
4.292000	 65.34
4.378000	 65.5365
4.464000	 65.3743
4.550000	 65.3163
4.636000	 65.3482
4.722000	 65.3834
4.808000	 65.3586
4.894000	 65.4323
4.980000	 65.4748
5.066000	 65.5156
5.152000	 65.249
5.238000	 65.3816
5.324000	 65.3363
5.410000	 65.4555
5.496000	 65.3296
5.582000	 65.3132
5.668000	 65.3864
5.754000	 65.1698
5.840000	 65.2403
5.926000	 65.1925
6.012000	 65.3074
6.098000	 65.306
6.184000	 65.2377
6.270000	 65.1795
6.356000	 65.0851
6.442000	 65.2086
6.528000	 65.1647
6.614000	 65.1321
6.700000	 65.2671
6.786000	 65.0762
6.872000	 65.0706
6.958000	 65.2241
7.044000	 65.2196
7.130000	 64.9429
7.216000	 65.0227
7.302000	 65.2461
7.388000	 65.1048
7.474000	 65.2108
7.560000	 65.1882
7.646000	 65.0307
7.732000	 65.182
7.818000	 65.0395
7.904000	 65.0667
7.990000	 64.999
8.076000	 65.0873
8.161999	 65.0624
8.248000	 64.8733
8.334000	 65.1266
8.420000	 64.8347
8.506000	 64.9706
8.592000	 64.9276
8.678000	 64.9137
8.763999	 64.8975
8.850000	 64.9657
8.936000	 64.8595
9.022000	 64.9942
9.108000	 65.0079
9.193999	 64.9992
9.280000	 64.7515
9.366000	 64.8894
9.452000	 64.8489
9.538000	 64.8531
9.624000	 64.7839
9.710000	 64.7176
9.795999	 64.7598
9.882000	 64.8134
9.968000	 64.8394
10.054	64.8784
10.14	64.9142
10.226	65.0168
10.312	64.7589
10.398	64.7076
10.484	64.7634
10.57	64.9069
10.656	64.5349
10.742	64.7203
10.828	64.6542
10.914	64.5991
11	64.7108
11.086	63.8477
11.172	63.6407
11.258	64.4255
11.344	64.8411
11.43	64.6953
11.516	64.5444
11.602	64.5093
11.688	64.5299
11.774	64.5534
11.86	64.5037
11.946	64.8212
12.032	64.7504
12.118	64.5356
12.204	64.3935
12.29	64.2432
12.376	64.2457
12.462	64.2747
12.548	64.2226
12.634	64.2212
12.72	64.036
12.806	64.0616
12.892	64.2752
12.978	64.0563
13.064	63.9156
13.15	63.9672
13.236	63.9557
13.322	63.995
13.408	63.949
13.494	63.7421
13.58	63.7683
13.666	63.8509
13.752	63.6922
13.838	63.3617
13.924	63.3575
14.01	63.5311
14.096	63.5654
14.182	63.4792
14.268	63.2231
14.354	63.1756
14.44	63.3767
14.526	63.4859
14.612	63.3807
14.698	63.2796
14.784	63.3299
14.87	63.4692
14.956	63.567
15.042	63.4599
15.128	63.2844
15.214	63.2436
15.3	63.2854
15.386	63.3222
15.472	63.2062
15.558	62.9797
15.644	62.944
15.73	63.0571
15.816	63.0241
15.902	62.8778
15.988	62.8788
16.074	63.0408
16.16	63.1066
16.246	63.0113
16.332	63.0004
16.418	63.1593
16.504	63.2233
16.59	63.0524
16.676	62.852
16.762	62.7582
16.848	62.7513
16.934	62.8338
17.02	62.9612
17.106	63.0357
17.192	62.9926
17.278	62.8297
17.364	62.6052
17.45	62.4273
17.536	62.3832
17.622	62.4405
17.708	62.4778
17.794	62.4134
17.88	62.2716
17.966	62.108
18.052	61.9424
18.138	61.7955
18.224	61.7271
18.31	61.7915
18.396	61.9717
18.482	62.1684
18.568	62.2527
18.654	62.1641
18.74	61.9861
18.826	61.8707
18.912	61.8669
18.998	61.8809
19.084	61.8345
19.17	61.7889
19.256	61.8443
19.342	61.9862
19.428	62.1202
19.514	62.2024
19.6	62.2476
19.686	62.2596
19.772	62.2359
19.858	62.1962
19.944	62.1712
20.03	62.1534
20.116	62.0738
20.202	61.8394
20.288	61.4309
20.374	60.9597
20.46	60.591
20.546	60.4144
20.632	60.3909
20.718	60.4251
20.804	60.4763
20.89	60.5765
20.976	60.7619
21.062	61.005
21.148	61.2198
21.234	61.3223
21.32	61.2596
21.406	61.0228
21.492	60.6629
21.578	60.3045
21.664	60.113
21.75	60.2042
21.836	60.5596
21.922	61.0104
22.008	61.3172
22.094	61.317
22.18	61.0174
22.266	60.5897
22.352	60.2639
22.438	60.1838
22.524	60.3522
22.61	60.6598
22.696	60.9608
22.782	61.1526
22.868	61.1867
22.954	61.0429
23.04	60.7106
23.126	60.2101
23.212	59.6193
23.298	59.0571
23.384	58.6536
23.47	58.4762
23.556	58.5017
23.642	58.6364
23.728	58.7851
23.814	58.8952
23.9	58.9631
23.986	58.9923
24.072	58.9259
24.158	58.6863
24.244	58.2549
24.33	57.7445
24.416	57.3823
24.502	57.3786
24.588	57.7726
24.674	58.3801
24.76	58.8689
24.846	58.9133
24.932	58.366
25.018	57.3684
25.104	56.2336
25.19	55.4004
25.276	55.2238
25.362	55.8577
25.448	57.2368
25.534	59.1652
25.62	61.4158
25.706	63.7532
25.792	66.0427
25.878	68.237
25.964	70.275
26.05	72.0607
26.136	73.4321
26.222	74.2004
26.308	74.1242
26.394	72.9594
26.48	70.6027
26.566	67.0629
26.652	62.5092
26.738	57.1734
26.824	51.3092
26.91	45.1474
26.996	38.7265
27.028	36.9513