File: Bakgrunnsmateriale/MATLAB/FTIR/ftir_data/subBb/Mapping_36/C-4040-8_t05_cm-1.asc
PE IR       SPECTRUM    SPECTRUM    ASCII       PEDS        1.60
  -1
C-99EE~1.ASC
17/05/02
11:13:31.00
17/05/02
11:13:31.00
tln
$C-4040-8_t0005$<tbV0>[-7.5,-13.0,8.0,0.0,22,1,0]
370
64

2002,4.07
MIRTGS : RIGHTBACK : INTERNAL 2
MIR : ON : INTERNAL 2
OPTKBR

0.200000
8
8.000000
FILLER
RATIO
SPECTRUM
UNLOCKED 256

DOUBLE
64
COMBINED
1
0
0

1.000000
RATIO

1
0
TRUE
51149
0
LEFT NOT FITTED RIGHT NOT FITTED 0
NONE
NONE
15600
12
4.427000
51148
TRUE
1 0 8 72 0 0 0 0

15798

#HDR
-1
-1
#GR
CM-1
%T
2.38419e-05
0.0
7800
-1.000000
7431
8
77.0961
35.7846
#DATA
7800	63.6576
7775	60.3844
7750	68.3744
7725	63.7102
7700	65.1952
7675	68.5042
7650	67.2776
7625	66.2654
7600	65.8219
7575	67.0865
7550	66.2221
7525	62.5278
7500	62.4836
7475	62.3621
7450	66.4575
7425	62.0543
7400	63.9566
7375	59.8691
7350	62.6766
7325	64.3913
7300	63.7968
7275	65.1806
7250	63.6629
7225	64.287
7200	64.6092
7175	62.9448
7150	61.1602
7125	61.4351
7100	63.6484
7075	64.3596
7050	63.017
7025	61.1359
7000	64.152
6975	65.6686
6950	63.0073
6925	64.6617
6900	63.6741
6875	63.4479
6850	64.9199
6825	64.2725
6800	62.5888
6775	62.5599
6750	63.9025
6725	62.4257
6700	64.0946
6675	63.9338
6650	63.9354
6625	64.2648
6600	64.4736
6575	64.4333
6550	62.5185
6525	64.6971
6500	64.0368
6475	63.7644
6450	63.881
6425	63.7776
6400	64.6021
6375	64.3469
6350	64.0258
6325	64.3268
6300	64.9088
6275	64.9686
6250	64.0131
6225	64.1599
6200	63.8537
6175	63.8194
6150	62.9719
6125	63.7223
6100	64.8347
6075	64.1551
6050	64.5637
6025	64.0977
6000	64.5084
5975	64.4963
5950	64.137
5925	63.8503
5900	65.1685
5875	64.9832
5850	64.5503
5825	63.8979
5800	64.1561
5775	63.8882
5750	64.2858
5725	64.5159
5700	63.7122
5675	64.3227
5650	64.0546
5625	63.8256
5600	64.9079
5575	64.6176
5550	64.1617
5525	64.0037
5500	64.7905
5475	63.8453
5450	64.7509
5425	64.0334
5400	64.2639
5375	63.6422
5350	64.0534
5325	63.6202
5300	63.7346
5275	63.7117
5250	65.9292
5225	63.8786
5200	64.2249
5175	65.8052
5150	64.0002
5125	64.3868
5100	64.2745
5075	64.1966
5050	64.3974
5025	64.3625
5000	64.7203
4975	64.7083
4950	64.383
4925	64.4142
4900	64.3143
4875	64.3681
4850	64.1972
4825	64.502
4800	64.1224
4775	64.3287
4750	64.3092
4725	64.4397
4700	64.6259
4675	64.4145
4650	64.2416
4625	64.1692
4600	64.2175
4575	64.4331
4550	64.2699
4525	63.8824
4500	64.3933
4475	63.5132
4450	63.7506
4425	64.5873
4400	71.5482
4375	64.4947
4350	64.0804
4325	64.4621
4300	64.0365
4275	63.9438
4250	64.1609
4225	63.8702
4200	64.1909
4175	64.2198
4150	63.9841
4125	64.1606
4100	64.3746
4075	64.3272
4050	64.0337
4025	64.1412
4000	64.0371
3975	64.1167
3950	64.2178
3925	63.7531
3900	63.9864
3875	64.0141
3850	63.9637
3825	64.099
3800	63.7269
3775	63.6923
3750	63.9727
3725	63.6754
3700	63.6833
3675	63.6279
3650	63.7203
3625	63.5209
3600	63.5998
3575	63.665
3550	63.5987
3525	63.0224
3500	63.4721
3475	63.2736
3450	63.4354
3425	63.3242
3400	63.1612
3375	63.2233
3350	62.888
3325	62.815
3300	62.9526
3275	62.8084
3250	62.7383
3225	62.6134
3200	62.5291
3175	62.5843
3150	62.5972
3125	62.2738
3100	62.4603
3075	62.3164
3050	62.3776
3025	62.2245
3000	62.0907
2975	61.882
2950	61.6173
2925	61.5241
2900	61.4938
2875	61.6324
2850	61.4622
2825	61.6151
2800	61.4153
2775	61.332
2750	61.2283
2725	61.1465
2700	60.9732
2675	60.9205
2650	60.7949
2625	60.7531
2600	60.7057
2575	60.5251
2550	60.4468
2525	60.461
2500	60.2812
2475	60.1375
2450	59.9854
2425	59.9639
2400	59.8361
2375	59.6973
2350	59.567
2325	59.4861
2300	59.304
2275	59.1913
2250	59.0541
2225	58.9056
2200	58.7462
2175	58.7
2150	58.4234
2125	58.3305
2100	58.2732
2075	58.0611
2050	58.0808
2025	57.7517
2000	57.669
1975	57.5484
1950	57.4421
1925	57.298
1900	57.1542
1875	57.0272
1850	56.8649
1825	56.6767
1800	56.597
1775	56.3614
1750	56.2098
1725	55.9851
1700	55.9714
1675	55.7706
1650	55.5848
1625	55.517
1600	55.18
1575	54.9753
1550	54.8551
1525	54.8022
1500	54.6702
1475	54.3964
1450	54.1866
1425	53.9701
1400	53.9539
1375	53.6522
1350	53.551
1325	53.4369
1300	53.1627
1275	53.0503
1250	52.8868
1225	52.6177
1200	52.6099
1175	52.4262
1150	52.0787
1125	51.9271
1100	51.7945
1075	51.8502
1050	51.2906
1025	51.1499
1000	50.8642
975	 50.7315
950	 50.8527
925	 50.3376
900	 50.5432
875	 49.9517
850	 49.8592
825	 48.9064
800	 49.3806
775	 48.6195
750	 48.5733
725	 48.0112
700	 47.6342
675	 47.0529
650	 46.7901
625	 46.4945
600	 45.9948
575	 45.0896
550	 44.8292
525	 44.1576
500	 42.6882
475	 42.6987
450	 41.2608
425	 41.9507
400	 36.8191
375	 70.926
370	 76.3357