File: Bakgrunnsmateriale/MATLAB/FTIR/ftir_data/subBb/Mapping_36/C-4040-8_t15.asc
PE IR       SPECTRUM    SPECTRUM    ASCII       PEDS        1.60
  -1
C-B92E~1.ASC
17/05/02
12:07:57.00
17/05/02
12:08:24.00
tln
$C-4040-8_t0015$<tbV0>[2.5,-3.0,8.0,0.0,22,1,0]
27.028
64

2002,4.07
MIRTGS : RIGHTBACK : INTERNAL 2
MIR : ON : INTERNAL 2
OPTKBR

0.200000
8
8.000000
FILLER
RATIO
SPECTRUM
UNLOCKED 256

DOUBLE
64
COMBINED
1
0
0

0.002000
RATIO

1
0
TRUE
51149
0
LEFT NOT FITTED RIGHT NOT FITTED 0
NONE
NONE
15600
12
4.427000
51148
TRUE
1 0 8 72 0 0 0 0

15798

#HDR
-1
-1
#GR
µM
%T
2.38419e-05
0.0
1.282000
0.002000
12874
8
94.2525
30.7509
#DATA
1.282000	 64.2974
1.368000	 61.4222
1.454000	 65.0212
1.540000	 65.4406
1.626000	 64.6023
1.712000	 64.1888
1.798000	 64.5421
1.884000	 60.1166
1.970000	 63.7295
2.056000	 63.5231
2.142000	 63.5495
2.228000	 63.6134
2.314000	 63.4289
2.400000	 63.0179
2.486000	 62.7911
2.572000	 63.1279
2.658000	 62.3875
2.744000	 62.1487
2.830000	 61.7311
2.916000	 61.5793
3.002000	 61.1176
3.088000	 60.7772
3.174000	 60.2965
3.260000	 60.045
3.346000	 59.5643
3.432000	 59.122
3.518000	 58.6935
3.604000	 58.4614
3.690000	 58.0731
3.776000	 57.7296
3.862000	 57.4229
3.948000	 57.1173
4.034000	 56.8014
4.120000	 56.4551
4.206000	 55.9624
4.292000	 55.5226
4.378000	 55.296
4.464000	 55.0928
4.550000	 54.7811
4.636000	 54.4691
4.722000	 54.0986
4.808000	 53.8621
4.894000	 53.5427
4.980000	 53.3237
5.066000	 53.1207
5.152000	 52.9568
5.238000	 52.4937
5.324000	 52.3485
5.410000	 52.1116
5.496000	 51.8777
5.582000	 51.6029
5.668000	 51.4395
5.754000	 51.2399
5.840000	 51.0006
5.926000	 50.8221
6.012000	 50.6473
6.098000	 50.4183
6.184000	 50.3845
6.270000	 50.0653
6.356000	 49.924
6.442000	 49.7231
6.528000	 49.6098
6.614000	 49.5848
6.700000	 49.302
6.786000	 49.2703
6.872000	 49.0936
6.958000	 48.9969
7.044000	 48.8751
7.130000	 48.715
7.216000	 48.6513
7.302000	 48.3713
7.388000	 48.2929
7.474000	 48.1601
7.560000	 47.9884
7.646000	 47.9556
7.732000	 47.7958
7.818000	 47.7896
7.904000	 47.7435
7.990000	 47.383
8.076000	 47.4152
8.161999	 47.392
8.248000	 47.2277
8.334000	 47.1904
8.420000	 47.0205
8.506000	 47.0133
8.592000	 46.9305
8.678000	 46.7701
8.763999	 46.54
8.850000	 46.3715
8.936000	 46.2465
9.022000	 46.1538
9.108000	 46.1018
9.193999	 46.1723
9.280000	 46.0904
9.366000	 45.9422
9.452000	 45.8631
9.538000	 45.744
9.624000	 45.8382
9.710000	 45.7193
9.795999	 45.5844
9.882000	 45.5005
9.968000	 45.4485
10.054	45.3071
10.14	45.4635
10.226	45.5884
10.312	45.2381
10.398	45.2285
10.484	44.8377
10.57	44.5038
10.656	44.0394
10.742	44.4128
10.828	44.6139
10.914	44.4767
11	44.7467
11.086	44.2672
11.172	44.2387
11.258	44.0743
11.344	44.1376
11.43	43.8834
11.516	44.0596
11.602	43.9718
11.688	43.8607
11.774	43.8971
11.86	43.4885
11.946	43.4528
12.032	43.4656
12.118	43.2695
12.204	43.4714
12.29	43.6012
12.376	43.2367
12.462	43.1012
12.548	43.0793
12.634	43.1311
12.72	43.2621
12.806	43.2415
12.892	43.1224
12.978	42.9316
13.064	42.8673
13.15	42.9408
13.236	42.834
13.322	42.6967
13.408	42.6371
13.494	42.7287
13.58	42.6709
13.666	42.399
13.752	42.2561
13.838	42.2244
13.924	42.0924
14.01	41.9648
14.096	41.9276
14.182	41.8947
14.268	41.9295
14.354	41.9727
14.44	41.8175
14.526	41.5801
14.612	41.3809
14.698	41.1959
14.784	41.0977
14.87	41.1506
14.956	41.1523
15.042	41.0391
15.128	40.9925
15.214	41.0308
15.3	41.0428
15.386	40.9114
15.472	40.637
15.558	40.4359
15.644	40.414
15.73	40.3678
15.816	40.2244
15.902	40.2113
15.988	40.3239
16.074	40.2726
16.16	40.0621
16.246	39.9569
16.332	39.962
16.418	39.9275
16.504	39.8936
16.59	39.9109
16.676	39.8899
16.762	39.8004
16.848	39.7107
16.934	39.5813
17.02	39.326
17.106	39.0651
17.192	39.0054
17.278	39.08
17.364	39.0269
17.45	38.7862
17.536	38.5428
17.622	38.4589
17.708	38.5489
17.794	38.725
17.88	38.8673
17.966	38.9142
18.052	38.8923
18.138	38.8278
18.224	38.6967
18.31	38.5118
18.396	38.3561
18.482	38.2617
18.568	38.153
18.654	37.9737
18.74	37.7643
18.826	37.5968
18.912	37.5035
18.998	37.4695
19.084	37.4652
19.17	37.4891
19.256	37.5435
19.342	37.5863
19.428	37.5519
19.514	37.4433
19.6	37.3682
19.686	37.4405
19.772	37.6433
19.858	37.8167
19.944	37.7918
20.03	37.5277
20.116	37.1254
20.202	36.7283
20.288	36.4361
20.374	36.2868
20.46	36.2673
20.546	36.3238
20.632	36.3844
20.718	36.394
20.804	36.3302
20.89	36.2008
20.976	36.0397
21.062	35.8979
21.148	35.8203
21.234	35.8127
21.32	35.8326
21.406	35.8118
21.492	35.7023
21.578	35.5081
21.664	35.2774
21.75	35.0695
21.836	34.9194
21.922	34.8282
22.008	34.7755
22.094	34.7384
22.18	34.6987
22.266	34.6402
22.352	34.5474
22.438	34.414
22.524	34.2409
22.61	34.0303
22.696	33.7794
22.782	33.4871
22.868	33.1679
22.954	32.8591
23.04	32.6098
23.126	32.471
23.212	32.456
23.298	32.5487
23.384	32.7058
23.47	32.8745
23.556	33.0007
23.642	33.0388
23.728	32.9597
23.814	32.7513
23.9	32.4238
23.986	32.0191
24.072	31.5974
24.158	31.2184
24.244	30.9263
24.33	30.7656
24.416	30.7952
24.502	31.0784
24.588	31.6747
24.674	32.5949
24.76	33.7615
24.846	34.9868
24.932	36.005
25.018	36.5901
25.104	36.6652
25.19	36.3467
25.276	35.8977
25.362	35.627
25.448	35.7367
25.534	36.2131
25.62	36.8332
25.706	37.2304
25.792	37.1133
25.878	36.4363
25.964	35.4755
26.05	34.767
26.136	34.8091
26.222	35.7857
26.308	37.4144
26.394	39.0618
26.48	40.0357
26.566	39.8569
26.652	38.505
26.738	36.4188
26.824	34.2779
26.91	32.703
26.996	32.1698
27.028	32.1816