File: Bakgrunnsmateriale/MATLAB/FTIR/ftir_data/subBb/Mapping_36/C-4040-8_t34.asc
PE IR       SPECTRUM    SPECTRUM    ASCII       PEDS        1.60
  -1
C-B13A~1.ASC
17/05/02
13:44:44.00
17/05/02
13:45:11.00
tln
$C-4040-8_t0034$<tbV0>[-2.5,12.0,8.0,0.0,22,1,0]
27.028
64

2002,4.07
MIRTGS : RIGHTBACK : INTERNAL 2
MIR : ON : INTERNAL 2
OPTKBR

0.200000
8
8.000000
FILLER
RATIO
SPECTRUM
UNLOCKED 256

DOUBLE
64
COMBINED
1
0
0

0.002000
RATIO

1
0
TRUE
51149
0
LEFT NOT FITTED RIGHT NOT FITTED 0
NONE
NONE
15600
12
4.427000
51148
TRUE
1 0 8 72 0 0 0 0

15798

#HDR
-1
-1
#GR
µM
%T
2.38419e-05
0.0
1.282000
0.002000
12874
8
87.1398
56.5554
#DATA
1.282000	 68.2395
1.368000	 60.8694
1.454000	 67.0528
1.540000	 64.0125
1.626000	 64.3293
1.712000	 64.908
1.798000	 65.2479
1.884000	 65.8247
1.970000	 65.0301
2.056000	 64.6325
2.142000	 65.2189
2.228000	 64.0699
2.314000	 64.24
2.400000	 65.107
2.486000	 65.2469
2.572000	 65.1801
2.658000	 65.1292
2.744000	 65.229
2.830000	 64.9965
2.916000	 65.1181
3.002000	 65.143
3.088000	 65.2862
3.174000	 65.1293
3.260000	 65.0802
3.346000	 65.0326
3.432000	 64.6276
3.518000	 64.8459
3.604000	 65.2955
3.690000	 65.287
3.776000	 65.2419
3.862000	 65.141
3.948000	 65.1679
4.034000	 65.1176
4.120000	 65.1991
4.206000	 65.2032
4.292000	 65.0933
4.378000	 65.2363
4.464000	 65.2607
4.550000	 65.1748
4.636000	 65.2256
4.722000	 65.2448
4.808000	 65.2733
4.894000	 65.3127
4.980000	 65.3166
5.066000	 65.3088
5.152000	 65.3313
5.238000	 65.2512
5.324000	 65.1
5.410000	 65.296
5.496000	 65.2106
5.582000	 65.2318
5.668000	 65.1266
5.754000	 65.0701
5.840000	 65.0847
5.926000	 64.9072
6.012000	 65.2108
6.098000	 65.0463
6.184000	 65.0425
6.270000	 65.004
6.356000	 64.9846
6.442000	 65.0365
6.528000	 64.9974
6.614000	 65.0519
6.700000	 65.1504
6.786000	 65.0558
6.872000	 64.9745
6.958000	 64.9901
7.044000	 64.9866
7.130000	 64.9338
7.216000	 64.9957
7.302000	 64.9337
7.388000	 64.9669
7.474000	 64.9393
7.560000	 64.8834
7.646000	 64.9197
7.732000	 64.961
7.818000	 64.7976
7.904000	 64.951
7.990000	 64.8275
8.076000	 64.8191
8.161999	 64.9585
8.248000	 64.8504
8.334000	 64.7934
8.420000	 64.7769
8.506000	 64.6928
8.592000	 64.716
8.678000	 64.7968
8.763999	 64.7966
8.850000	 64.821
8.936000	 64.8766
9.022000	 64.6458
9.108000	 64.8332
9.193999	 64.6641
9.280000	 64.628
9.366000	 64.6521
9.452000	 64.7202
9.538000	 64.5846
9.624000	 64.6495
9.710000	 64.6104
9.795999	 64.8047
9.882000	 64.7937
9.968000	 64.6226
10.054	64.5314
10.14	64.4897
10.226	64.9445
10.312	64.5779
10.398	64.2472
10.484	64.4675
10.57	64.4677
10.656	64.6612
10.742	64.4157
10.828	64.4693
10.914	64.5931
11	64.4404
11.086	64.0176
11.172	63.72
11.258	64.0149
11.344	64.4429
11.43	64.7075
11.516	64.2985
11.602	64.2768
11.688	64.4768
11.774	64.4715
11.86	64.4376
11.946	64.452
12.032	64.3702
12.118	64.4587
12.204	64.0766
12.29	63.8508
12.376	63.9951
12.462	64.0369
12.548	63.9658
12.634	63.8054
12.72	63.8032
12.806	63.948
12.892	63.9144
12.978	63.6687
13.064	63.5794
13.15	63.7345
13.236	63.7559
13.322	63.6064
13.408	63.4736
13.494	63.3518
13.58	63.3965
13.666	63.5132
13.752	63.5336
13.838	63.5648
13.924	63.6203
14.01	63.5289
14.096	63.3454
14.182	63.1964
14.268	62.9476
14.354	62.802
14.44	62.9342
14.526	63.0311
14.612	62.8806
14.698	62.8111
14.784	62.8903
14.87	62.9111
14.956	62.8965
15.042	62.9263
15.128	62.8988
15.214	62.7661
15.3	62.6369
15.386	62.5594
15.472	62.4712
15.558	62.366
15.644	62.3922
15.73	62.5445
15.816	62.5777
15.902	62.438
15.988	62.2912
16.074	62.2236
16.16	62.208
16.246	62.1792
16.332	62.1547
16.418	62.2264
16.504	62.3806
16.59	62.494
16.676	62.4647
16.762	62.3136
16.848	62.1816
16.934	62.1898
17.02	62.2624
17.106	62.2119
17.192	62.0308
17.278	61.9003
17.364	61.9146
17.45	61.9916
17.536	62.0326
17.622	62.0004
17.708	61.8901
17.794	61.7374
17.88	61.608
17.966	61.5327
18.052	61.4887
18.138	61.4469
18.224	61.4008
18.31	61.3685
18.396	61.3957
18.482	61.5033
18.568	61.6225
18.654	61.6417
18.74	61.5315
18.826	61.3917
18.912	61.3335
18.998	61.3365
19.084	61.2579
19.17	60.9942
19.256	60.5983
19.342	60.2282
19.428	59.9993
19.514	59.9025
19.6	59.8481
19.686	59.7996
19.772	59.8343
19.858	60.0247
19.944	60.3041
20.03	60.5073
20.116	60.5254
20.202	60.3804
20.288	60.186
20.374	60.0702
20.46	60.0929
20.546	60.2067
20.632	60.2943
20.718	60.2599
20.804	60.1006
20.89	59.9023
20.976	59.775
21.062	59.771
21.148	59.8407
21.234	59.8713
21.32	59.7889
21.406	59.613
21.492	59.4354
21.578	59.3399
21.664	59.3617
21.75	59.4838
21.836	59.6469
21.922	59.7695
22.008	59.7835
22.094	59.6769
22.18	59.5049
22.266	59.3571
22.352	59.301
22.438	59.3183
22.524	59.3231
22.61	59.2114
22.696	58.926
22.782	58.4829
22.868	57.9517
22.954	57.4226
23.04	56.9734
23.126	56.668
23.212	56.5555
23.298	56.6616
23.384	56.9767
23.47	57.4619
23.556	58.062
23.642	58.7169
23.728	59.3776
23.814	59.9882
23.9	60.4726
23.986	60.7359
24.072	60.7068
24.158	60.3851
24.244	59.8667
24.33	59.3269
24.416	58.9401
24.502	58.7695
24.588	58.756
24.674	58.7699
24.76	58.6767
24.846	58.4827
24.932	58.3521
25.018	58.5259
25.104	59.2008
25.19	60.4167
25.276	61.9953
25.362	63.5893
25.448	64.8144
25.534	65.4004
25.62	65.2489
25.706	64.4824
25.792	63.3645
25.878	62.2055
25.964	61.2998
26.05	60.8504
26.136	60.9857
26.222	61.8462
26.308	63.5155
26.394	65.9812
26.48	69.157
26.566	72.8453
26.652	76.7239
26.738	80.4178
26.824	83.5535
26.91	85.809
26.996	86.9725
27.028	87.1398