File: Bakgrunnsmateriale/MATLAB/FTIR/ftir_data/subBb/Mapping_36/C-4040-8_t25.asc
PE IR       SPECTRUM    SPECTRUM    ASCII       PEDS        1.60
  -1
C-BD2E~1.ASC
17/05/02
13:01:56.00
17/05/02
13:02:23.00
tln
$C-4040-8_t0025$<tbV0>[12.5,7.0,8.0,0.0,22,1,0]
27.028
64

2002,4.07
MIRTGS : RIGHTBACK : INTERNAL 2
MIR : ON : INTERNAL 2
OPTKBR

0.200000
8
8.000000
FILLER
RATIO
SPECTRUM
UNLOCKED 256

DOUBLE
64
COMBINED
1
0
0

0.002000
RATIO

1
0
TRUE
51149
0
LEFT NOT FITTED RIGHT NOT FITTED 0
NONE
NONE
15600
12
4.427000
51148
TRUE
1 0 8 72 0 0 0 0

15798

#HDR
-1
-1
#GR
µM
%T
2.38419e-05
0.0
1.282000
0.002000
12874
8
79.3528
22.6321
#DATA
1.282000	 78.2437
1.368000	 62.8089
1.454000	 64.9637
1.540000	 63.5462
1.626000	 63.6972
1.712000	 64.8868
1.798000	 64.7855
1.884000	 64.5094
1.970000	 64.6352
2.056000	 64.472
2.142000	 65.0731
2.228000	 64.5588
2.314000	 64.9804
2.400000	 64.5034
2.486000	 64.9027
2.572000	 65.4744
2.658000	 64.9925
2.744000	 65.1583
2.830000	 64.9477
2.916000	 64.9949
3.002000	 64.9855
3.088000	 64.9784
3.174000	 65.1378
3.260000	 64.9162
3.346000	 65.0159
3.432000	 64.7177
3.518000	 65.1104
3.604000	 65.1986
3.690000	 65.1177
3.776000	 65.0459
3.862000	 65.122
3.948000	 65.1827
4.034000	 65.0392
4.120000	 65.2733
4.206000	 65.1484
4.292000	 65.1602
4.378000	 65.1375
4.464000	 65.1254
4.550000	 65.2184
4.636000	 65.1507
4.722000	 65.1878
4.808000	 65.2448
4.894000	 65.2998
4.980000	 65.1881
5.066000	 65.1419
5.152000	 65.1972
5.238000	 65.2213
5.324000	 65.2848
5.410000	 65.2305
5.496000	 65.2075
5.582000	 65.2046
5.668000	 65.094
5.754000	 64.9216
5.840000	 65.1428
5.926000	 65.0807
6.012000	 65.1111
6.098000	 65.0175
6.184000	 65.0547
6.270000	 65.062
6.356000	 64.8752
6.442000	 64.9286
6.528000	 64.9731
6.614000	 65.0496
6.700000	 65.0672
6.786000	 65.0261
6.872000	 64.8906
6.958000	 65.0323
7.044000	 65.1827
7.130000	 64.984
7.216000	 64.9733
7.302000	 65.0997
7.388000	 64.9415
7.474000	 64.9752
7.560000	 64.9935
7.646000	 64.8819
7.732000	 64.912
7.818000	 64.8798
7.904000	 64.9926
7.990000	 64.8893
8.076000	 64.9101
8.161999	 64.9069
8.248000	 64.8601
8.334000	 64.8681
8.420000	 64.896
8.506000	 64.8141
8.592000	 64.6892
8.678000	 64.7184
8.763999	 64.6055
8.850000	 64.8008
8.936000	 64.7216
9.022000	 64.8874
9.108000	 64.9134
9.193999	 64.78
9.280000	 64.666
9.366000	 64.5921
9.452000	 64.6138
9.538000	 64.661
9.624000	 64.6875
9.710000	 64.6725
9.795999	 64.5807
9.882000	 64.8534
9.968000	 64.6588
10.054	64.6438
10.14	64.6675
10.226	64.6459
10.312	64.7909
10.398	64.6904
10.484	64.6487
10.57	64.7643
10.656	64.4868
10.742	64.6711
10.828	64.9193
10.914	64.5307
11	64.2845
11.086	64.243
11.172	63.6433
11.258	63.8754
11.344	64.0453
11.43	64.1204
11.516	63.8341
11.602	64.0896
11.688	64.3749
11.774	64.5563
11.86	64.4747
11.946	64.4701
12.032	64.4989
12.118	64.7691
12.204	64.4553
12.29	64.1439
12.376	63.982
12.462	64.0147
12.548	64.0686
12.634	64.2352
12.72	64.1715
12.806	64.0062
12.892	63.8149
12.978	63.6373
13.064	63.5507
13.15	63.6473
13.236	63.7905
13.322	63.7874
13.408	63.4897
13.494	63.2049
13.58	63.4443
13.666	63.6762
13.752	63.5478
13.838	63.6408
13.924	63.8191
14.01	63.7316
14.096	63.5042
14.182	63.1719
14.268	62.8407
14.354	62.8585
14.44	63.1328
14.526	63.2487
14.612	63.2327
14.698	63.2087
14.784	63.0753
14.87	62.9644
14.956	62.9353
15.042	62.8957
15.128	62.9532
15.214	63.036
15.3	62.9327
15.386	62.7564
15.472	62.6636
15.558	62.7041
15.644	62.9045
15.73	63.0607
15.816	62.9568
15.902	62.7755
15.988	62.7805
16.074	62.8596
16.16	62.8143
16.246	62.7391
16.332	62.7889
16.418	62.9242
16.504	62.9605
16.59	62.7531
16.676	62.4071
16.762	62.1564
16.848	62.0948
16.934	62.155
17.02	62.2449
17.106	62.3122
17.192	62.3186
17.278	62.2703
17.364	62.2038
17.45	62.1398
17.536	62.1258
17.622	62.175
17.708	62.1824
17.794	62.0437
17.88	61.7874
17.966	61.5313
18.052	61.3774
18.138	61.3774
18.224	61.4917
18.31	61.5971
18.396	61.6049
18.482	61.5286
18.568	61.4198
18.654	61.2998
18.74	61.1732
18.826	61.0739
18.912	61.0564
18.998	61.1165
19.084	61.1665
19.17	61.1251
19.256	61.0077
19.342	60.897
19.428	60.8477
19.514	60.8432
19.6	60.8397
19.686	60.831
19.772	60.8508
19.858	60.9082
19.944	60.9544
20.03	60.936
20.116	60.8652
20.202	60.8066
20.288	60.8062
20.374	60.8501
20.46	60.8839
20.546	60.8582
20.632	60.7533
20.718	60.5674
20.804	60.3016
20.89	59.9749
20.976	59.6464
21.062	59.4074
21.148	59.3261
21.234	59.3957
21.32	59.5424
21.406	59.6816
21.492	59.7871
21.578	59.8812
21.664	59.9718
21.75	60.0091
21.836	59.9232
21.922	59.7035
22.008	59.4361
22.094	59.2591
22.18	59.2765
22.266	59.4967
22.352	59.8296
22.438	60.1347
22.524	60.2827
22.61	60.2016
22.696	59.8891
22.782	59.4061
22.868	58.848
22.954	58.3127
23.04	57.872
23.126	57.554
23.212	57.3766
23.298	57.3539
23.384	57.5024
23.47	57.8306
23.556	58.3164
23.642	58.8784
23.728	59.3806
23.814	59.6637
23.9	59.5955
23.986	59.1115
24.072	58.2485
24.158	57.1384
24.244	55.9578
24.33	54.8555
24.416	53.8714
24.502	52.9447
24.588	51.9349
24.674	50.743
24.76	49.4225
24.846	48.1809
24.932	47.3596
25.018	47.2676
25.104	48.0079
25.19	49.3627
25.276	50.8619
25.362	51.9549
25.448	52.19
25.534	51.4583
25.62	50.0129
25.706	48.2824
25.792	46.6646
25.878	45.3606
25.964	44.282
26.05	43.135
26.136	41.5943
26.222	39.4329
26.308	36.6226
26.394	33.3623
26.48	30.0382
26.566	27.0879
26.652	24.8253
26.738	23.3772
26.824	22.7188
26.91	22.6886
26.996	23.3189
27.028	23.586