File: Bakgrunnsmateriale/MATLAB/FTIR/ftir_data/subBb/Mapping_36/C-4040-8_t03.asc
PE IR       SPECTRUM    SPECTRUM    ASCII       PEDS        1.60
  -1
C-A526~1.ASC
17/05/02
11:04:08.00
17/05/02
11:04:34.00
tln
$C-4040-8_t0003$<tbV0>[2.5,-13.0,8.0,0.0,22,1,0]
27.028
64

2002,4.07
MIRTGS : RIGHTBACK : INTERNAL 2
MIR : ON : INTERNAL 2
OPTKBR

0.200000
8
8.000000
FILLER
RATIO
SPECTRUM
UNLOCKED 256

DOUBLE
64
COMBINED
1
0
0

0.002000
RATIO

1
0
TRUE
51149
0
LEFT NOT FITTED RIGHT NOT FITTED 0
NONE
NONE
15600
12
4.427000
51148
TRUE
1 0 8 72 0 0 0 0

15798

#HDR
-1
-1
#GR
µM
%T
2.38419e-05
0.0
1.282000
0.002000
12874
8
70.6359
25.5916
#DATA
1.282000	 70.6359
1.368000	 63.6325
1.454000	 62.3417
1.540000	 65.3072
1.626000	 63.3316
1.712000	 64.0613
1.798000	 64.2957
1.884000	 63.739
1.970000	 63.5995
2.056000	 63.7095
2.142000	 63.7852
2.228000	 63.6013
2.314000	 63.3806
2.400000	 63.649
2.486000	 63.437
2.572000	 63.219
2.658000	 63.0716
2.744000	 62.623
2.830000	 62.337
2.916000	 62.1194
3.002000	 61.8753
3.088000	 61.3729
3.174000	 61.0148
3.260000	 60.8729
3.346000	 60.4381
3.432000	 60.0015
3.518000	 59.6853
3.604000	 59.5606
3.690000	 59.0588
3.776000	 58.6516
3.862000	 58.3081
3.948000	 58.0633
4.034000	 57.729
4.120000	 57.4343
4.206000	 57.1129
4.292000	 56.8225
4.378000	 56.5055
4.464000	 56.2648
4.550000	 55.9281
4.636000	 55.564
4.722000	 55.3495
4.808000	 55.0838
4.894000	 54.8435
4.980000	 54.6463
5.066000	 54.3392
5.152000	 54.0662
5.238000	 53.9186
5.324000	 53.6158
5.410000	 53.3986
5.496000	 53.2388
5.582000	 53.0152
5.668000	 52.8358
5.754000	 52.4045
5.840000	 52.4756
5.926000	 52.1507
6.012000	 51.9791
6.098000	 51.8499
6.184000	 51.5557
6.270000	 51.345
6.356000	 51.1429
6.442000	 51.0537
6.528000	 50.9559
6.614000	 50.7324
6.700000	 50.4863
6.786000	 50.4052
6.872000	 50.2877
6.958000	 50.0185
7.044000	 50.0534
7.130000	 49.7578
7.216000	 49.7147
7.302000	 49.5711
7.388000	 49.516
7.474000	 49.4873
7.560000	 49.1678
7.646000	 49.0385
7.732000	 48.9915
7.818000	 48.6912
7.904000	 48.7375
7.990000	 48.5109
8.076000	 48.517
8.161999	 48.3409
8.248000	 48.3705
8.334000	 48.1024
8.420000	 47.936
8.506000	 47.9034
8.592000	 47.8518
8.678000	 47.6553
8.763999	 47.5419
8.850000	 47.38
8.936000	 47.302
9.022000	 47.2073
9.108000	 47.1433
9.193999	 46.949
9.280000	 46.8259
9.366000	 46.7697
9.452000	 46.88
9.538000	 46.7882
9.624000	 46.713
9.710000	 46.7008
9.795999	 46.5715
9.882000	 46.3121
9.968000	 46.2048
10.054	46.3293
10.14	46.0419
10.226	45.874
10.312	45.6777
10.398	45.6709
10.484	45.5974
10.57	45.3734
10.656	45.6407
10.742	45.681
10.828	45.323
10.914	45.4214
11	45.498
11.086	45.5289
11.172	45.2218
11.258	44.9775
11.344	45.1384
11.43	44.9233
11.516	44.3967
11.602	44.113
11.688	44.2111
11.774	44.3455
11.86	43.8207
11.946	44.1129
12.032	44.1657
12.118	44.0207
12.204	44.117
12.29	44.0238
12.376	43.9397
12.462	43.8798
12.548	43.6397
12.634	43.2706
12.72	43.3403
12.806	43.5049
12.892	43.4313
12.978	43.2432
13.064	43.3193
13.15	43.2761
13.236	42.9946
13.322	42.9392
13.408	42.9419
13.494	42.8596
13.58	42.7693
13.666	42.6462
13.752	42.5429
13.838	42.5455
13.924	42.5555
14.01	42.4411
14.096	42.1798
14.182	41.8819
14.268	41.8264
14.354	41.8227
14.44	41.6291
14.526	41.4533
14.612	41.3835
14.698	41.3455
14.784	41.3545
14.87	41.3733
14.956	41.2622
15.042	41.05
15.128	40.8479
15.214	40.7348
15.3	40.7599
15.386	40.7806
15.472	40.7325
15.558	40.7151
15.644	40.7914
15.73	40.9191
15.816	40.8972
15.902	40.6734
15.988	40.4398
16.074	40.2642
16.16	40.1199
16.246	40.0583
16.332	40.094
16.418	40.1894
16.504	40.2485
16.59	40.1272
16.676	39.889
16.762	39.7613
16.848	39.7581
16.934	39.6994
17.02	39.5246
17.106	39.2982
17.192	39.0897
17.278	39.0052
17.364	39.086
17.45	39.1478
17.536	38.9987
17.622	38.7542
17.708	38.6653
17.794	38.7484
17.88	38.8075
17.966	38.7412
18.052	38.6208
18.138	38.5177
18.224	38.4035
18.31	38.2302
18.396	38.011
18.482	37.7972
18.568	37.634
18.654	37.5597
18.74	37.6022
18.826	37.7391
18.912	37.878
18.998	37.9084
19.084	37.7753
19.17	37.5098
19.256	37.2094
19.342	36.9858
19.428	36.8931
19.514	36.8785
19.6	36.8139
19.686	36.6208
19.772	36.3576
19.858	36.1609
19.944	36.1072
20.03	36.1539
20.116	36.1997
20.202	36.1717
20.288	36.05
20.374	35.8448
20.46	35.5895
20.546	35.3368
20.632	35.1354
20.718	34.9973
20.804	34.902
20.89	34.8341
20.976	34.7943
21.062	34.7777
21.148	34.7587
21.234	34.7168
21.32	34.682
21.406	34.7278
21.492	34.8974
21.578	35.1231
21.664	35.2375
21.75	35.0831
21.836	34.6446
21.922	34.0916
22.008	33.6818
22.094	33.5883
22.18	33.8049
22.266	34.1654
22.352	34.4479
22.438	34.5094
22.524	34.3266
22.61	33.981
22.696	33.5939
22.782	33.2524
22.868	32.98
22.954	32.7376
23.04	32.4703
23.126	32.1448
23.212	31.7817
23.298	31.4456
23.384	31.2209
23.47	31.1479
23.556	31.1912
23.642	31.2514
23.728	31.2142
23.814	30.9965
23.9	30.5947
23.986	30.1035
24.072	29.6497
24.158	29.329
24.244	29.1509
24.33	29.0411
24.416	28.9055
24.502	28.6882
24.588	28.4454
24.674	28.302
24.76	28.3465
24.846	28.5792
24.932	28.8284
25.018	28.8129
25.104	28.3458
25.19	27.4209
25.276	26.3266
25.362	25.6396
25.448	25.8139
25.534	26.9791
25.62	28.9232
25.706	31.1692
25.792	33.0827
25.878	34.1085
25.964	34.0927
26.05	33.3407
26.136	32.4455
26.222	32.0946
26.308	32.7719
26.394	34.6247
26.48	37.645
26.566	41.678
26.652	46.5068
26.738	51.5723
26.824	56.4065
26.91	60.723
26.996	65.614
27.028	67.1411