File: Bakgrunnsmateriale/MATLAB/FTIR/ftir_data/subBb/Mapping_36/C-4040-8_t07_cm-1.asc
PE IR       SPECTRUM    SPECTRUM    ASCII       PEDS        1.60
  -1
C-99EF~1.ASC
17/05/02
11:23:29.00
17/05/02
11:23:29.00
tln
$C-4040-8_t0007$<tbV0>[12.5,-8.0,8.0,0.0,22,1,0]
370
64

2002,4.07
MIRTGS : RIGHTBACK : INTERNAL 2
MIR : ON : INTERNAL 2
OPTKBR

0.200000
8
8.000000
FILLER
RATIO
SPECTRUM
UNLOCKED 256

DOUBLE
64
COMBINED
1
0
0

1.000000
RATIO

1
0
TRUE
51149
0
LEFT NOT FITTED RIGHT NOT FITTED 0
NONE
NONE
15600
12
4.427000
51148
TRUE
1 0 8 72 0 0 0 0

15798

#HDR
-1
-1
#GR
CM-1
%T
2.38419e-05
0.0
7800
-1.000000
7431
8
94.1918
48.7352
#DATA
7800	68.295
7775	64.9202
7750	74.5451
7725	61.4413
7700	59.0439
7675	68.9445
7650	69.1484
7625	69.8408
7600	62.5014
7575	64.9732
7550	67.2242
7525	62.33
7500	63.3574
7475	63.3147
7450	66.3743
7425	65.7231
7400	69.0374
7375	62.0822
7350	61.4986
7325	66.2759
7300	61.7358
7275	65.1817
7250	63.7119
7225	67.2227
7200	63.26
7175	62.7694
7150	64.2719
7125	63.1125
7100	64.807
7075	64.8994
7050	62.9501
7025	63.1911
7000	67.8104
6975	66.5083
6950	63.7819
6925	63.6386
6900	63.8571
6875	62.1718
6850	63.5259
6825	63.8927
6800	64.8186
6775	63.4034
6750	65.3977
6725	64.2185
6700	65.6811
6675	63.3364
6650	63.6198
6625	64.1807
6600	66.9314
6575	66.3026
6550	64.5228
6525	65.4282
6500	64.7315
6475	64.2627
6450	66.1863
6425	63.09
6400	64.9821
6375	65.0675
6350	65.6932
6325	64.6556
6300	64.3783
6275	65.2148
6250	65.5695
6225	65.943
6200	65.0764
6175	64.7177
6150	64.6129
6125	64.6712
6100	64.2608
6075	65.2719
6050	64.9414
6025	65.3642
6000	64.9934
5975	64.9106
5950	63.8465
5925	64.0589
5900	64.8695
5875	64.7303
5850	64.466
5825	64.2302
5800	65.2229
5775	64.3141
5750	64.9258
5725	64.3493
5700	64.1324
5675	65.5962
5650	64.4349
5625	64.3682
5600	65.3864
5575	65.0755
5550	65.3593
5525	65.1425
5500	65.9144
5475	65.0475
5450	65.1905
5425	65.1089
5400	64.5681
5375	64.8586
5350	64.2279
5325	63.3637
5300	64.7229
5275	68.1589
5250	64.4001
5225	62.719
5200	65.6798
5175	66.5433
5150	64.9956
5125	65.2793
5100	64.9078
5075	64.7689
5050	64.5613
5025	64.4899
5000	64.9352
4975	64.67
4950	64.8211
4925	64.6044
4900	64.8247
4875	64.9633
4850	64.5988
4825	65.145
4800	64.8756
4775	64.5214
4750	64.8597
4725	65.1643
4700	65.2731
4675	64.7961
4650	65.0637
4625	64.9504
4600	65.1687
4575	64.7782
4550	64.8527
4525	64.2246
4500	64.5641
4475	63.9269
4450	64.1135
4425	64.3481
4400	66.0126
4375	65.8573
4350	64.4209
4325	64.4119
4300	64.7488
4275	64.2818
4250	64.41
4225	64.6515
4200	64.8643
4175	64.9402
4150	64.9192
4125	65.1337
4100	65.2466
4075	65.2971
4050	65.1159
4025	65.3144
4000	65.0109
3975	65.152
3950	65.1456
3925	64.8546
3900	65.0395
3875	65.1776
3850	65.0689
3825	65.0852
3800	65.0537
3775	64.994
3750	65.2126
3725	65.0754
3700	65.0426
3675	65.1911
3650	65.17
3625	65.1536
3600	65.1886
3575	65.2437
3550	65.0466
3525	65.1263
3500	65.019
3475	65.2365
3450	65.2082
3425	65.024
3400	65.0016
3375	64.9922
3350	65.0575
3325	64.9153
3300	64.9399
3275	65.0424
3250	65.074
3225	64.9573
3200	65.154
3175	65.0676
3150	65.3119
3125	65.0269
3100	65.0713
3075	65.1707
3050	65.044
3025	65.1666
3000	64.9994
2975	64.9406
2950	64.8882
2925	64.7225
2900	64.9938
2875	64.908
2850	65.0546
2825	65.0928
2800	65.1983
2775	65.2013
2750	65.0864
2725	65.2037
2700	65.2011
2675	65.1315
2650	65.1078
2625	65.1631
2600	65.1901
2575	65.0587
2550	65.1822
2525	65.2279
2500	65.2732
2475	65.2325
2450	65.2091
2425	65.2401
2400	65.3348
2375	65.2422
2350	65.177
2325	65.2872
2300	65.2864
2275	65.2199
2250	65.1195
2225	65.269
2200	65.1447
2175	65.1896
2150	65.1445
2125	65.1139
2100	65.1981
2075	65.2636
2050	65.1322
2025	65.0606
2000	65.156
1975	65.1851
1950	65.1981
1925	65.1766
1900	65.1463
1875	65.1592
1850	65.1572
1825	65.2262
1800	65.1637
1775	65.2974
1750	65.1178
1725	64.9186
1700	65.2702
1675	65.0112
1650	65.0723
1625	65.0959
1600	65.0258
1575	65.1076
1550	65.1156
1525	65.0359
1500	65.079
1475	65.1012
1450	64.9066
1425	65.0663
1400	65.0578
1375	64.829
1350	64.9274
1325	64.9847
1300	64.8881
1275	64.8825
1250	64.8284
1225	64.7192
1200	65.0025
1175	64.7912
1150	64.719
1125	64.9261
1100	64.7816
1075	64.7329
1050	64.6132
1025	64.572
1000	64.8234
975	 64.6649
950	 64.4242
925	 64.5021
900	 64.5604
875	 65.4758
850	 64.6415
825	 63.2094
800	 63.7585
775	 63.9832
750	 63.6925
725	 63.5673
700	 63.3151
675	 62.8628
650	 62.9311
625	 62.61
600	 62.9552
575	 62.3525
550	 61.7364
525	 61.0595
500	 59.7543
475	 59.4163
450	 58.9183
425	 59.016
400	 54.8568
375	 93.4935
370	 75.6492