File: Bakgrunnsmateriale/MATLAB/FTIR/ftir_data/subBb/Mapping_36/C-4040-8_t25_cm-1.asc
PE IR       SPECTRUM    SPECTRUM    ASCII       PEDS        1.60
  -1
C-9AEE~1.ASC
17/05/02
13:01:56.00
17/05/02
13:01:56.00
tln
$C-4040-8_t0025$<tbV0>[12.5,7.0,8.0,0.0,22,1,0]
370
64

2002,4.07
MIRTGS : RIGHTBACK : INTERNAL 2
MIR : ON : INTERNAL 2
OPTKBR

0.200000
8
8.000000
FILLER
RATIO
SPECTRUM
UNLOCKED 256

DOUBLE
64
COMBINED
1
0
0

1.000000
RATIO

1
0
TRUE
51149
0
LEFT NOT FITTED RIGHT NOT FITTED 0
NONE
NONE
15600
12
4.427000
51148
TRUE
1 0 8 72 0 0 0 0

15798

#HDR
-1
-1
#GR
CM-1
%T
2.38419e-05
0.0
7800
-1.000000
7431
8
79.5649
22.6364
#DATA
7800	78.2437
7775	70.9797
7750	69.5266
7725	72.0533
7700	72.1604
7675	70.6581
7650	69.1891
7625	66.4619
7600	68.9956
7575	70.0361
7550	65.9016
7525	66.3076
7500	65.9356
7475	67.9993
7450	64.654
7425	65.8913
7400	63.4776
7375	64.525
7350	65.0559
7325	64.0898
7300	60.1674
7275	66.9773
7250	64.1604
7225	68.66
7200	67.6854
7175	67.2395
7150	66.4276
7125	64.0641
7100	66.9927
7075	63.9794
7050	63.0062
7025	64.5571
7000	64.269
6975	65.5896
6950	62.1522
6925	65.8995
6900	64.3337
6875	64.281
6850	65.7126
6825	64.7245
6800	63.5894
6775	64.5835
6750	64.6414
6725	62.15
6700	65.0811
6675	63.9913
6650	64.6742
6625	64.3087
6600	63.0736
6575	65.1453
6550	63.1611
6525	63.0462
6500	64.176
6475	63.6745
6450	64.782
6425	64.6152
6400	65.1609
6375	63.398
6350	64.8017
6325	65.0414
6300	65.1005
6275	65.7822
6250	64.9497
6225	65.3805
6200	65.0667
6175	64.0049
6150	63.7029
6125	64.8548
6100	65.1166
6075	63.6828
6050	64.726
6025	64.6119
6000	65.5881
5975	65.2085
5950	64.1316
5925	64.7553
5900	64.5689
5875	64.2364
5850	64.4306
5825	65.2337
5800	64.8514
5775	64.9416
5750	65.33
5725	65.1477
5700	65.0817
5675	65.4748
5650	65.1513
5625	65.2069
5600	65.266
5575	65.1734
5550	64.4353
5525	64.5578
5500	64.8413
5475	64.464
5450	65.4309
5425	65.0452
5400	65.2827
5375	65.673
5350	65.0019
5325	63.9311
5300	63.8479
5275	63.3373
5250	65.4551
5225	64.0853
5200	65.0006
5175	64.8491
5150	64.5412
5125	64.4585
5100	65.1961
5075	64.6489
5050	64.6788
5025	64.7138
5000	64.7573
4975	64.9888
4950	64.4727
4925	64.6413
4900	64.466
4875	65.0682
4850	64.5317
4825	64.9293
4800	65.0069
4775	65.177
4750	64.7903
4725	65.1626
4700	64.9944
4675	64.9639
4650	65.0038
4625	64.7394
4600	64.9158
4575	65.1841
4550	64.6534
4525	65.1961
4500	64.2794
4475	64.8661
4450	64.7785
4425	64.6655
4400	64.4759
4375	65.838
4350	65.1318
4325	64.5835
4300	65.0824
4275	64.7258
4250	64.6544
4225	64.6474
4200	64.9193
4175	64.8119
4150	65.0209
4125	64.9171
4100	65.1266
4075	64.8946
4050	65.1048
4025	64.9733
4000	65.1616
3975	64.9081
3950	65.0562
3925	65.1216
3900	65.0768
3875	65.1196
3850	65.082
3825	65.1943
3800	65.1111
3775	64.9498
3750	65.1925
3725	65.1573
3700	65.1646
3675	65.0759
3650	65.1764
3625	65.0374
3600	65.0599
3575	65.1279
3550	65.184
3525	64.9809
3500	65.2685
3475	65.1925
3450	65.0189
3425	65.0198
3400	65.2063
3375	64.9603
3350	65.1881
3325	64.8863
3300	65.0366
3275	64.9427
3250	65.0926
3225	64.9988
3200	65.0178
3175	65.2081
3150	65.1379
3125	65.0569
3100	65.0743
3075	65.0036
3050	65.009
3025	65.063
3000	65.1147
2975	64.9711
2950	64.8916
2925	64.7375
2900	64.903
2875	64.9658
2850	65.0094
2825	65.0941
2800	65.0406
2775	65.2006
2750	65.0423
2725	65.2129
2700	65.322
2675	65.2192
2650	65.0667
2625	65.1324
2600	65.1884
2575	65.1971
2550	65.1571
2525	65.2042
2500	65.1574
2475	65.1527
2450	65.0803
2425	65.2713
2400	65.0921
2375	65.1487
2350	65.1693
2325	65.1328
2300	65.2956
2275	65.0665
2250	65.2634
2225	65.0637
2200	65.2319
2175	65.1685
2150	65.2498
2125	65.1504
2100	65.1064
2075	65.3003
2050	65.1971
2025	65.1796
2000	65.1819
1975	65.1514
1950	65.202
1925	65.2356
1900	65.219
1875	65.3065
1850	65.2341
1825	65.1869
1800	65.2666
1775	65.0683
1750	65.0435
1725	64.9276
1700	65.1242
1675	64.96
1650	65.0197
1625	65.1107
1600	65.085
1575	64.8845
1550	64.9005
1525	64.8845
1500	65.0143
1475	65.0235
1450	64.9204
1425	65.1143
1400	64.9413
1375	64.9731
1350	64.9235
1325	64.9824
1300	64.8784
1275	64.8866
1250	64.8613
1225	64.9052
1200	64.8679
1175	64.8028
1150	64.7263
1125	64.7943
1100	64.916
1075	64.7277
1050	64.6815
1025	64.5686
1000	64.6301
975	 64.7676
950	 64.8361
925	 64.8879
900	 63.9509
875	 64.1296
850	 64.5728
825	 64.7688
800	 64.0232
775	 63.7919
750	 63.7648
725	 63.5495
700	 62.8086
675	 63.0224
650	 62.7587
625	 62.7934
600	 62.4436
575	 62.1818
550	 61.4282
525	 61.1535
500	 60.9507
475	 59.4263
450	 59.3628
425	 58.1528
400	 47.2162
375	 24.52
370	 23.586