File: Bakgrunnsmateriale/MATLAB/FTIR/ftir_data/subBb/Mapping_36/C-4040-8_t20.asc
PE IR       SPECTRUM    SPECTRUM    ASCII       PEDS        1.60
  -1
C-AD2A~1.ASC
17/05/02
12:32:00.00
17/05/02
12:32:26.00
tln
$C-4040-8_t0020$<tbV0>[7.5,2.0,8.0,0.0,22,1,0]
27.028
64

2002,4.07
MIRTGS : RIGHTBACK : INTERNAL 2
MIR : ON : INTERNAL 2
OPTKBR

0.200000
8
8.000000
FILLER
RATIO
SPECTRUM
UNLOCKED 256

DOUBLE
64
COMBINED
1
0
0

0.002000
RATIO

1
0
TRUE
51149
0
LEFT NOT FITTED RIGHT NOT FITTED 0
NONE
NONE
15600
12
4.427000
51148
TRUE
1 0 8 72 0 0 0 0

15798

#HDR
-1
-1
#GR
µM
%T
2.38419e-05
0.0
1.282000
0.002000
12874
8
103.23
45.7311
#DATA
1.282000	 68.0326
1.368000	 62.7811
1.454000	 66.4069
1.540000	 65.0127
1.626000	 64.3128
1.712000	 64.6292
1.798000	 64.4637
1.884000	 64.4368
1.970000	 64.6642
2.056000	 64.4559
2.142000	 65.4318
2.228000	 63.6494
2.314000	 63.573
2.400000	 64.9985
2.486000	 65.3612
2.572000	 65.304
2.658000	 65.0781
2.744000	 65.1644
2.830000	 65.0817
2.916000	 65.0715
3.002000	 65.0809
3.088000	 65.0982
3.174000	 65.0627
3.260000	 65.2595
3.346000	 64.9338
3.432000	 64.7517
3.518000	 64.9337
3.604000	 65.0535
3.690000	 65.1841
3.776000	 65.2153
3.862000	 65.1994
3.948000	 65.144
4.034000	 65.2135
4.120000	 65.243
4.206000	 65.1763
4.292000	 65.254
4.378000	 65.1633
4.464000	 65.2722
4.550000	 65.1964
4.636000	 65.1648
4.722000	 65.1315
4.808000	 65.1558
4.894000	 65.1536
4.980000	 65.1325
5.066000	 65.1984
5.152000	 65.2412
5.238000	 65.2333
5.324000	 65.2962
5.410000	 65.2076
5.496000	 65.206
5.582000	 65.1724
5.668000	 65.1399
5.754000	 64.9847
5.840000	 65.1681
5.926000	 65.1471
6.012000	 65.1076
6.098000	 64.9777
6.184000	 65.2315
6.270000	 65.0657
6.356000	 64.9593
6.442000	 64.8263
6.528000	 64.8912
6.614000	 64.9485
6.700000	 64.8982
6.786000	 65.0993
6.872000	 64.8593
6.958000	 64.8829
7.044000	 64.8816
7.130000	 64.9223
7.216000	 64.8622
7.302000	 64.9658
7.388000	 65.0763
7.474000	 64.9079
7.560000	 64.8705
7.646000	 64.8924
7.732000	 64.8567
7.818000	 64.8779
7.904000	 64.7727
7.990000	 64.821
8.076000	 64.792
8.161999	 64.8548
8.248000	 64.9118
8.334000	 64.7773
8.420000	 64.5783
8.506000	 64.7266
8.592000	 64.7002
8.678000	 64.6217
8.763999	 64.5737
8.850000	 64.5837
8.936000	 64.6066
9.022000	 64.5985
9.108000	 64.467
9.193999	 64.6569
9.280000	 64.5027
9.366000	 64.5764
9.452000	 64.454
9.538000	 64.6009
9.624000	 64.5938
9.710000	 64.3904
9.795999	 64.418
9.882000	 64.4859
9.968000	 64.4437
10.054	64.4778
10.14	64.431
10.226	64.5006
10.312	64.4013
10.398	64.6284
10.484	64.3733
10.57	64.2853
10.656	64.078
10.742	63.6958
10.828	64.3496
10.914	64.6357
11	64.1163
11.086	63.6768
11.172	63.8276
11.258	63.3387
11.344	64.2641
11.43	64.8069
11.516	64.5093
11.602	64.4691
11.688	64.389
11.774	64.3107
11.86	64.1427
11.946	63.9807
12.032	64.0769
12.118	63.8429
12.204	63.5948
12.29	63.4709
12.376	63.4151
12.462	63.5712
12.548	63.685
12.634	63.7539
12.72	63.7563
12.806	63.7592
12.892	63.7323
12.978	63.6144
13.064	63.7587
13.15	63.6928
13.236	63.4067
13.322	63.2987
13.408	63.2225
13.494	63.239
13.58	63.2384
13.666	63.1189
13.752	63.0375
13.838	62.9882
13.924	63.134
14.01	63.2326
14.096	63.0476
14.182	62.9945
14.268	63.0189
14.354	62.9477
14.44	62.9284
14.526	62.8086
14.612	62.5271
14.698	62.368
14.784	62.3986
14.87	62.5669
14.956	62.7215
15.042	62.6967
15.128	62.6322
15.214	62.6838
15.3	62.6883
15.386	62.5788
15.472	62.4851
15.558	62.333
15.644	62.1224
15.73	62.052
15.816	62.1199
15.902	62.23
15.988	62.3128
16.074	62.2465
16.16	62.0414
16.246	61.8802
16.332	61.8644
16.418	61.9174
16.504	61.8896
16.59	61.7506
16.676	61.6713
16.762	61.7363
16.848	61.8055
16.934	61.6961
17.02	61.4304
17.106	61.255
17.192	61.2538
17.278	61.2219
17.364	61.065
17.45	60.9717
17.536	61.0718
17.622	61.2328
17.708	61.2993
17.794	61.2811
17.88	61.2625
17.966	61.278
18.052	61.3152
18.138	61.3385
18.224	61.2954
18.31	61.1741
18.396	61.0384
18.482	60.9423
18.568	60.8645
18.654	60.7684
18.74	60.657
18.826	60.5383
18.912	60.4117
18.998	60.305
19.084	60.2826
19.17	60.3882
19.256	60.5767
19.342	60.7344
19.428	60.7787
19.514	60.709
19.6	60.5599
19.686	60.3615
19.772	60.1505
19.858	59.9589
19.944	59.7801
20.03	59.5853
20.116	59.3701
20.202	59.1639
20.288	58.9997
20.374	58.8885
20.46	58.816
20.546	58.7558
20.632	58.6969
20.718	58.6623
20.804	58.6958
20.89	58.8235
20.976	59.019
21.062	59.2001
21.148	59.2642
21.234	59.1576
21.32	58.927
21.406	58.6933
21.492	58.5556
21.578	58.5177
21.664	58.5188
21.75	58.5106
21.836	58.4975
21.922	58.5067
22.008	58.5316
22.094	58.5162
22.18	58.3992
22.266	58.1707
22.352	57.8893
22.438	57.6413
22.524	57.4728
22.61	57.3677
22.696	57.262
22.782	57.0844
22.868	56.8018
22.954	56.4382
23.04	56.0488
23.126	55.7059
23.212	55.4481
23.298	55.267
23.384	55.121
23.47	54.966
23.556	54.7678
23.642	54.5067
23.728	54.1692
23.814	53.7456
23.9	53.2358
23.986	52.6725
24.072	52.1423
24.158	51.7879
24.244	51.7762
24.33	52.2604
24.416	53.305
24.502	54.8055
24.588	56.4917
24.674	58.0178
24.76	59.0382
24.846	59.3447
24.932	58.9294
25.018	57.9986
25.104	56.8736
25.19	55.8888
25.276	55.2607
25.362	55.0685
25.448	55.1719
25.534	55.3353
25.62	55.3413
25.706	55.0406
25.792	54.3535
25.878	53.3376
25.964	52.3324
26.05	51.8663
26.136	52.3694
26.222	53.922
26.308	56.0933
26.394	58.1049
26.48	59.308
26.566	59.3237
26.652	58.2111
26.738	56.1309
26.824	53.3336
26.91	49.9732
26.996	46.5941
27.028	45.7311