File: Bakgrunnsmateriale/MATLAB/FTIR/ftir_data/subBb/Mapping_36/C-4040-8_t36_cm-1.asc
PE IR       SPECTRUM    SPECTRUM    ASCII       PEDS        1.60
  -1
C-1B6E~1.ASC
17/05/02
13:54:07.00
17/05/02
13:54:07.00
tln
$C-4040-8_t0036$<tbV0>[-12.5,12.0,8.0,0.0,22,1,0]
370
64

2002,4.07
MIRTGS : RIGHTBACK : INTERNAL 2
MIR : ON : INTERNAL 2
OPTKBR

0.200000
8
8.000000
FILLER
RATIO
SPECTRUM
UNLOCKED 256

DOUBLE
64
COMBINED
1
0
0

1.000000
RATIO

1
0
TRUE
51149
0
LEFT NOT FITTED RIGHT NOT FITTED 0
NONE
NONE
15600
12
4.427000
51148
TRUE
1 0 8 72 0 0 0 0

15798

#HDR
-1
-1
#GR
CM-1
%T
2.38419e-05
0.0
7800
-1.000000
7431
8
79.1852
47.8689
#DATA
7800	68.406
7775	64.5785
7750	69.8596
7725	71.5345
7700	68.1527
7675	75.3264
7650	68.1092
7625	60.9656
7600	64.1852
7575	70.5632
7550	69.402
7525	66.04
7500	66.6055
7475	63.3814
7450	68.7295
7425	66.9215
7400	61.1404
7375	60.3266
7350	66.2191
7325	64.9671
7300	63.6743
7275	64.5988
7250	66.6163
7225	67.9836
7200	64.9468
7175	61.408
7150	65.5473
7125	65.7269
7100	63.7927
7075	65.5574
7050	64.1135
7025	64.8008
7000	66.9909
6975	63.9244
6950	64.1854
6925	64.3736
6900	63.7427
6875	64.2143
6850	65.4939
6825	66.0145
6800	63.6149
6775	63.061
6750	62.3897
6725	62.8875
6700	63.9907
6675	62.8968
6650	64.1039
6625	65.7378
6600	66.1402
6575	64.971
6550	64.1902
6525	63.9616
6500	64.3208
6475	63.3692
6450	63.4824
6425	62.9118
6400	64.2512
6375	65.044
6350	65.15
6325	63.4256
6300	63.7068
6275	64.4351
6250	63.9485
6225	62.9876
6200	64.5964
6175	62.7123
6150	63.9622
6125	65.4129
6100	63.3258
6075	64.1696
6050	64.4952
6025	64.3828
6000	64.9595
5975	64.7616
5950	63.8049
5925	65.0489
5900	64.2844
5875	64.6578
5850	64.7164
5825	65.3283
5800	63.8717
5775	64.4465
5750	64.6969
5725	64.3484
5700	65.0496
5675	64.4063
5650	64.3899
5625	64.3724
5600	65.0004
5575	65.004
5550	64.2128
5525	64.5825
5500	64.6025
5475	64.3217
5450	64.5221
5425	64.9411
5400	64.925
5375	64.6802
5350	65.374
5325	63.4406
5300	63.8699
5275	63.5231
5250	64.5202
5225	64.0044
5200	64.562
5175	64.597
5150	64.442
5125	64.5636
5100	64.4561
5075	64.9445
5050	64.3808
5025	64.3129
5000	64.4053
4975	64.8153
4950	64.4276
4925	64.9084
4900	64.3197
4875	64.2939
4850	64.3719
4825	64.7597
4800	64.3094
4775	64.8595
4750	64.454
4725	64.5524
4700	64.3174
4675	64.4652
4650	64.5403
4625	64.4461
4600	64.8268
4575	65.019
4550	64.6167
4525	64.4739
4500	64.7314
4475	64.6852
4450	64.1369
4425	64.5071
4400	63.8413
4375	58.3251
4350	65.4677
4325	64.7002
4300	64.986
4275	64.755
4250	64.5566
4225	64.5585
4200	64.4521
4175	64.71
4150	64.7872
4125	64.8502
4100	64.7151
4075	64.7075
4050	65.1519
4025	64.6001
4000	64.7781
3975	64.9323
3950	64.8089
3925	64.8694
3900	64.636
3875	64.7328
3850	64.8803
3825	64.9242
3800	64.8327
3775	64.8179
3750	64.8344
3725	64.8002
3700	64.7335
3675	64.5866
3650	64.9797
3625	64.797
3600	64.889
3575	64.7208
3550	64.8229
3525	64.7475
3500	64.9486
3475	64.7319
3450	64.6913
3425	64.9533
3400	64.9284
3375	64.8445
3350	64.9378
3325	64.8385
3300	64.6996
3275	64.8033
3250	64.8634
3225	64.7606
3200	64.7915
3175	64.8236
3150	64.8664
3125	64.7469
3100	64.8597
3075	64.7485
3050	64.7972
3025	64.7314
3000	64.8799
2975	64.6349
2950	64.7465
2925	64.508
2900	64.6886
2875	64.6992
2850	64.6872
2825	64.9791
2800	64.8467
2775	64.917
2750	64.8952
2725	64.9515
2700	64.9433
2675	64.8429
2650	64.7355
2625	64.9797
2600	64.9359
2575	64.9206
2550	64.9297
2525	65.0323
2500	64.9853
2475	64.9774
2450	64.9138
2425	64.9365
2400	64.9014
2375	64.9444
2350	64.9164
2325	64.8979
2300	65.0102
2275	64.926
2250	65.0077
2225	64.7871
2200	64.979
2175	64.9789
2150	64.9162
2125	64.9211
2100	64.9862
2075	64.9109
2050	64.8987
2025	64.9959
2000	64.9264
1975	65.007
1950	65.0251
1925	64.9899
1900	64.9999
1875	64.9595
1850	64.9353
1825	64.8895
1800	64.9902
1775	64.9124
1750	64.7498
1725	64.6434
1700	64.8655
1675	64.8153
1650	64.8152
1625	64.8117
1600	64.7304
1575	64.6814
1550	64.726
1525	64.7663
1500	64.7396
1475	64.7104
1450	64.5697
1425	64.7408
1400	64.7168
1375	64.6874
1350	64.5537
1325	64.646
1300	64.6433
1275	64.51
1250	64.5522
1225	64.5454
1200	64.5944
1175	64.3886
1150	64.3461
1125	64.3505
1100	64.4655
1075	64.3277
1050	64.3781
1025	64.3143
1000	64.1836
975	 64.5195
950	 64.3639
925	 64.3895
900	 64.5338
875	 63.7626
850	 63.8991
825	 63.963
800	 63.6843
775	 63.4781
750	 63.2128
725	 62.9328
700	 62.6923
675	 62.4708
650	 62.1692
625	 61.8378
600	 62.0297
575	 61.2294
550	 61.0451
525	 60.3874
500	 59.9085
475	 59.2854
450	 58.8143
425	 57.1624
400	 58.0132
375	 67.7149
370	 63.1791