File: Bakgrunnsmateriale/MATLAB/FTIR/ftir_data/subBb/Mapping_36/C-4040-8_t11.asc
PE IR       SPECTRUM    SPECTRUM    ASCII       PEDS        1.60
  -1
C-A92E~1.ASC
17/05/02
11:42:14.00
17/05/02
11:42:40.00
tln
$C-4040-8_t0011$<tbV0>[-7.5,-8.0,8.0,0.0,22,1,0]
27.028
64

2002,4.07
MIRTGS : RIGHTBACK : INTERNAL 2
MIR : ON : INTERNAL 2
OPTKBR

0.200000
8
8.000000
FILLER
RATIO
SPECTRUM
UNLOCKED 256

DOUBLE
64
COMBINED
1
0
0

0.002000
RATIO

1
0
TRUE
51149
0
LEFT NOT FITTED RIGHT NOT FITTED 0
NONE
NONE
15600
12
4.427000
51148
TRUE
1 0 8 72 0 0 0 0

15798

#HDR
-1
-1
#GR
µM
%T
2.38419e-05
0.0
1.282000
0.002000
12874
8
75.4328
19.2993
#DATA
1.282000	 64.5421
1.368000	 66.8678
1.454000	 63.9341
1.540000	 64.239
1.626000	 64.9327
1.712000	 64.5435
1.798000	 64.3886
1.884000	 63.4051
1.970000	 64.2865
2.056000	 64.0497
2.142000	 63.8037
2.228000	 63.6808
2.314000	 63.7833
2.400000	 63.5722
2.486000	 63.1397
2.572000	 62.9709
2.658000	 62.9323
2.744000	 62.3263
2.830000	 61.6708
2.916000	 61.4882
3.002000	 61.0692
3.088000	 60.3593
3.174000	 60.1004
3.260000	 59.7336
3.346000	 59.1435
3.432000	 58.457
3.518000	 58.0193
3.604000	 57.8204
3.690000	 57.4275
3.776000	 56.8048
3.862000	 56.2606
3.948000	 55.9243
4.034000	 55.4822
4.120000	 55.1254
4.206000	 54.4818
4.292000	 54.16
4.378000	 53.7384
4.464000	 53.2085
4.550000	 52.8375
4.636000	 52.6208
4.722000	 52.2013
4.808000	 51.8977
4.894000	 51.488
4.980000	 51.0841
5.066000	 50.6229
5.152000	 50.2783
5.238000	 49.9442
5.324000	 49.6832
5.410000	 49.3271
5.496000	 49.1435
5.582000	 48.873
5.668000	 48.6112
5.754000	 48.1979
5.840000	 47.9435
5.926000	 47.6958
6.012000	 47.4956
6.098000	 47.2939
6.184000	 46.9894
6.270000	 46.7369
6.356000	 46.5232
6.442000	 46.3216
6.528000	 45.951
6.614000	 45.8158
6.700000	 45.6482
6.786000	 45.3633
6.872000	 45.1473
6.958000	 45.0565
7.044000	 44.8527
7.130000	 44.6008
7.216000	 44.4155
7.302000	 44.2022
7.388000	 44.0528
7.474000	 44.0126
7.560000	 43.7768
7.646000	 43.6013
7.732000	 43.3328
7.818000	 43.2618
7.904000	 43.1793
7.990000	 42.9802
8.076000	 42.9175
8.161999	 42.5033
8.248000	 42.4863
8.334000	 42.4074
8.420000	 42.2081
8.506000	 42.0383
8.592000	 41.9428
8.678000	 41.8043
8.763999	 41.6389
8.850000	 41.6434
8.936000	 41.4726
9.022000	 41.1495
9.108000	 41.1412
9.193999	 40.9507
9.280000	 40.7568
9.366000	 40.7421
9.452000	 40.516
9.538000	 40.518
9.624000	 40.4514
9.710000	 40.3215
9.795999	 40.3089
9.882000	 40.1904
9.968000	 40.0857
10.054	39.9774
10.14	39.8412
10.226	39.4246
10.312	39.5351
10.398	39.4454
10.484	39.1533
10.57	39.1494
10.656	38.9403
10.742	38.9025
10.828	39.094
10.914	39.027
11	38.8832
11.086	38.717
11.172	38.2237
11.258	38.0119
11.344	37.764
11.43	37.9985
11.516	38.4723
11.602	37.1017
11.688	36.9223
11.774	37.1284
11.86	37.4608
11.946	38.0075
12.032	37.7591
12.118	37.383
12.204	37.296
12.29	37.0685
12.376	36.9161
12.462	37.2556
12.548	37.2067
12.634	36.8209
12.72	36.7229
12.806	36.6054
12.892	36.5776
12.978	36.6203
13.064	36.494
13.15	36.3445
13.236	36.1347
13.322	35.9579
13.408	35.9136
13.494	35.8312
13.58	35.6915
13.666	35.5484
13.752	35.355
13.838	35.2711
13.924	35.2075
14.01	35.0983
14.096	35.0832
14.182	34.8705
14.268	34.69
14.354	34.7514
14.44	34.7616
14.526	34.7158
14.612	34.5986
14.698	34.3821
14.784	34.2197
14.87	34.0874
14.956	33.9831
15.042	34.0288
15.128	34.0671
15.214	33.941
15.3	33.7715
15.386	33.612
15.472	33.4485
15.558	33.2367
15.644	32.9644
15.73	32.7336
15.816	32.6095
15.902	32.6214
15.988	32.7179
16.074	32.8421
16.16	33.0769
16.246	33.3036
16.332	33.2106
16.418	32.8355
16.504	32.4734
16.59	32.2299
16.676	32.1006
16.762	32.0869
16.848	32.0633
16.934	31.8911
17.02	31.6786
17.106	31.5981
17.192	31.5159
17.278	31.223
17.364	30.8707
17.45	30.7779
17.536	30.9604
17.622	31.1728
17.708	31.2385
17.794	31.1335
17.88	30.923
17.966	30.7142
18.052	30.5857
18.138	30.5186
18.224	30.4304
18.31	30.2827
18.396	30.1271
18.482	30.0431
18.568	30.036
18.654	30.0087
18.74	29.858
18.826	29.592
18.912	29.3297
18.998	29.1761
19.084	29.1473
19.17	29.2086
19.256	29.3042
19.342	29.3385
19.428	29.2178
19.514	28.9437
19.6	28.6214
19.686	28.3777
19.772	28.2804
19.858	28.3406
19.944	28.523
20.03	28.7255
20.116	28.7899
20.202	28.5913
20.288	28.1465
20.374	27.6121
20.46	27.1907
20.546	27.02
20.632	27.1199
20.718	27.403
20.804	27.7118
20.89	27.8785
20.976	27.7996
21.062	27.5026
21.148	27.1496
21.234	26.9434
21.32	26.9894
21.406	27.2164
21.492	27.4254
21.578	27.429
21.664	27.1643
21.75	26.7173
21.836	26.2485
21.922	25.8956
22.008	25.7125
22.094	25.6666
22.18	25.6803
22.266	25.6782
22.352	25.6169
22.438	25.495
22.524	25.347
22.61	25.2113
22.696	25.1097
22.782	25.0537
22.868	25.0466
22.954	25.0948
23.04	25.2097
23.126	25.376
23.212	25.539
23.298	25.6233
23.384	25.5449
23.47	25.2793
23.556	24.905
23.642	24.5678
23.728	24.4601
23.814	24.7283
23.9	25.3976
23.986	26.3289
24.072	27.2499
24.158	27.8182
24.244	27.7579
24.33	26.9489
24.416	25.4765
24.502	23.6107
24.588	21.736
24.674	20.2255
24.76	19.3961
24.846	19.445
24.932	20.4572
25.018	22.3745
25.104	24.9837
25.19	28.017
25.276	31.1725
25.362	34.0626
25.448	36.3658
25.534	37.8729
25.62	38.4901
25.706	38.2923
25.792	37.5764
25.878	36.7294
25.964	35.9844
26.05	35.3029
26.136	34.5286
26.222	33.5962
26.308	32.8019
26.394	32.7154
26.48	33.708
26.566	35.8153
26.652	38.6219
26.738	41.4541
26.824	43.498
26.91	44.2229
26.996	42.3574
27.028	41.4027