File: Bakgrunnsmateriale/MATLAB/FTIR/ftir_data/subBb/Mapping_36/C-4040-8_t22_cm-1.asc
PE IR       SPECTRUM    SPECTRUM    ASCII       PEDS        1.60
  -1
C-9A64~1.ASC
17/05/02
12:41:22.00
17/05/02
12:41:22.00
tln
$C-4040-8_t0022$<tbV0>[-2.5,2.0,8.0,0.0,22,1,0]
370
64

2002,4.07
MIRTGS : RIGHTBACK : INTERNAL 2
MIR : ON : INTERNAL 2
OPTKBR

0.200000
8
8.000000
FILLER
RATIO
SPECTRUM
UNLOCKED 256

DOUBLE
64
COMBINED
1
0
0

1.000000
RATIO

1
0
TRUE
51149
0
LEFT NOT FITTED RIGHT NOT FITTED 0
NONE
NONE
15600
12
4.427000
51148
TRUE
1 0 8 72 0 0 0 0

15798

#HDR
-1
-1
#GR
CM-1
%T
2.38419e-05
0.0
7800
-1.000000
7431
8
83.1801
47.4951
#DATA
7800	73.2663
7775	76.7019
7750	71.2247
7725	68.4432
7700	70.6342
7675	67.3241
7650	62.7134
7625	64.9908
7600	64.2376
7575	65.5673
7550	65.6285
7525	64.7243
7500	68.3645
7475	65.9077
7450	61.9054
7425	64.629
7400	64.6745
7375	67.1672
7350	66.834
7325	65.2756
7300	68.7467
7275	66.7204
7250	68.7558
7225	66.4945
7200	64.4425
7175	62.1907
7150	62.594
7125	64.9784
7100	65.2824
7075	65.9716
7050	62.1968
7025	68.171
7000	63.1436
6975	65.1228
6950	62.9228
6925	64.8393
6900	65.1061
6875	65.6218
6850	64.2817
6825	63.7219
6800	65.3764
6775	62.0615
6750	63.7282
6725	61.9361
6700	63.0589
6675	63.2243
6650	63.2941
6625	65.3798
6600	63.8414
6575	63.5713
6550	65.1861
6525	65.016
6500	65.8655
6475	64.5672
6450	64.9567
6425	62.9595
6400	66.6587
6375	64.7964
6350	65.8899
6325	66.0755
6300	65.3367
6275	62.8938
6250	64.7498
6225	64.9564
6200	64.8305
6175	65.6916
6150	65.9863
6125	65.2851
6100	64.0004
6075	65.4782
6050	65.4822
6025	64.7322
6000	66.2662
5975	65.3383
5950	66.2459
5925	64.9629
5900	64.9764
5875	65.1572
5850	65.4027
5825	65.0517
5800	65.0893
5775	64.6622
5750	65.5148
5725	65.0997
5700	64.9212
5675	65.217
5650	65.0368
5625	65.9875
5600	65.2397
5575	64.9807
5550	64.3298
5525	65.4634
5500	64.7871
5475	64.8702
5450	65.5951
5425	64.279
5400	65.32
5375	65.3261
5350	64.6232
5325	64.8946
5300	64.3306
5275	63.14
5250	67.9776
5225	65.7275
5200	64.6544
5175	64.6183
5150	65.3288
5125	65.0576
5100	65.0007
5075	64.9046
5050	64.9903
5025	64.6268
5000	65.3174
4975	64.8252
4950	64.6715
4925	64.7595
4900	65.0911
4875	64.8744
4850	65.0196
4825	65.0827
4800	65.0096
4775	65.2133
4750	65.0958
4725	65.5116
4700	65.3285
4675	64.8356
4650	65.5201
4625	65.1208
4600	65.0701
4575	64.8895
4550	65.09
4525	64.4968
4500	64.73
4475	64.7687
4450	64.9837
4425	64.5236
4400	64.8322
4375	64.6273
4350	65.3311
4325	64.8605
4300	65.0888
4275	64.9039
4250	64.8192
4225	65.0223
4200	64.949
4175	65.2624
4150	65.1999
4125	64.602
4100	65.2916
4075	64.5522
4050	65.0992
4025	65.3544
4000	65.1979
3975	65.1647
3950	65.1263
3925	65.372
3900	65.117
3875	65.1971
3850	65.2498
3825	65.4532
3800	65.0465
3775	65.2112
3750	65.52
3725	65.1138
3700	65.3087
3675	65.1998
3650	65.3468
3625	65.2855
3600	65.2628
3575	65.3212
3550	65.3521
3525	65.2591
3500	65.0857
3475	65.231
3450	65.372
3425	65.1168
3400	65.1316
3375	65.1437
3350	65.3797
3325	65.1792
3300	65.1573
3275	65.1506
3250	65.2451
3225	65.1431
3200	65.2133
3175	65.321
3150	65.1805
3125	65.4282
3100	65.3919
3075	65.3035
3050	65.1096
3025	65.1998
3000	65.1303
2975	65.1631
2950	65.0223
2925	64.9762
2900	65.0563
2875	65.1246
2850	64.9563
2825	65.3071
2800	65.2109
2775	65.2227
2750	65.2838
2725	65.2495
2700	65.3738
2675	65.2484
2650	65.3261
2625	65.2927
2600	65.4122
2575	65.3978
2550	65.2588
2525	65.2973
2500	65.307
2475	65.3258
2450	65.3597
2425	65.2989
2400	65.2795
2375	65.35
2350	65.4105
2325	65.3616
2300	65.3743
2275	65.2946
2250	65.3554
2225	65.3593
2200	65.2752
2175	65.3765
2150	65.2945
2125	65.3013
2100	65.1861
2075	65.3507
2050	65.3896
2025	65.3762
2000	65.3303
1975	65.3957
1950	65.3053
1925	65.2939
1900	65.2477
1875	65.3282
1850	65.301
1825	65.2133
1800	65.2303
1775	65.3531
1750	65.1794
1725	65.0399
1700	65.22
1675	65.1595
1650	65.348
1625	65.1403
1600	65.1868
1575	65.0204
1550	65.0434
1525	65.0906
1500	65.3275
1475	65.0144
1450	64.9923
1425	65.2314
1400	65.0524
1375	64.9671
1350	65.0378
1325	64.9709
1300	65.1597
1275	64.9424
1250	64.9654
1225	64.9528
1200	64.8683
1175	65.1145
1150	64.8347
1125	64.7511
1100	64.9152
1075	64.7974
1050	64.7996
1025	64.8853
1000	64.764
975	 64.8486
950	 64.9671
925	 64.698
900	 64.981
875	 64.6354
850	 64.2402
825	 64.5713
800	 64.2106
775	 64.0499
750	 63.9567
725	 63.9623
700	 63.5799
675	 62.9679
650	 63.254
625	 63.0435
600	 62.4539
575	 62.2032
550	 62.2337
525	 61.4014
500	 61.4059
475	 60.3185
450	 60.1696
425	 58.4418
400	 58.677
375	 66.082
370	 47.4951