File: Bakgrunnsmateriale/MATLAB/FTIR/ftir_data/subBb/Mapping_36/C-4040-8_t12.asc
PE IR       SPECTRUM    SPECTRUM    ASCII       PEDS        1.60
  -1
C-A922~1.ASC
17/05/02
11:46:56.00
17/05/02
11:47:22.00
tln
$C-4040-8_t0012$<tbV0>[-12.5,-8.0,8.0,0.0,22,1,0]
27.028
64

2002,4.07
MIRTGS : RIGHTBACK : INTERNAL 2
MIR : ON : INTERNAL 2
OPTKBR

0.200000
8
8.000000
FILLER
RATIO
SPECTRUM
UNLOCKED 256

DOUBLE
64
COMBINED
1
0
0

0.002000
RATIO

1
0
TRUE
51149
0
LEFT NOT FITTED RIGHT NOT FITTED 0
NONE
NONE
15600
12
4.427000
51148
TRUE
1 0 8 72 0 0 0 0

15798

#HDR
-1
-1
#GR
µM
%T
2.38419e-05
0.0
1.282000
0.002000
12874
8
79.1557
42.5175
#DATA
1.282000	 69.2177
1.368000	 67.8199
1.454000	 64.0325
1.540000	 65.0162
1.626000	 64.0596
1.712000	 65.5583
1.798000	 65.4696
1.884000	 64.5821
1.970000	 65.0944
2.056000	 65.2212
2.142000	 64.9347
2.228000	 64.9892
2.314000	 65.933
2.400000	 65.4691
2.486000	 65.1581
2.572000	 65.3175
2.658000	 65.4229
2.744000	 65.3166
2.830000	 65.1183
2.916000	 65.5094
3.002000	 65.3673
3.088000	 65.2798
3.174000	 65.4912
3.260000	 65.395
3.346000	 65.4709
3.432000	 65.0399
3.518000	 65.2499
3.604000	 65.3588
3.690000	 65.4128
3.776000	 65.2374
3.862000	 65.2395
3.948000	 65.4507
4.034000	 65.334
4.120000	 65.3066
4.206000	 65.4243
4.292000	 65.2808
4.378000	 65.3569
4.464000	 65.4514
4.550000	 65.3722
4.636000	 65.3713
4.722000	 65.3482
4.808000	 65.4074
4.894000	 65.3241
4.980000	 65.4602
5.066000	 65.3944
5.152000	 65.3983
5.238000	 65.3004
5.324000	 65.417
5.410000	 65.3988
5.496000	 65.4557
5.582000	 65.4181
5.668000	 65.2972
5.754000	 65.1906
5.840000	 65.2306
5.926000	 65.3436
6.012000	 65.2469
6.098000	 65.1971
6.184000	 65.3795
6.270000	 65.2101
6.356000	 65.0739
6.442000	 65.1175
6.528000	 65.0963
6.614000	 65.1817
6.700000	 65.2726
6.786000	 65.0236
6.872000	 65.2457
6.958000	 65.1641
7.044000	 65.1791
7.130000	 65.1097
7.216000	 65.0531
7.302000	 65.0995
7.388000	 65.248
7.474000	 65.0764
7.560000	 65.0339
7.646000	 65.0572
7.732000	 65.1016
7.818000	 64.984
7.904000	 64.9919
7.990000	 65.0189
8.076000	 65.0454
8.161999	 65.0307
8.248000	 65.0325
8.334000	 65.0779
8.420000	 64.9919
8.506000	 64.9456
8.592000	 64.9818
8.678000	 64.8756
8.763999	 64.7854
8.850000	 64.8848
8.936000	 64.8845
9.022000	 64.9364
9.108000	 65.0978
9.193999	 64.7597
9.280000	 64.9556
9.366000	 64.8929
9.452000	 64.865
9.538000	 65.0068
9.624000	 64.9131
9.710000	 64.9143
9.795999	 64.7324
9.882000	 64.8873
9.968000	 64.8442
10.054	64.848
10.14	64.7199
10.226	64.5424
10.312	64.885
10.398	64.868
10.484	64.6866
10.57	64.8421
10.656	64.4983
10.742	64.6948
10.828	64.7903
10.914	64.8167
11	64.6903
11.086	64.6146
11.172	64.6166
11.258	64.6396
11.344	64.6447
11.43	64.7126
11.516	63.9846
11.602	64.0061
11.688	64.2084
11.774	64.8252
11.86	64.2668
11.946	64.4445
12.032	64.424
12.118	64.0058
12.204	64.2422
12.29	64.4164
12.376	64.0364
12.462	64.2771
12.548	64.3923
12.634	64.2958
12.72	64.2096
12.806	64.1937
12.892	64.3312
12.978	64.2922
13.064	64.087
13.15	63.9654
13.236	63.9659
13.322	63.8189
13.408	63.7221
13.494	64.0134
13.58	64.3468
13.666	64.1848
13.752	63.8087
13.838	63.6219
13.924	63.6703
14.01	63.7645
14.096	63.6857
14.182	63.4617
14.268	63.4
14.354	63.5712
14.44	63.5798
14.526	63.4414
14.612	63.3622
14.698	63.2523
14.784	63.1245
14.87	63.1162
14.956	63.1616
15.042	63.1995
15.128	63.2741
15.214	63.3625
15.3	63.4262
15.386	63.4655
15.472	63.4499
15.558	63.264
15.644	63.0814
15.73	63.1751
15.816	63.2938
15.902	63.1735
15.988	62.9327
16.074	62.6868
16.16	62.56
16.246	62.6518
16.332	62.7948
16.418	62.7995
16.504	62.7025
16.59	62.6051
16.676	62.5507
16.762	62.5429
16.848	62.6339
16.934	62.8423
17.02	63.0065
17.106	62.9326
17.192	62.6386
17.278	62.3853
17.364	62.3634
17.45	62.4285
17.536	62.3526
17.622	62.1891
17.708	62.1444
17.794	62.2394
17.88	62.3183
17.966	62.3167
18.052	62.3059
18.138	62.3163
18.224	62.2714
18.31	62.1107
18.396	61.8684
18.482	61.6468
18.568	61.5194
18.654	61.4542
18.74	61.3574
18.826	61.1864
18.912	61.0032
18.998	60.923
19.084	61.01
19.17	61.2039
19.256	61.3561
19.342	61.3603
19.428	61.2674
19.514	61.2207
19.6	61.264
19.686	61.2889
19.772	61.1899
19.858	60.9997
19.944	60.841
20.03	60.7875
20.116	60.8135
20.202	60.8621
20.288	60.9171
20.374	60.9966
20.46	61.0975
20.546	61.1792
20.632	61.1996
20.718	61.1523
20.804	61.0568
20.89	60.9365
20.976	60.8189
21.062	60.7405
21.148	60.7186
21.234	60.7175
21.32	60.6621
21.406	60.4919
21.492	60.2222
21.578	59.9321
21.664	59.7095
21.75	59.5862
21.836	59.5304
21.922	59.4872
22.008	59.426
22.094	59.3639
22.18	59.3491
22.266	59.426
22.352	59.5918
22.438	59.7747
22.524	59.8646
22.61	59.7582
22.696	59.4143
22.782	58.8806
22.868	58.2616
22.954	57.6577
23.04	57.1244
23.126	56.6813
23.212	56.35
23.298	56.1819
23.384	56.2192
23.47	56.4433
23.556	56.7683
23.642	57.0684
23.728	57.2667
23.814	57.362
23.9	57.4054
23.986	57.4434
24.072	57.4422
24.158	57.2676
24.244	56.786
24.33	55.9658
24.416	54.9222
24.502	53.8675
24.588	53.0498
24.674	52.6665
24.76	52.8408
24.846	53.5851
24.932	54.8215
25.018	56.4122
25.104	58.1966
25.19	60.0409
25.276	61.8953
25.362	63.7933
25.448	65.6996
25.534	67.4817
25.62	68.9013
25.706	69.5986
25.792	69.247
25.878	67.7346
25.964	65.3335
26.05	62.7044
26.136	60.623
26.222	59.7155
26.308	60.1825
26.394	61.7289
26.48	63.7304
26.566	65.445
26.652	66.3239
26.738	66.082
26.824	64.8271
26.91	62.8966
26.996	61.1186
27.028	60.7284