File: Bakgrunnsmateriale/MATLAB/FTIR/ftir_data/subBb/Mapping_36/C-4040-8_t30.asc
PE IR       SPECTRUM    SPECTRUM    ASCII       PEDS        1.60
  -1
C-A13A~1.ASC
17/05/02
13:25:23.00
17/05/02
13:25:50.00
tln
$C-4040-8_t0030$<tbV0>[-12.5,7.0,8.0,0.0,22,1,0]
27.028
64

2002,4.07
MIRTGS : RIGHTBACK : INTERNAL 2
MIR : ON : INTERNAL 2
OPTKBR

0.200000
8
8.000000
FILLER
RATIO
SPECTRUM
UNLOCKED 256

DOUBLE
64
COMBINED
1
0
0

0.002000
RATIO

1
0
TRUE
51149
0
LEFT NOT FITTED RIGHT NOT FITTED 0
NONE
NONE
15600
12
4.427000
51148
TRUE
1 0 8 72 0 0 0 0

15798

#HDR
-1
-1
#GR
µM
%T
2.38419e-05
0.0
1.282000
0.002000
12874
8
84.9462
56.4327
#DATA
1.282000	 84.9462
1.368000	 63.0945
1.454000	 65.1217
1.540000	 65.248
1.626000	 64.5785
1.712000	 64.2731
1.798000	 65.4297
1.884000	 64.6786
1.970000	 64.9245
2.056000	 64.8336
2.142000	 65.6028
2.228000	 63.9914
2.314000	 64.4233
2.400000	 64.5439
2.486000	 64.9039
2.572000	 65.1659
2.658000	 65.1654
2.744000	 65.2818
2.830000	 65.0962
2.916000	 64.9796
3.002000	 65.1929
3.088000	 65.1567
3.174000	 65.2079
3.260000	 65.1371
3.346000	 65.0297
3.432000	 64.6466
3.518000	 64.9811
3.604000	 65.2241
3.690000	 65.2543
3.776000	 65.0861
3.862000	 65.2084
3.948000	 65.3044
4.034000	 65.2642
4.120000	 65.1815
4.206000	 65.1405
4.292000	 65.2836
4.378000	 65.2213
4.464000	 65.2797
4.550000	 65.2012
4.636000	 65.2475
4.722000	 65.2604
4.808000	 65.349
4.894000	 65.233
4.980000	 65.3579
5.066000	 65.3311
5.152000	 65.2813
5.238000	 65.29
5.324000	 65.2426
5.410000	 65.2536
5.496000	 65.2955
5.582000	 65.3102
5.668000	 65.3186
5.754000	 65.021
5.840000	 65.1739
5.926000	 65.0959
6.012000	 65.1423
6.098000	 65.139
6.184000	 65.1725
6.270000	 65.0071
6.356000	 64.9662
6.442000	 65.0741
6.528000	 65.0991
6.614000	 65.1006
6.700000	 65.2071
6.786000	 65.068
6.872000	 64.8825
6.958000	 65.0421
7.044000	 65.0863
7.130000	 65.0375
7.216000	 64.9694
7.302000	 65.0186
7.388000	 65.1268
7.474000	 64.9886
7.560000	 64.9659
7.646000	 64.96
7.732000	 65.0024
7.818000	 64.9319
7.904000	 64.9883
7.990000	 64.9191
8.076000	 64.8901
8.161999	 64.9207
8.248000	 64.9488
8.334000	 64.817
8.420000	 64.8405
8.506000	 64.8116
8.592000	 64.8205
8.678000	 64.9001
8.763999	 64.6907
8.850000	 64.6703
8.936000	 64.8801
9.022000	 64.8209
9.108000	 64.874
9.193999	 64.9726
9.280000	 64.8637
9.366000	 64.679
9.452000	 64.7656
9.538000	 64.8173
9.624000	 64.6695
9.710000	 64.6589
9.795999	 64.7099
9.882000	 64.8498
9.968000	 64.6828
10.054	64.6648
10.14	64.7961
10.226	64.9325
10.312	64.9026
10.398	64.7573
10.484	64.6315
10.57	64.5767
10.656	64.7598
10.742	64.9818
10.828	64.5537
10.914	64.7885
11	65.2159
11.086	64.2479
11.172	63.808
11.258	64.7114
11.344	64.8816
11.43	64.699
11.516	64.1666
11.602	64.1444
11.688	64.2192
11.774	64.335
11.86	64.5282
11.946	64.5451
12.032	64.4714
12.118	64.5556
12.204	64.3968
12.29	64.3494
12.376	64.2127
12.462	64.2156
12.548	64.2202
12.634	64.2467
12.72	64.075
12.806	64.1633
12.892	64.2253
12.978	63.8596
13.064	63.6938
13.15	63.8599
13.236	63.8592
13.322	63.7935
13.408	63.7533
13.494	63.7188
13.58	63.7119
13.666	63.7847
13.752	63.821
13.838	63.6204
13.924	63.4936
14.01	63.568
14.096	63.5756
14.182	63.5156
14.268	63.325
14.354	63.1591
14.44	63.2888
14.526	63.471
14.612	63.4175
14.698	63.337
14.784	63.3837
14.87	63.3953
14.956	63.3919
15.042	63.4427
15.128	63.4139
15.214	63.2885
15.3	63.1177
15.386	62.9657
15.472	62.8733
15.558	62.8246
15.644	62.8749
15.73	62.9592
15.816	62.9566
15.902	62.9796
15.988	63.0845
16.074	63.1273
16.16	63.1246
16.246	63.1343
16.332	63.0521
16.418	62.8601
16.504	62.7191
16.59	62.7402
16.676	62.8662
16.762	62.9646
16.848	62.9567
16.934	62.8796
17.02	62.7929
17.106	62.6599
17.192	62.4508
17.278	62.2887
17.364	62.2816
17.45	62.3432
17.536	62.3765
17.622	62.4295
17.708	62.5194
17.794	62.5334
17.88	62.4145
17.966	62.2677
18.052	62.2013
18.138	62.2055
18.224	62.2027
18.31	62.1514
18.396	62.0755
18.482	62.0022
18.568	61.9214
18.654	61.8184
18.74	61.7014
18.826	61.5905
18.912	61.498
18.998	61.4122
19.084	61.3127
19.17	61.2213
19.256	61.2053
19.342	61.3097
19.428	61.4919
19.514	61.6552
19.6	61.729
19.686	61.7202
19.772	61.6781
19.858	61.6246
19.944	61.5378
20.03	61.4027
20.116	61.2465
20.202	61.1083
20.288	61.0253
20.374	61.0505
20.46	61.232
20.546	61.5392
20.632	61.8257
20.718	61.894
20.804	61.6207
20.89	61.0455
20.976	60.3643
21.062	59.8225
21.148	59.5857
21.234	59.6717
21.32	59.9758
21.406	60.3419
21.492	60.6427
21.578	60.8091
21.664	60.8306
21.75	60.7355
21.836	60.5708
21.922	60.3814
22.008	60.1898
22.094	59.9938
22.18	59.7861
22.266	59.5769
22.352	59.4014
22.438	59.2859
22.524	59.223
22.61	59.1506
22.696	58.9878
22.782	58.6923
22.868	58.2866
22.954	57.8562
23.04	57.4955
23.126	57.2632
23.212	57.1688
23.298	57.1907
23.384	57.3025
23.47	57.4916
23.556	57.7486
23.642	58.056
23.728	58.3884
23.814	58.7151
23.9	59.0143
23.986	59.2846
24.072	59.5396
24.158	59.7873
24.244	59.9988
24.33	60.1116
24.416	60.0739
24.502	59.8485
24.588	59.4559
24.674	58.9678
24.76	58.472
24.846	58.026
24.932	57.6618
25.018	57.3946
25.104	57.2107
25.19	57.1635
25.276	57.3277
25.362	57.7077
25.448	58.2312
25.534	58.7435
25.62	59.042
25.706	58.9688
25.792	58.5345
25.878	57.9658
25.964	57.6841
26.05	58.124
26.136	59.5425
26.222	61.9374
26.308	64.9842
26.394	68.1182
26.48	70.7687
26.566	72.4192
26.652	72.7485
26.738	71.5928
26.824	68.8776
26.91	64.619
26.996	58.4093
27.028	56.4327