File: Bakgrunnsmateriale/MATLAB/FTIR/ftir_data/subBb/Mapping_36/C-4040-8_t15_cm-1.asc
PE IR       SPECTRUM    SPECTRUM    ASCII       PEDS        1.60
  -1
C-1AEE~1.ASC
17/05/02
12:07:57.00
17/05/02
12:07:57.00
tln
$C-4040-8_t0015$<tbV0>[2.5,-3.0,8.0,0.0,22,1,0]
370
64

2002,4.07
MIRTGS : RIGHTBACK : INTERNAL 2
MIR : ON : INTERNAL 2
OPTKBR

0.200000
8
8.000000
FILLER
RATIO
SPECTRUM
UNLOCKED 256

DOUBLE
64
COMBINED
1
0
0

1.000000
RATIO

1
0
TRUE
51149
0
LEFT NOT FITTED RIGHT NOT FITTED 0
NONE
NONE
15600
12
4.427000
51148
TRUE
1 0 8 72 0 0 0 0

15798

#HDR
-1
-1
#GR
CM-1
%T
2.38419e-05
0.0
7800
-1.000000
7431
8
94.4559
30.7626
#DATA
7800	64.2974
7775	70.0486
7750	66.9924
7725	70.2523
7700	70.2298
7675	70.1869
7650	67.6905
7625	69.2288
7600	71.8776
7575	65.9495
7550	63.0519
7525	63.7562
7500	60.9018
7475	63.6607
7450	66.6189
7425	65.5287
7400	65.39
7375	60.8526
7350	66.3408
7325	68.2278
7300	66.5427
7275	66.4368
7250	64.4966
7225	65.2512
7200	64.849
7175	64.8704
7150	66.1571
7125	66.6567
7100	63.6865
7075	64.2326
7050	64.8229
7025	63.2116
7000	64.1101
6975	63.9225
6950	64.3954
6925	62.9838
6900	64.1008
6875	64.7777
6850	63.6722
6825	66.1296
6800	66.2472
6775	62.6717
6750	64.7157
6725	65.2983
6700	63.1724
6675	63.0223
6650	63.6577
6625	65.2321
6600	63.9868
6575	63.0686
6550	63.3852
6525	62.4323
6500	64.873
6475	64.732
6450	63.8148
6425	63.269
6400	64.7974
6375	63.3522
6350	63.7812
6325	63.5175
6300	64.3582
6275	63.2186
6250	64.6104
6225	64.6666
6200	64.5238
6175	65.5378
6150	64.6173
6125	64.0091
6100	63.5483
6075	64.7718
6050	63.8111
6025	63.639
6000	65.0256
5975	65.1523
5950	64.4729
5925	64.2632
5900	64.9074
5875	64.4599
5850	64.764
5825	64.5904
5800	63.7294
5775	64.0306
5750	64.5081
5725	64.1362
5700	64.733
5675	63.7346
5650	63.6623
5625	64.8256
5600	63.8305
5575	64.106
5550	64.2163
5525	64.3404
5500	64.0525
5475	64.1747
5450	64.2481
5425	64.2175
5400	64.9572
5375	64.0182
5350	64.3151
5325	60.011
5300	61.997
5275	62.4065
5250	66.5987
5225	63.6161
5200	63.7147
5175	63.7085
5150	63.8602
5125	64.1618
5100	63.9772
5075	63.7732
5050	63.6942
5025	64.0171
5000	64.0284
4975	64.3696
4950	63.8043
4925	63.5644
4900	63.8717
4875	64.0841
4850	63.8135
4825	63.6527
4800	63.8026
4775	63.9736
4750	63.6489
4725	63.689
4700	63.6557
4675	63.465
4650	63.7499
4625	63.9397
4600	63.677
4575	63.5433
4550	63.5312
4525	63.7239
4500	63.7574
4475	63.8955
4450	63.5565
4425	63.7554
4400	63.7945
4375	56.2991
4350	64.6684
4325	63.6708
4300	63.5746
4275	63.6407
4250	63.5439
4225	63.6393
4200	62.9868
4175	63.132
4150	62.9588
4125	62.988
4100	62.9676
4075	62.8093
4050	63.0148
4025	62.772
4000	62.8598
3975	62.9094
3950	62.7332
3925	62.9353
3900	62.6482
3875	62.3812
3850	62.8977
3825	62.6237
3800	62.5554
3775	62.562
3750	62.6251
3725	62.2381
3700	62.4295
3675	62.1762
3650	62.0941
3625	61.9255
3600	62.0035
3575	61.8972
3550	61.9652
3525	61.6153
3500	61.5571
3475	61.6305
3450	61.8831
3425	61.3997
3400	61.3845
3375	61.2292
3350	61.3398
3325	61.1081
3300	60.98
3275	60.8963
3250	60.7694
3225	60.5443
3200	60.5412
3175	60.5158
3150	60.2894
3125	60.2599
3100	60.3347
3075	60.1329
3050	59.9894
3025	59.8639
3000	59.6458
2975	59.5507
2950	59.1292
2925	59.0004
2900	59.0413
2875	59.0272
2850	58.7765
2825	58.7205
2800	58.614
2775	58.4635
2750	58.3792
2725	58.2889
2700	58.0506
2675	57.8417
2650	57.7168
2625	57.6279
2600	57.4842
2575	57.1806
2550	57.1248
2525	57.1178
2500	56.8414
2475	56.6999
2450	56.5229
2425	56.4152
2400	56.1553
2375	55.9508
2350	55.7105
2325	55.5284
2300	55.3954
2275	55.3537
2250	55.1556
2225	54.9714
2200	54.7715
2175	54.4368
2150	54.2941
2125	54.0461
2100	54.0208
2075	53.7925
2050	53.7428
2025	53.4896
2000	53.2662
1975	53.1369
1950	53.0069
1925	52.7666
1900	52.4815
1875	52.3276
1850	52.0991
1825	51.8489
1800	51.6486
1775	51.5062
1750	51.1935
1725	51.041
1700	50.9174
1675	50.7423
1650	50.5201
1625	50.3785
1600	50.0609
1575	49.9624
1550	49.7217
1525	49.6701
1500	49.5803
1475	49.304
1450	49.0252
1425	48.9359
1400	48.7248
1375	48.4005
1350	48.2346
1325	47.9986
1300	47.9223
1275	47.7942
1250	47.3915
1225	47.388
1200	47.1917
1175	47.023
1150	46.7507
1125	46.3935
1100	46.1108
1075	45.9986
1050	45.7438
1025	45.6544
1000	45.356
975	 45.5206
950	 44.6691
925	 44.6946
900	 44.2201
875	 43.8853
850	 43.9121
825	 43.2692
800	 43.0928
775	 43.1051
750	 42.6815
725	 42.2456
700	 41.9468
675	 41.1051
650	 40.9149
625	 40.3319
600	 39.8964
575	 38.9646
550	 38.7706
525	 37.4642
500	 37.643
475	 35.9107
450	 34.6735
425	 32.9692
400	 36.5107
375	 38.1903
370	 32.1816