File: Bakgrunnsmateriale/MATLAB/FTIR/ftir_data/subBb/Mapping_36/C-4040-8_t17.asc
PE IR       SPECTRUM    SPECTRUM    ASCII       PEDS        1.60
  -1
C-B926~1.ASC
17/05/02
12:17:20.00
17/05/02
12:17:46.00
tln
$C-4040-8_t0017$<tbV0>[-7.5,-3.0,8.0,0.0,22,1,0]
27.028
64

2002,4.07
MIRTGS : RIGHTBACK : INTERNAL 2
MIR : ON : INTERNAL 2
OPTKBR

0.200000
8
8.000000
FILLER
RATIO
SPECTRUM
UNLOCKED 256

DOUBLE
64
COMBINED
1
0
0

0.002000
RATIO

1
0
TRUE
51149
0
LEFT NOT FITTED RIGHT NOT FITTED 0
NONE
NONE
15600
12
4.427000
51148
TRUE
1 0 8 72 0 0 0 0

15798

#HDR
-1
-1
#GR
µM
%T
2.38419e-05
0.0
1.282000
0.002000
12874
8
83.2724
46.2058
#DATA
1.282000	 73.4895
1.368000	 61.0212
1.454000	 65.5576
1.540000	 65.1315
1.626000	 65.2642
1.712000	 65.5173
1.798000	 64.7371
1.884000	 61.6016
1.970000	 64.9404
2.056000	 64.9285
2.142000	 65.0921
2.228000	 64.0651
2.314000	 64.577
2.400000	 65.1655
2.486000	 65.4525
2.572000	 65.2667
2.658000	 65.0812
2.744000	 65.3088
2.830000	 65.0864
2.916000	 65.3775
3.002000	 65.1787
3.088000	 65.1939
3.174000	 65.2339
3.260000	 65.2559
3.346000	 65.2541
3.432000	 64.9021
3.518000	 65.0214
3.604000	 65.2435
3.690000	 65.2345
3.776000	 65.2208
3.862000	 65.4042
3.948000	 65.3318
4.034000	 65.379
4.120000	 65.3162
4.206000	 65.4196
4.292000	 65.1936
4.378000	 65.2489
4.464000	 65.4238
4.550000	 65.3705
4.636000	 65.4462
4.722000	 65.3586
4.808000	 65.2861
4.894000	 65.3321
4.980000	 65.2519
5.066000	 65.2451
5.152000	 65.2976
5.238000	 65.2519
5.324000	 65.2763
5.410000	 65.341
5.496000	 65.2387
5.582000	 65.1428
5.668000	 65.2396
5.754000	 65.1791
5.840000	 65.1404
5.926000	 65.178
6.012000	 65.1518
6.098000	 65.133
6.184000	 65.1853
6.270000	 65.1741
6.356000	 65.1055
6.442000	 64.9803
6.528000	 65.1202
6.614000	 65.1471
6.700000	 65.0487
6.786000	 65.0971
6.872000	 64.9432
6.958000	 65.0652
7.044000	 64.9474
7.130000	 65.0578
7.216000	 64.9405
7.302000	 65.002
7.388000	 65.0268
7.474000	 64.9165
7.560000	 65.0005
7.646000	 65.0632
7.732000	 65.0074
7.818000	 64.9157
7.904000	 64.9754
7.990000	 64.7878
8.076000	 64.9882
8.161999	 64.9785
8.248000	 64.9517
8.334000	 64.976
8.420000	 64.8732
8.506000	 65.0384
8.592000	 64.9862
8.678000	 64.7959
8.763999	 64.8048
8.850000	 64.8039
8.936000	 64.7113
9.022000	 64.9322
9.108000	 64.846
9.193999	 64.8263
9.280000	 64.6355
9.366000	 64.7639
9.452000	 64.7943
9.538000	 64.8284
9.624000	 64.9131
9.710000	 64.7734
9.795999	 64.5791
9.882000	 64.6318
9.968000	 64.6596
10.054	64.7221
10.14	64.5662
10.226	64.5984
10.312	64.5568
10.398	64.6604
10.484	64.4144
10.57	64.6499
10.656	64.4233
10.742	64.2787
10.828	64.3336
10.914	64.5064
11	64.596
11.086	64.4402
11.172	64.2538
11.258	64.2144
11.344	64.9017
11.43	64.7185
11.516	64.8758
11.602	64.6921
11.688	63.9592
11.774	64.0608
11.86	64.0944
11.946	63.9861
12.032	63.891
12.118	64.0013
12.204	64.1878
12.29	64.0334
12.376	63.6286
12.462	63.7186
12.548	64.0545
12.634	63.9756
12.72	63.8547
12.806	64.0102
12.892	64.0832
12.978	63.9986
13.064	64.0024
13.15	63.9487
13.236	63.8665
13.322	63.7386
13.408	63.6481
13.494	63.6841
13.58	63.7619
13.666	63.8102
13.752	63.7487
13.838	63.6438
13.924	63.5328
14.01	63.4189
14.096	63.3601
14.182	63.3197
14.268	63.2701
14.354	63.3964
14.44	63.4899
14.526	63.3599
14.612	63.2476
14.698	63.1824
14.784	63.0575
14.87	62.9268
14.956	62.8741
15.042	62.883
15.128	62.8999
15.214	62.9513
15.3	62.9679
15.386	62.8858
15.472	62.8498
15.558	62.8267
15.644	62.6617
15.73	62.5531
15.816	62.7075
15.902	62.9608
15.988	63.0992
16.074	63.0655
16.16	62.8887
16.246	62.6867
16.332	62.5643
16.418	62.5244
16.504	62.4983
16.59	62.4066
16.676	62.2729
16.762	62.1832
16.848	62.1823
16.934	62.2019
17.02	62.1451
17.106	62.0684
17.192	62.0905
17.278	62.1822
17.364	62.2159
17.45	62.1449
17.536	62.0229
17.622	61.9103
17.708	61.8531
17.794	61.8709
17.88	61.8993
17.966	61.8703
18.052	61.8419
18.138	61.9198
18.224	62.0706
18.31	62.1517
18.396	62.0948
18.482	61.9592
18.568	61.8278
18.654	61.727
18.74	61.627
18.826	61.4858
18.912	61.3124
18.998	61.1804
19.084	61.1524
19.17	61.1999
19.256	61.2284
19.342	61.1836
19.428	61.1118
19.514	61.0863
19.6	61.1046
19.686	61.1033
19.772	61.0608
19.858	61.0054
19.944	60.9455
20.03	60.8544
20.116	60.7237
20.202	60.5814
20.288	60.4744
20.374	60.4421
20.46	60.4768
20.546	60.5048
20.632	60.4312
20.718	60.2125
20.804	59.8892
20.89	59.5629
20.976	59.3437
21.062	59.2997
21.148	59.4176
21.234	59.6013
21.32	59.7165
21.406	59.662
21.492	59.4327
21.578	59.1071
21.664	58.7806
21.75	58.5024
21.836	58.2632
21.922	58.0374
22.008	57.8384
22.094	57.7232
22.18	57.7464
22.266	57.9134
22.352	58.1672
22.438	58.4181
22.524	58.578
22.61	58.5726
22.696	58.3459
22.782	57.8905
22.868	57.2774
22.954	56.6579
23.04	56.1942
23.126	55.9994
23.212	56.0697
23.298	56.2958
23.384	56.5178
23.47	56.63
23.556	56.6158
23.642	56.5446
23.728	56.5052
23.814	56.5184
23.9	56.5075
23.986	56.3324
24.072	55.8993
24.158	55.23
24.244	54.4877
24.33	53.9316
24.416	53.7779
24.502	54.0758
24.588	54.6905
24.674	55.3517
24.76	55.7196
24.846	55.5781
24.932	54.9216
25.018	53.9702
25.104	53.055
25.19	52.5005
25.276	52.4565
25.362	52.8589
25.448	53.5123
25.534	54.1118
25.62	54.2983
25.706	53.8859
25.792	52.8633
25.878	51.3542
25.964	49.5713
26.05	47.8366
26.136	46.557
26.222	46.2377
26.308	47.268
26.394	49.7156
26.48	53.2094
26.566	57.0173
26.652	60.2744
26.738	62.2949
26.824	62.8161
26.91	62.0798
26.996	60.5698
27.028	60.1023