File: Bakgrunnsmateriale/MATLAB/FTIR/ftir_data/subBb/Mapping_36/C-4040-8_t04_cm-1.asc
PE IR       SPECTRUM    SPECTRUM    ASCII       PEDS        1.60
  -1
C-996F~1.ASC
17/05/02
11:08:49.00
17/05/02
11:08:49.00
tln
$C-4040-8_t0004$<tbV0>[-2.5,-13.0,8.0,0.0,22,1,0]
370
64

2002,4.07
MIRTGS : RIGHTBACK : INTERNAL 2
MIR : ON : INTERNAL 2
OPTKBR

0.200000
8
8.000000
FILLER
RATIO
SPECTRUM
UNLOCKED 256

DOUBLE
64
COMBINED
1
0
0

1.000000
RATIO

1
0
TRUE
51149
0
LEFT NOT FITTED RIGHT NOT FITTED 0
NONE
NONE
15600
12
4.427000
51148
TRUE
1 0 8 72 0 0 0 0

15798

#HDR
-1
-1
#GR
CM-1
%T
2.38419e-05
0.0
7800
-1.000000
7431
8
85.3717
37.1209
#DATA
7800	69.6496
7775	58.0377
7750	70.4563
7725	64.5789
7700	64.2724
7675	71.8871
7650	76.2876
7625	64.4274
7600	65.5551
7575	69.5731
7550	67.4155
7525	61.6669
7500	64.7562
7475	64.776
7450	65.0407
7425	62.4712
7400	69.6793
7375	62.598
7350	60.9679
7325	67.9698
7300	60.4372
7275	64.5939
7250	62.5098
7225	65.2632
7200	64.2124
7175	67.0806
7150	61.9798
7125	63.2828
7100	63.7324
7075	63.7289
7050	64.1781
7025	64.0256
7000	62.7848
6975	64.1007
6950	61.4245
6925	63.9192
6900	63.7522
6875	64.4513
6850	64.3425
6825	60.0174
6800	64.0465
6775	62.43
6750	63.359
6725	63.5723
6700	64.7824
6675	63.0383
6650	61.7555
6625	63.1023
6600	63.7525
6575	64.6105
6550	64.835
6525	63.8346
6500	65.3015
6475	64.6448
6450	66.5585
6425	65.802
6400	63.4157
6375	63.1484
6350	64.3885
6325	65.458
6300	63.0486
6275	64.5925
6250	63.9375
6225	64.2599
6200	63.222
6175	64.455
6150	63.3063
6125	63.9289
6100	63.9538
6075	63.7512
6050	64.1472
6025	64.096
6000	64.8238
5975	64.5586
5950	63.4053
5925	62.8247
5900	64.4088
5875	64.4129
5850	64.274
5825	64.2695
5800	65.1384
5775	63.5945
5750	63.3423
5725	63.5316
5700	64.518
5675	64.5538
5650	64.4269
5625	63.4463
5600	63.8661
5575	64.7823
5550	63.8812
5525	63.914
5500	64.5594
5475	64.3601
5450	64.0726
5425	63.7445
5400	63.638
5375	64.258
5350	64.5523
5325	62.6924
5300	65.1676
5275	64.8939
5250	63.6535
5225	62.5639
5200	64.985
5175	65.2189
5150	63.7033
5125	64.5706
5100	63.7955
5075	63.8862
5050	64.1806
5025	63.3679
5000	64.7324
4975	64.3796
4950	64.5789
4925	64.6154
4900	64.4342
4875	63.9683
4850	64.0415
4825	64.0332
4800	63.8847
4775	64.221
4750	63.8835
4725	64.0669
4700	64.339
4675	64.136
4650	64.1139
4625	63.9436
4600	63.945
4575	64.5739
4550	64.2872
4525	64.1309
4500	64.2811
4475	64.1825
4450	64.5934
4425	64.872
4400	65.5197
4375	62.3892
4350	64.5585
4325	63.8913
4300	63.9532
4275	64.0441
4250	64.1275
4225	64.1241
4200	64.2239
4175	63.7828
4150	63.8644
4125	64.0476
4100	63.7542
4075	64.1469
4050	63.8977
4025	64.0178
4000	63.8097
3975	63.7029
3950	63.7538
3925	63.7426
3900	63.586
3875	63.8466
3850	63.8214
3825	63.7526
3800	63.6406
3775	63.6162
3750	63.9127
3725	63.5077
3700	63.549
3675	63.5198
3650	63.5712
3625	63.3103
3600	63.3566
3575	63.3621
3550	63.1229
3525	63.1347
3500	63.4109
3475	63.2256
3450	63.0778
3425	63.2589
3400	62.9414
3375	62.9722
3350	62.9596
3325	62.6802
3300	62.6984
3275	62.6995
3250	62.7336
3225	62.5222
3200	62.6065
3175	62.4256
3150	62.5793
3125	62.5592
3100	62.2278
3075	62.2802
3050	62.0136
3025	62.07
3000	62.0351
2975	61.9504
2950	61.6883
2925	61.4719
2900	61.4861
2875	61.4997
2850	61.4496
2825	61.5125
2800	61.3885
2775	61.3196
2750	61.1078
2725	61.3367
2700	61.1416
2675	61.0502
2650	60.8743
2625	60.6971
2600	60.7327
2575	60.6806
2550	60.6351
2525	60.538
2500	60.3416
2475	60.3098
2450	60.0768
2425	60.1211
2400	59.7608
2375	59.8883
2350	59.6576
2325	59.6429
2300	59.5823
2275	59.2581
2250	59.2825
2225	59.0984
2200	59.004
2175	58.8514
2150	58.6765
2125	58.6754
2100	58.5963
2075	58.1826
2050	58.233
2025	58.0513
2000	58.1195
1975	57.8127
1950	57.7912
1925	57.7876
1900	57.6863
1875	57.4999
1850	57.2318
1825	57.16
1800	57.0777
1775	56.9297
1750	56.5976
1725	56.5109
1700	56.6116
1675	56.3799
1650	56.2504
1625	55.9476
1600	56.0287
1575	55.6526
1550	55.5423
1525	55.5202
1500	55.4377
1475	55.1816
1450	55.1114
1425	54.893
1400	54.685
1375	54.5186
1350	54.5072
1325	54.328
1300	54.1431
1275	53.9117
1250	53.8997
1225	53.6619
1200	53.5242
1175	53.36
1150	53.2468
1125	53.0305
1100	52.9137
1075	52.7994
1050	52.5504
1025	52.3465
1000	52.0405
975	 51.9182
950	 51.659
925	 51.84
900	 51.1657
875	 50.8025
850	 50.6053
825	 50.2281
800	 50.4644
775	 50.1632
750	 49.5381
725	 49.259
700	 48.9072
675	 48.6963
650	 48.1385
625	 47.4182
600	 47.6698
575	 47.2612
550	 46.1246
525	 46.0435
500	 45.0425
475	 43.6832
450	 42.9238
425	 41.2895
400	 39.4337
375	 64.7336
370	 85.3717