File: Bakgrunnsmateriale/MATLAB/FTIR/ftir_data/subBb/Mapping_36/C-4040-8_t14.asc
PE IR       SPECTRUM    SPECTRUM    ASCII       PEDS        1.60
  -1
C-B92A~1.ASC
17/05/02
12:03:16.00
17/05/02
12:03:42.00
tln
$C-4040-8_t0014$<tbV0>[7.5,-3.0,8.0,0.0,22,1,0]
27.028
64

2002,4.07
MIRTGS : RIGHTBACK : INTERNAL 2
MIR : ON : INTERNAL 2
OPTKBR

0.200000
8
8.000000
FILLER
RATIO
SPECTRUM
UNLOCKED 256

DOUBLE
64
COMBINED
1
0
0

0.002000
RATIO

1
0
TRUE
51149
0
LEFT NOT FITTED RIGHT NOT FITTED 0
NONE
NONE
15600
12
4.427000
51148
TRUE
1 0 8 72 0 0 0 0

15798

#HDR
-1
-1
#GR
µM
%T
2.38419e-05
0.0
1.282000
0.002000
12874
8
93.2378
37.8871
#DATA
1.282000	 56.9192
1.368000	 61.2348
1.454000	 64.1247
1.540000	 65.1051
1.626000	 64.9903
1.712000	 64.6282
1.798000	 64.6767
1.884000	 65.0824
1.970000	 64.9064
2.056000	 64.9723
2.142000	 64.772
2.228000	 65.1918
2.314000	 65.3438
2.400000	 64.8033
2.486000	 65.1635
2.572000	 65.4927
2.658000	 65.2047
2.744000	 65.1424
2.830000	 65.0992
2.916000	 65.0578
3.002000	 65.2404
3.088000	 65.2332
3.174000	 65.0286
3.260000	 65.1264
3.346000	 65.2475
3.432000	 64.8302
3.518000	 65.0088
3.604000	 65.1799
3.690000	 65.1732
3.776000	 65.2027
3.862000	 65.2192
3.948000	 65.171
4.034000	 65.2189
4.120000	 65.266
4.206000	 65.1485
4.292000	 65.2625
4.378000	 65.2661
4.464000	 65.2592
4.550000	 65.2625
4.636000	 65.3123
4.722000	 65.2026
4.808000	 65.2458
4.894000	 65.1669
4.980000	 65.2725
5.066000	 65.2994
5.152000	 65.2861
5.238000	 65.2689
5.324000	 65.3192
5.410000	 65.1902
5.496000	 65.2096
5.582000	 65.3154
5.668000	 65.2872
5.754000	 65.0557
5.840000	 65.1013
5.926000	 65.195
6.012000	 65.1466
6.098000	 65.0478
6.184000	 65.1621
6.270000	 65.1036
6.356000	 65.0894
6.442000	 65.0295
6.528000	 65.0664
6.614000	 65.1128
6.700000	 65.1484
6.786000	 65.0062
6.872000	 65.024
6.958000	 65.1332
7.044000	 65.0073
7.130000	 65.0648
7.216000	 64.9867
7.302000	 64.8867
7.388000	 65.0857
7.474000	 65.0481
7.560000	 64.9583
7.646000	 65.0354
7.732000	 65.0031
7.818000	 64.9665
7.904000	 65.0091
7.990000	 64.9034
8.076000	 64.9861
8.161999	 65.0052
8.248000	 65.068
8.334000	 64.8713
8.420000	 64.8089
8.506000	 64.8598
8.592000	 64.9165
8.678000	 64.8119
8.763999	 64.9407
8.850000	 64.7057
8.936000	 64.6475
9.022000	 64.8517
9.108000	 64.7404
9.193999	 64.7736
9.280000	 64.6754
9.366000	 64.6887
9.452000	 64.6769
9.538000	 64.6306
9.624000	 64.8019
9.710000	 64.7534
9.795999	 64.6331
9.882000	 64.6691
9.968000	 64.6736
10.054	64.8318
10.14	64.7613
10.226	64.5537
10.312	64.8221
10.398	64.9819
10.484	64.89
10.57	64.4549
10.656	64.1395
10.742	64.5726
10.828	64.3476
10.914	63.5108
11	64.5597
11.086	64.3497
11.172	64.2517
11.258	64.1644
11.344	64.4922
11.43	64.5804
11.516	64.7104
11.602	64.462
11.688	64.1977
11.774	64.3824
11.86	64.1281
11.946	63.9338
12.032	63.9951
12.118	63.8697
12.204	63.843
12.29	64.1645
12.376	64.1412
12.462	64.0615
12.548	63.9374
12.634	63.9394
12.72	63.9664
12.806	63.826
12.892	63.972
12.978	64.1254
13.064	64.0942
13.15	63.8475
13.236	63.7322
13.322	63.6352
13.408	63.4373
13.494	63.5868
13.58	63.6473
13.666	63.7116
13.752	63.7142
13.838	63.514
13.924	63.464
14.01	63.5736
14.096	63.5958
14.182	63.5295
14.268	63.4029
14.354	63.4438
14.44	63.6244
14.526	63.5399
14.612	63.1589
14.698	62.853
14.784	62.8083
14.87	63.0052
14.956	63.1451
15.042	62.9222
15.128	62.6328
15.214	62.5854
15.3	62.6064
15.386	62.6183
15.472	62.6853
15.558	62.7384
15.644	62.7058
15.73	62.6258
15.816	62.6867
15.902	62.967
15.988	63.1766
16.074	63.0665
16.16	62.754
16.246	62.4509
16.332	62.2736
16.418	62.24
16.504	62.2438
16.59	62.176
16.676	62.0757
16.762	62.0537
16.848	62.1184
16.934	62.1307
17.02	61.9618
17.106	61.6962
17.192	61.5524
17.278	61.595
17.364	61.7141
17.45	61.8477
17.536	62.0089
17.622	62.1475
17.708	62.1829
17.794	62.1243
17.88	62.0479
17.966	62.0146
18.052	62.0426
18.138	62.0899
18.224	62.0765
18.31	61.9682
18.396	61.8059
18.482	61.6456
18.568	61.5133
18.654	61.4277
18.74	61.4114
18.826	61.4595
18.912	61.5346
18.998	61.5988
19.084	61.6353
19.17	61.646
19.256	61.636
19.342	61.6202
19.428	61.6307
19.514	61.7067
19.6	61.8602
19.686	62.0311
19.772	62.0986
19.858	61.9674
19.944	61.6501
20.03	61.2429
20.116	60.839
20.202	60.4859
20.288	60.2096
20.374	60.0376
20.46	59.9687
20.546	59.9428
20.632	59.8728
20.718	59.7246
20.804	59.56
20.89	59.4823
20.976	59.54
21.062	59.6815
21.148	59.8108
21.234	59.8648
21.32	59.8449
21.406	59.7917
21.492	59.7601
21.578	59.8046
21.664	59.9558
21.75	60.1972
21.836	60.4607
21.922	60.6545
22.008	60.7094
22.094	60.6118
22.18	60.3952
22.266	60.1075
22.352	59.7802
22.438	59.4158
22.524	59.0032
22.61	58.5528
22.696	58.1038
22.782	57.7076
22.868	57.4133
22.954	57.2486
23.04	57.2087
23.126	57.2592
23.212	57.3527
23.298	57.4368
23.384	57.4705
23.47	57.4553
23.556	57.4312
23.642	57.4163
23.728	57.3847
23.814	57.2505
23.9	56.9106
23.986	56.3078
24.072	55.4853
24.158	54.6358
24.244	54.0392
24.33	53.9561
24.416	54.475
24.502	55.4106
24.588	56.3217
24.674	56.7591
24.76	56.4913
24.846	55.6576
24.932	54.7536
25.018	54.3935
25.104	55.0131
25.19	56.6281
25.276	58.8162
25.362	60.9361
25.448	62.353
25.534	62.8033
25.62	62.4728
25.706	61.8115
25.792	61.2794
25.878	61.1686
25.964	61.562
26.05	62.3043
26.136	63.0504
26.222	63.3363
26.308	62.6588
26.394	60.7034
26.48	57.6117
26.566	53.9575
26.652	50.579
26.738	48.2597
26.824	47.535
26.91	48.5567
26.996	51.5231
27.028	52.5917