File: Bakgrunnsmateriale/MATLAB/FTIR/ftir_data/subBb/Mapping_36/C-4040-8_t29.asc
PE IR       SPECTRUM    SPECTRUM    ASCII       PEDS        1.60
  -1
C-CD2E~1.ASC
17/05/02
13:20:42.00
17/05/02
13:21:08.00
tln
$C-4040-8_t0029$<tbV0>[-7.5,7.0,8.0,0.0,22,1,0]
27.028
64

2002,4.07
MIRTGS : RIGHTBACK : INTERNAL 2
MIR : ON : INTERNAL 2
OPTKBR

0.200000
8
8.000000
FILLER
RATIO
SPECTRUM
UNLOCKED 256

DOUBLE
64
COMBINED
1
0
0

0.002000
RATIO

1
0
TRUE
51149
0
LEFT NOT FITTED RIGHT NOT FITTED 0
NONE
NONE
15600
12
4.427000
51148
TRUE
1 0 8 72 0 0 0 0

15798

#HDR
-1
-1
#GR
µM
%T
2.38419e-05
0.0
1.282000
0.002000
12874
8
88.2239
51.8646
#DATA
1.282000	 74.499
1.368000	 63.4972
1.454000	 62.9409
1.540000	 62.6332
1.626000	 63.803
1.712000	 64.1339
1.798000	 64.3967
1.884000	 64.3331
1.970000	 64.1182
2.056000	 64.0182
2.142000	 64.0856
2.228000	 63.1317
2.314000	 63.8836
2.400000	 63.9982
2.486000	 63.8734
2.572000	 64.2573
2.658000	 64.1763
2.744000	 63.9818
2.830000	 64.0274
2.916000	 63.8819
3.002000	 63.7569
3.088000	 64.019
3.174000	 64.0098
3.260000	 63.9961
3.346000	 63.9645
3.432000	 63.6067
3.518000	 63.8335
3.604000	 64.0928
3.690000	 63.9298
3.776000	 63.9338
3.862000	 63.9723
3.948000	 63.8636
4.034000	 63.8923
4.120000	 64.0122
4.206000	 63.8988
4.292000	 63.9014
4.378000	 64.1155
4.464000	 64.0194
4.550000	 64.0684
4.636000	 63.9736
4.722000	 63.9604
4.808000	 64.0376
4.894000	 63.8938
4.980000	 64.0408
5.066000	 63.9699
5.152000	 63.9487
5.238000	 64.0311
5.324000	 63.942
5.410000	 63.9705
5.496000	 63.9776
5.582000	 64.0357
5.668000	 63.923
5.754000	 63.7858
5.840000	 63.9551
5.926000	 63.8851
6.012000	 63.9883
6.098000	 63.8447
6.184000	 63.8505
6.270000	 63.8082
6.356000	 63.7577
6.442000	 63.774
6.528000	 63.8686
6.614000	 63.8473
6.700000	 63.884
6.786000	 63.8662
6.872000	 63.8929
6.958000	 63.8147
7.044000	 63.7957
7.130000	 63.8722
7.216000	 63.7916
7.302000	 63.737
7.388000	 63.6632
7.474000	 63.75
7.560000	 63.6851
7.646000	 63.634
7.732000	 63.6948
7.818000	 63.7068
7.904000	 63.7979
7.990000	 63.7095
8.076000	 63.8498
8.161999	 63.6691
8.248000	 63.8317
8.334000	 63.9158
8.420000	 63.7776
8.506000	 63.7166
8.592000	 63.718
8.678000	 63.4523
8.763999	 63.5465
8.850000	 63.7438
8.936000	 63.5203
9.022000	 63.2356
9.108000	 63.3201
9.193999	 63.6771
9.280000	 63.5887
9.366000	 63.4639
9.452000	 63.2887
9.538000	 63.1974
9.624000	 63.0826
9.710000	 63.1879
9.795999	 63.2207
9.882000	 63.2503
9.968000	 63.2656
10.054	63.1409
10.14	63.251
10.226	63.5421
10.312	63.3095
10.398	63.2135
10.484	63.176
10.57	63.2248
10.656	63.4136
10.742	63.4231
10.828	63.5414
10.914	63.2866
11	63.2042
11.086	63.4085
11.172	62.6579
11.258	62.162
11.344	62.7122
11.43	62.911
11.516	62.7165
11.602	62.9218
11.688	62.8409
11.774	62.8721
11.86	63.0977
11.946	63.1276
12.032	63.1243
12.118	63.4114
12.204	63.0313
12.29	63.0395
12.376	62.9348
12.462	62.9325
12.548	62.7538
12.634	62.8148
12.72	62.9223
12.806	62.9075
12.892	62.8506
12.978	62.7547
13.064	62.6945
13.15	62.7736
13.236	62.7816
13.322	62.6552
13.408	62.5466
13.494	62.6489
13.58	62.7456
13.666	62.6652
13.752	62.5876
13.838	62.5086
13.924	62.5221
14.01	62.5752
14.096	62.5676
14.182	62.5058
14.268	62.3374
14.354	62.2134
14.44	62.2249
14.526	62.2503
14.612	62.2484
14.698	62.2136
14.784	62.0755
14.87	62.0017
14.956	62.1754
15.042	62.339
15.128	62.2631
15.214	62.08
15.3	61.8747
15.386	61.7663
15.472	61.8008
15.558	61.7748
15.644	61.7764
15.73	61.9769
15.816	62.1158
15.902	61.9818
15.988	61.7472
16.074	61.6513
16.16	61.7405
16.246	61.8962
16.332	61.9733
16.418	61.8994
16.504	61.7233
16.59	61.5595
16.676	61.4311
16.762	61.3227
16.848	61.3352
16.934	61.5282
17.02	61.7442
17.106	61.8044
17.192	61.6964
17.278	61.5278
17.364	61.3509
17.45	61.1167
17.536	60.8646
17.622	60.7498
17.708	60.8121
17.794	60.9183
17.88	60.9731
17.966	61.0195
18.052	61.1023
18.138	61.1887
18.224	61.216
18.31	61.1535
18.396	61.0185
18.482	60.8569
18.568	60.7114
18.654	60.5969
18.74	60.5058
18.826	60.4303
18.912	60.3732
18.998	60.3307
19.084	60.2884
19.17	60.244
19.256	60.2175
19.342	60.2319
19.428	60.3075
19.514	60.4502
19.6	60.6155
19.686	60.7098
19.772	60.6567
19.858	60.4603
19.944	60.2076
20.03	60.0147
20.116	59.9512
20.202	59.9853
20.288	60.0091
20.374	59.9256
20.46	59.725
20.546	59.4867
20.632	59.3099
20.718	59.2342
20.804	59.211
20.89	59.1496
20.976	59.0049
21.062	58.8131
21.148	58.6594
21.234	58.6018
21.32	58.6298
21.406	58.6888
21.492	58.7335
21.578	58.7594
21.664	58.7897
21.75	58.8442
21.836	58.9185
21.922	58.9878
22.008	59.009
22.094	58.9301
22.18	58.7069
22.266	58.3212
22.352	57.8115
22.438	57.2727
22.524	56.8203
22.61	56.5394
22.696	56.437
22.782	56.4636
22.868	56.5532
22.954	56.6519
23.04	56.7289
23.126	56.7751
23.212	56.8258
23.298	56.9302
23.384	57.1224
23.47	57.3948
23.556	57.6964
23.642	57.9574
23.728	58.1456
23.814	58.2579
23.9	58.2961
23.986	58.2416
24.072	58.043
24.158	57.6601
24.244	57.1375
24.33	56.6288
24.416	56.3181
24.502	56.2948
24.588	56.453
24.674	56.5354
24.76	56.2596
24.846	55.5042
24.932	54.4079
25.018	53.3463
25.104	52.7504
25.19	52.9967
25.276	54.2204
25.362	56.2795
25.448	58.7645
25.534	61.1775
25.62	63.0663
25.706	64.1285
25.792	64.3084
25.878	63.7462
25.964	62.6489
26.05	61.2842
26.136	59.893
26.222	58.591
26.308	57.4141
26.394	56.368
26.48	55.5139
26.566	54.8721
26.652	54.367
26.738	53.9031
26.824	53.3992
26.91	52.7824
26.996	52.0663
27.028	51.8646