File: Bakgrunnsmateriale/MATLAB/FTIR/ftir_data/subBb/Mapping_36/C-4040-8_t33_cm-1.asc
PE IR       SPECTRUM    SPECTRUM    ASCII       PEDS        1.60
  -1
C-1BE1~1.ASC
17/05/02
13:40:03.00
17/05/02
13:40:03.00
tln
$C-4040-8_t0033$<tbV0>[2.5,12.0,8.0,0.0,22,1,0]
370
64

2002,4.07
MIRTGS : RIGHTBACK : INTERNAL 2
MIR : ON : INTERNAL 2
OPTKBR

0.200000
8
8.000000
FILLER
RATIO
SPECTRUM
UNLOCKED 256

DOUBLE
64
COMBINED
1
0
0

1.000000
RATIO

1
0
TRUE
51149
0
LEFT NOT FITTED RIGHT NOT FITTED 0
NONE
NONE
15600
12
4.427000
51148
TRUE
1 0 8 72 0 0 0 0

15798

#HDR
-1
-1
#GR
CM-1
%T
2.38419e-05
0.0
7800
-1.000000
7431
8
90.5434
57.8012
#DATA
7800	71.7353
7775	65.6389
7750	75.1538
7725	71.4268
7700	66.7189
7675	67.2738
7650	71.4589
7625	64.9007
7600	64.1826
7575	68.4498
7550	65.2972
7525	69.6266
7500	63.7493
7475	65.0556
7450	63.8281
7425	64.5082
7400	63.2329
7375	61.4314
7350	63.9123
7325	65.0453
7300	62.6417
7275	65.5592
7250	67.5799
7225	66.3168
7200	65.5249
7175	64.045
7150	61.5829
7125	63.0807
7100	63.6771
7075	63.0896
7050	63.0098
7025	64.3421
7000	61.8032
6975	63.0334
6950	66.539
6925	62.4939
6900	64.3928
6875	65.972
6850	65.7253
6825	64.2091
6800	66.4041
6775	65.3657
6750	64.5343
6725	62.8012
6700	64.6076
6675	62.5916
6650	66.2538
6625	62.8781
6600	65.3265
6575	65.6595
6550	64.7834
6525	63.6888
6500	64.5076
6475	65.1213
6450	64.2925
6425	64.5237
6400	65.0894
6375	63.7196
6350	64.5332
6325	63.7009
6300	64.4859
6275	64.516
6250	64.141
6225	64.4037
6200	65.1846
6175	64.4423
6150	65.1377
6125	64.6482
6100	65.0387
6075	63.3628
6050	65.3736
6025	63.6674
6000	64.9461
5975	64.356
5950	64.2226
5925	64.3085
5900	64.6233
5875	64.2526
5850	64.3887
5825	65.1515
5800	64.1944
5775	64.4833
5750	64.9513
5725	64.1153
5700	64.401
5675	65.1001
5650	64.8387
5625	64.9019
5600	65.4813
5575	64.3087
5550	64.8061
5525	63.9695
5500	64.7373
5475	63.8066
5450	64.7631
5425	65.1584
5400	64.6341
5375	64.8929
5350	64.1466
5325	65.0627
5300	60.9454
5275	63.2775
5250	64.5551
5225	64.3481
5200	64.7642
5175	64.1366
5150	64.3866
5125	64.6957
5100	64.5456
5075	64.6395
5050	64.5303
5025	65.0947
5000	64.7001
4975	64.9317
4950	63.8488
4925	64.3699
4900	63.976
4875	64.3274
4850	64.5692
4825	64.4385
4800	64.5267
4775	64.7099
4750	64.4507
4725	64.511
4700	64.3876
4675	64.6081
4650	64.828
4625	64.3609
4600	64.3634
4575	64.8669
4550	64.1506
4525	64.203
4500	64.0791
4475	64.0773
4450	63.7153
4425	64.5644
4400	63.4807
4375	63.0687
4350	64.8424
4325	64.0685
4300	64.4099
4275	64.3687
4250	64.4552
4225	64.2695
4200	64.4417
4175	64.3484
4150	64.5947
4125	64.8215
4100	64.836
4075	64.6255
4050	64.7809
4025	64.4798
4000	64.7813
3975	64.3999
3950	64.5518
3925	64.5519
3900	64.4683
3875	64.4832
3850	64.4019
3825	64.5699
3800	64.6305
3775	64.4402
3750	64.6806
3725	64.763
3700	64.5402
3675	64.7946
3650	64.6782
3625	64.5608
3600	64.5306
3575	64.5305
3550	64.7513
3525	64.5226
3500	64.7424
3475	64.2593
3450	64.6567
3425	64.7647
3400	64.4993
3375	64.6224
3350	64.6175
3325	64.5988
3300	64.3838
3275	64.5271
3250	64.4891
3225	64.4947
3200	64.5956
3175	64.5871
3150	64.5778
3125	64.4382
3100	64.4086
3075	64.5705
3050	64.6806
3025	64.5211
3000	64.7494
2975	64.5417
2950	64.403
2925	64.3379
2900	64.3376
2875	64.5039
2850	64.3698
2825	64.7017
2800	64.7888
2775	64.7783
2750	64.7895
2725	64.7666
2700	64.7621
2675	64.722
2650	64.6622
2625	64.8576
2600	64.7774
2575	64.9101
2550	64.852
2525	64.7873
2500	64.781
2475	64.8006
2450	64.7615
2425	64.8863
2400	64.8342
2375	64.8693
2350	64.655
2325	64.7153
2300	64.843
2275	64.7461
2250	64.7756
2225	64.7168
2200	64.7753
2175	64.8085
2150	64.7714
2125	64.6257
2100	64.797
2075	64.6379
2050	64.5525
2025	64.5712
2000	64.6733
1975	64.7157
1950	64.6837
1925	64.5341
1900	64.5762
1875	64.4647
1850	64.4703
1825	64.4341
1800	64.4815
1775	64.3878
1750	64.2351
1725	64.2174
1700	64.3216
1675	64.2628
1650	64.2273
1625	64.3501
1600	64.1133
1575	64.0144
1550	64.155
1525	64.1098
1500	64.1881
1475	64.1588
1450	64.148
1425	64.2668
1400	64.0879
1375	64.2297
1350	64.0995
1325	64.0347
1300	64.0566
1275	63.9898
1250	64.0132
1225	64.1076
1200	64.1348
1175	64.2481
1150	64.0403
1125	64.2988
1100	64.3305
1075	64.394
1050	64.1349
1025	64.0952
1000	64.3029
975	 63.9929
950	 63.8021
925	 63.9098
900	 63.0817
875	 63.8026
850	 63.5293
825	 63.6312
800	 63.5649
775	 63.4226
750	 62.937
725	 63.1755
700	 62.5456
675	 62.5589
650	 62.5118
625	 62.2037
600	 61.8256
575	 61.7316
550	 61.0791
525	 61.156
500	 60.5795
475	 60.0726
450	 59.2875
425	 60.3766
400	 60.5676
375	 75.2295
370	 90.5434