File: Bakgrunnsmateriale/MATLAB/FTIR/ftir_data/subBb/Mapping_36/C-4040-8_t18.asc
PE IR       SPECTRUM    SPECTRUM    ASCII       PEDS        1.60
  -1
C-C92A~1.ASC
17/05/02
12:22:01.00
17/05/02
12:22:27.00
tln
$C-4040-8_t0018$<tbV0>[-12.5,-3.0,8.0,0.0,22,1,0]
27.028
64

2002,4.07
MIRTGS : RIGHTBACK : INTERNAL 2
MIR : ON : INTERNAL 2
OPTKBR

0.200000
8
8.000000
FILLER
RATIO
SPECTRUM
UNLOCKED 256

DOUBLE
64
COMBINED
1
0
0

0.002000
RATIO

1
0
TRUE
51149
0
LEFT NOT FITTED RIGHT NOT FITTED 0
NONE
NONE
15600
12
4.427000
51148
TRUE
1 0 8 72 0 0 0 0

15798

#HDR
-1
-1
#GR
µM
%T
2.38419e-05
0.0
1.282000
0.002000
12874
8
106.577
28.278
#DATA
1.282000	 62.1854
1.368000	 66.1595
1.454000	 65.5927
1.540000	 65.9111
1.626000	 65.6216
1.712000	 65.2624
1.798000	 65.2206
1.884000	 66.505
1.970000	 64.9142
2.056000	 64.8609
2.142000	 65.2385
2.228000	 64.4296
2.314000	 64.2372
2.400000	 65.1497
2.486000	 65.1472
2.572000	 65.1963
2.658000	 65.0488
2.744000	 65.2709
2.830000	 65.1946
2.916000	 65.2818
3.002000	 65.052
3.088000	 65.2918
3.174000	 65.1761
3.260000	 65.3115
3.346000	 65.144
3.432000	 64.8071
3.518000	 65.0244
3.604000	 65.238
3.690000	 65.1897
3.776000	 65.2035
3.862000	 65.1256
3.948000	 65.3164
4.034000	 65.3336
4.120000	 65.3161
4.206000	 65.2873
4.292000	 65.2092
4.378000	 65.1795
4.464000	 65.3303
4.550000	 65.1797
4.636000	 65.3159
4.722000	 65.1984
4.808000	 65.267
4.894000	 65.342
4.980000	 65.3204
5.066000	 65.3201
5.152000	 65.2564
5.238000	 65.3232
5.324000	 65.2987
5.410000	 65.3533
5.496000	 65.2172
5.582000	 65.3338
5.668000	 65.2504
5.754000	 65.0259
5.840000	 65.2058
5.926000	 65.221
6.012000	 65.1262
6.098000	 65.1174
6.184000	 65.2366
6.270000	 65.0715
6.356000	 65.1636
6.442000	 65.115
6.528000	 65.0855
6.614000	 65.1438
6.700000	 65.1304
6.786000	 65.1162
6.872000	 65.0048
6.958000	 65.0975
7.044000	 65.0654
7.130000	 65.0763
7.216000	 65.0722
7.302000	 64.934
7.388000	 65.0083
7.474000	 65.0577
7.560000	 65.0147
7.646000	 65.0021
7.732000	 65.0314
7.818000	 65.0963
7.904000	 64.9968
7.990000	 64.9905
8.076000	 64.9531
8.161999	 65.0735
8.248000	 65.0589
8.334000	 65.0002
8.420000	 65.1242
8.506000	 65.0334
8.592000	 65.0653
8.678000	 64.8634
8.763999	 64.8148
8.850000	 64.8149
8.936000	 64.7318
9.022000	 64.7842
9.108000	 64.7041
9.193999	 64.8934
9.280000	 64.8473
9.366000	 64.805
9.452000	 64.8348
9.538000	 64.8532
9.624000	 64.8803
9.710000	 64.7796
9.795999	 64.7959
9.882000	 64.8194
9.968000	 64.7887
10.054	64.8685
10.14	64.7799
10.226	64.5923
10.312	65.0823
10.398	64.7498
10.484	64.6396
10.57	64.7424
10.656	64.8025
10.742	64.5243
10.828	64.5021
10.914	64.3777
11	64.6714
11.086	64.8062
11.172	64.2128
11.258	64.0013
11.344	64.0902
11.43	64.4677
11.516	64.6748
11.602	64.6135
11.688	64.1731
11.774	64.3618
11.86	64.4738
11.946	64.2258
12.032	64.1865
12.118	64.4126
12.204	64.4292
12.29	64.4588
12.376	64.1029
12.462	64.2128
12.548	64.4069
12.634	64.6369
12.72	64.7554
12.806	64.6326
12.892	64.3788
12.978	64.1155
13.064	64.0316
13.15	63.9582
13.236	63.9319
13.322	64.006
13.408	64.1023
13.494	64.224
13.58	64.0638
13.666	63.8111
13.752	63.7953
13.838	63.7802
13.924	63.7531
14.01	63.7668
14.096	63.7089
14.182	63.6292
14.268	63.4314
14.354	63.4447
14.44	63.7193
14.526	63.763
14.612	63.5011
14.698	63.3401
14.784	63.4218
14.87	63.5467
14.956	63.6327
15.042	63.6388
15.128	63.4955
15.214	63.3749
15.3	63.3969
15.386	63.467
15.472	63.5049
15.558	63.4609
15.644	63.3451
15.73	63.2083
15.816	63.1534
15.902	63.3084
15.988	63.5131
16.074	63.434
16.16	63.1317
16.246	62.9943
16.332	63.1076
16.418	63.2065
16.504	63.1224
16.59	62.9243
16.676	62.7914
16.762	62.8256
16.848	62.9414
16.934	62.9146
17.02	62.6381
17.106	62.3162
17.192	62.2112
17.278	62.3172
17.364	62.4415
17.45	62.4898
17.536	62.5244
17.622	62.5654
17.708	62.5304
17.794	62.3824
17.88	62.2086
17.966	62.1343
18.052	62.2088
18.138	62.3635
18.224	62.4806
18.31	62.5185
18.396	62.5317
18.482	62.5425
18.568	62.4817
18.654	62.3167
18.74	62.1512
18.826	62.1024
18.912	62.1331
18.998	62.0887
19.084	61.8961
19.17	61.6536
19.256	61.506
19.342	61.4985
19.428	61.5918
19.514	61.7348
19.6	61.8592
19.686	61.8728
19.772	61.7416
19.858	61.5379
19.944	61.3892
20.03	61.3839
20.116	61.5076
20.202	61.6569
20.288	61.723
20.374	61.6744
20.46	61.548
20.546	61.3799
20.632	61.1683
20.718	60.912
20.804	60.6696
20.89	60.5386
20.976	60.5656
21.062	60.6787
21.148	60.7376
21.234	60.645
21.32	60.4134
21.406	60.1318
21.492	59.8996
21.578	59.7694
21.664	59.7575
21.75	59.8623
21.836	60.0685
21.922	60.3345
22.008	60.5768
22.094	60.6921
22.18	60.6128
22.266	60.3516
22.352	59.9957
22.438	59.6506
22.524	59.3696
22.61	59.1293
22.696	58.8469
22.782	58.4291
22.868	57.8372
22.954	57.1351
23.04	56.4666
23.126	56.024
23.212	55.9263
23.298	56.1674
23.384	56.5792
23.47	56.9115
23.556	56.9274
23.642	56.522
23.728	55.7366
23.814	54.7363
23.9	53.7142
23.986	52.84
24.072	52.2468
24.158	52.0398
24.244	52.3141
24.33	53.1474
24.416	54.5411
24.502	56.3842
24.588	58.4405
24.674	60.4384
24.76	62.151
24.846	63.4544
24.932	64.3401
25.018	64.8877
25.104	65.1818
25.19	65.2644
25.276	65.1176
25.362	64.6947
25.448	63.9516
25.534	62.8958
25.62	61.5883
25.706	60.0724
25.792	58.3803
25.878	56.5789
25.964	54.8315
26.05	53.3721
26.136	52.3698
26.222	51.8063
26.308	51.3986
26.394	50.6876
26.48	49.2421
26.566	46.7955
26.652	43.3835
26.738	39.3683
26.824	35.2961
26.91	31.7069
26.996	28.921
27.028	28.278