File: Bakgrunnsmateriale/MATLAB/FTIR/ftir_data/subBb/Mapping_36/C-4040-8_t21.asc
PE IR       SPECTRUM    SPECTRUM    ASCII       PEDS        1.60
  -1
C-AD2E~1.ASC
17/05/02
12:36:41.00
17/05/02
12:37:07.00
tln
$C-4040-8_t0021$<tbV0>[2.5,2.0,8.0,0.0,22,1,0]
27.028
64

2002,4.07
MIRTGS : RIGHTBACK : INTERNAL 2
MIR : ON : INTERNAL 2
OPTKBR

0.200000
8
8.000000
FILLER
RATIO
SPECTRUM
UNLOCKED 256

DOUBLE
64
COMBINED
1
0
0

0.002000
RATIO

1
0
TRUE
51149
0
LEFT NOT FITTED RIGHT NOT FITTED 0
NONE
NONE
15600
12
4.427000
51148
TRUE
1 0 8 72 0 0 0 0

15798

#HDR
-1
-1
#GR
µM
%T
2.38419e-05
0.0
1.282000
0.002000
12874
8
135.936
46.1038
#DATA
1.282000	 63.7466
1.368000	 64.3922
1.454000	 64.4326
1.540000	 67.1096
1.626000	 65.1782
1.712000	 64.3938
1.798000	 65.1343
1.884000	 64.0237
1.970000	 65.1791
2.056000	 65.157
2.142000	 65.524
2.228000	 63.7907
2.314000	 63.5196
2.400000	 65.0365
2.486000	 65.2665
2.572000	 64.9849
2.658000	 65.2654
2.744000	 65.5268
2.830000	 65.2587
2.916000	 65.0907
3.002000	 65.2549
3.088000	 65.3326
3.174000	 65.0887
3.260000	 65.1975
3.346000	 65.3046
3.432000	 64.9371
3.518000	 65.0884
3.604000	 65.2584
3.690000	 65.3228
3.776000	 65.2866
3.862000	 65.2317
3.948000	 65.3138
4.034000	 65.3805
4.120000	 65.4419
4.206000	 65.3107
4.292000	 65.2966
4.378000	 65.2727
4.464000	 65.3687
4.550000	 65.2528
4.636000	 65.3779
4.722000	 65.3242
4.808000	 65.2385
4.894000	 65.3207
4.980000	 65.3791
5.066000	 65.3377
5.152000	 65.2468
5.238000	 65.2263
5.324000	 65.3036
5.410000	 65.2958
5.496000	 65.2636
5.582000	 65.2824
5.668000	 65.1887
5.754000	 65.119
5.840000	 65.1353
5.926000	 65.1953
6.012000	 65.1551
6.098000	 65.2173
6.184000	 65.1782
6.270000	 65.1448
6.356000	 65.0787
6.442000	 65.0996
6.528000	 65.0369
6.614000	 65.08
6.700000	 65.2345
6.786000	 65.0273
6.872000	 64.9543
6.958000	 64.9002
7.044000	 65.0694
7.130000	 65.0368
7.216000	 65.0642
7.302000	 65.0413
7.388000	 65.0631
7.474000	 65.1197
7.560000	 64.9918
7.646000	 65.0982
7.732000	 64.9124
7.818000	 65.0444
7.904000	 64.9744
7.990000	 64.8916
8.076000	 64.8681
8.161999	 65.0809
8.248000	 64.9522
8.334000	 64.8574
8.420000	 64.9818
8.506000	 64.9243
8.592000	 64.919
8.678000	 64.8177
8.763999	 64.7223
8.850000	 64.6553
8.936000	 64.7457
9.022000	 64.8917
9.108000	 64.7969
9.193999	 64.6181
9.280000	 64.7003
9.366000	 64.8776
9.452000	 64.7311
9.538000	 64.9878
9.624000	 64.926
9.710000	 64.742
9.795999	 64.7474
9.882000	 64.7409
9.968000	 64.8322
10.054	64.77
10.14	65.0793
10.226	64.7231
10.312	64.5252
10.398	64.7846
10.484	64.8087
10.57	64.9035
10.656	64.3961
10.742	64.3241
10.828	64.8
10.914	64.5693
11	64.2366
11.086	64.2456
11.172	64.5287
11.258	65.0273
11.344	64.9964
11.43	64.4824
11.516	65.1755
11.602	64.7458
11.688	63.9987
11.774	63.9073
11.86	63.9963
11.946	64.0313
12.032	64.0352
12.118	64.0234
12.204	63.9326
12.29	64.2434
12.376	64.1985
12.462	64.0212
12.548	63.9263
12.634	64.0362
12.72	63.9877
12.806	63.9216
12.892	63.8566
12.978	63.7419
13.064	63.7136
13.15	63.6898
13.236	63.5814
13.322	63.6983
13.408	63.8519
13.494	63.7828
13.58	63.6976
13.666	63.5538
13.752	63.4188
13.838	63.3572
13.924	63.3762
14.01	63.2886
14.096	63.1758
14.182	63.1343
14.268	63.0085
14.354	62.9756
14.44	63.1219
14.526	63.1611
14.612	62.9808
14.698	62.7612
14.784	62.6698
14.87	62.778
14.956	62.8982
15.042	62.8428
15.128	62.7901
15.214	62.8653
15.3	62.8176
15.386	62.6076
15.472	62.4807
15.558	62.5086
15.644	62.5925
15.73	62.6312
15.816	62.7012
15.902	62.8734
15.988	62.9304
16.074	62.7522
16.16	62.5063
16.246	62.2944
16.332	62.0793
16.418	61.8448
16.504	61.6623
16.59	61.6708
16.676	61.868
16.762	62.0084
16.848	61.9364
16.934	61.7689
17.02	61.6694
17.106	61.6709
17.192	61.6832
17.278	61.6501
17.364	61.6309
17.45	61.6807
17.536	61.7705
17.622	61.8423
17.708	61.8863
17.794	61.9272
17.88	61.9548
17.966	61.923
18.052	61.8049
18.138	61.6038
18.224	61.3391
18.31	61.0774
18.396	60.9275
18.482	60.9142
18.568	60.9432
18.654	60.9494
18.74	60.9654
18.826	61.0174
18.912	61.0579
18.998	61.0421
19.084	60.9995
19.17	60.9978
19.256	61.0602
19.342	61.1462
19.428	61.1804
19.514	61.0933
19.6	60.8666
19.686	60.5936
19.772	60.4519
19.858	60.5473
19.944	60.7894
20.03	60.9703
20.116	60.9559
20.202	60.7705
20.288	60.5331
20.374	60.3543
20.46	60.2806
20.546	60.2913
20.632	60.314
20.718	60.2629
20.804	60.1
20.89	59.8693
20.976	59.6625
21.062	59.5461
21.148	59.5248
21.234	59.5589
21.32	59.6
21.406	59.6025
21.492	59.5313
21.578	59.3709
21.664	59.1603
21.75	58.9928
21.836	58.9568
21.922	59.066
22.008	59.2355
22.094	59.3362
22.18	59.275
22.266	59.041
22.352	58.7087
22.438	58.3903
22.524	58.1744
22.61	58.0721
22.696	58.0058
22.782	57.8647
22.868	57.5698
22.954	57.1325
23.04	56.6488
23.126	56.2634
23.212	56.0945
23.298	56.1828
23.384	56.46
23.47	56.7884
23.556	57.0214
23.642	57.0894
23.728	57.0162
23.814	56.8982
23.9	56.8252
23.986	56.8281
24.072	56.8888
24.158	56.9504
24.244	56.9737
24.33	56.971
24.416	56.996
24.502	57.095
24.588	57.2883
24.674	57.5566
24.76	57.8417
24.846	58.0841
24.932	58.2458
25.018	58.3307
25.104	58.3901
25.19	58.4544
25.276	58.5123
25.362	58.5275
25.448	58.3316
25.534	57.761
25.62	56.7371
25.706	55.1887
25.792	53.1037
25.878	50.6351
25.964	48.2717
26.05	46.6139
26.136	46.1171
26.222	46.9988
26.308	49.0175
26.394	51.5575
26.48	54.0038
26.566	55.8704
26.652	56.9542
26.738	57.2999
26.824	57.186
26.91	56.9562
26.996	57.2493
27.028	57.4448