File: Bakgrunnsmateriale/MATLAB/FTIR/ftir_data/subBb/Mapping_36/C-4040-8_t08_cm-1.asc
PE IR       SPECTRUM    SPECTRUM    ASCII       PEDS        1.60
  -1
C-9965~1.ASC
17/05/02
11:28:10.00
17/05/02
11:28:10.00
tln
$C-4040-8_t0008$<tbV0>[7.5,-8.0,8.0,0.0,22,1,0]
370
64

2002,4.07
MIRTGS : RIGHTBACK : INTERNAL 2
MIR : ON : INTERNAL 2
OPTKBR

0.200000
8
8.000000
FILLER
RATIO
SPECTRUM
UNLOCKED 256

DOUBLE
64
COMBINED
1
0
0

1.000000
RATIO

1
0
TRUE
51149
0
LEFT NOT FITTED RIGHT NOT FITTED 0
NONE
NONE
15600
12
4.427000
51148
TRUE
1 0 8 72 0 0 0 0

15798

#HDR
-1
-1
#GR
CM-1
%T
2.38419e-05
0.0
7800
-1.000000
7431
8
81.1664
9.982895
#DATA
7800	61.8007
7775	60.7182
7750	69.6374
7725	58.8793
7700	62.3656
7675	69.6559
7650	67.8563
7625	64.3639
7600	61.939
7575	62.8524
7550	62.4236
7525	61.4252
7500	61.9683
7475	60.8793
7450	64.8974
7425	63.7006
7400	64.4434
7375	60.4036
7350	63.5445
7325	63.0572
7300	62.8444
7275	65.5398
7250	63.8667
7225	64.189
7200	63.7423
7175	64.1588
7150	62.7824
7125	61.1397
7100	63.1073
7075	66.1172
7050	63.2242
7025	66.3829
7000	65.4015
6975	67.0356
6950	63.2216
6925	63.6867
6900	63.7527
6875	63.6883
6850	65.131
6825	63.6614
6800	61.8791
6775	62.9466
6750	63.0541
6725	64.0273
6700	64.313
6675	62.7577
6650	63.0459
6625	62.7673
6600	62.5664
6575	64.7538
6550	63.5582
6525	63.3056
6500	63.3572
6475	63.3626
6450	63.8469
6425	62.8866
6400	63.6132
6375	64.2618
6350	63.1315
6325	63.4865
6300	63.1516
6275	62.913
6250	64.0298
6225	63.6043
6200	62.9602
6175	63.5254
6150	64.2362
6125	62.8164
6100	63.6129
6075	63.9581
6050	64.4988
6025	63.3881
6000	63.239
5975	63.0576
5950	63.0025
5925	63.4646
5900	63.0051
5875	63.2331
5850	64.2148
5825	63.3634
5800	63.8965
5775	63.5959
5750	62.9211
5725	62.637
5700	62.2483
5675	64.3537
5650	63.3651
5625	62.938
5600	63.5491
5575	64.0414
5550	63.5537
5525	63.1231
5500	64.1667
5475	63.1548
5450	63.1177
5425	62.6703
5400	62.6612
5375	62.8043
5350	63.2856
5325	62.7221
5300	61.4048
5275	61.9159
5250	62.3628
5225	61.5934
5200	63.9585
5175	64.4694
5150	63.0809
5125	62.5612
5100	63.0015
5075	63.4675
5050	62.9822
5025	62.5958
5000	62.8713
4975	63.1389
4950	62.9358
4925	62.5124
4900	63.1696
4875	62.4697
4850	62.5512
4825	63.0109
4800	62.9084
4775	62.6314
4750	63.124
4725	62.8462
4700	63.1139
4675	63.0867
4650	62.479
4625	62.6311
4600	62.7107
4575	62.4627
4550	61.7882
4525	61.5296
4500	62.1766
4475	61.1593
4450	61.6437
4425	62.0985
4400	68.3031
4375	60.0239
4350	61.1792
4325	61.313
4300	61.1197
4275	61.4255
4250	61.4518
4225	61.3121
4200	61.3928
4175	61.6682
4150	61.4256
4125	61.5892
4100	61.4175
4075	61.7702
4050	61.457
4025	61.1654
4000	61.0049
3975	60.989
3950	60.974
3925	60.5324
3900	60.7069
3875	60.7432
3850	60.2153
3825	60.2291
3800	60.2484
3775	59.9387
3750	60.1703
3725	59.8093
3700	59.7075
3675	59.609
3650	59.4821
3625	59.168
3600	59.2067
3575	59.0257
3550	58.8103
3525	58.6929
3500	58.511
3475	58.1659
3450	57.9972
3425	57.9733
3400	57.8392
3375	57.6002
3350	57.391
3325	56.8866
3300	56.8773
3275	56.687
3250	56.7779
3225	56.1127
3200	56.1875
3175	55.9264
3150	55.8121
3125	55.5347
3100	55.3121
3075	55.1176
3050	54.7189
3025	54.5949
3000	54.2847
2975	53.9449
2950	53.5902
2925	53.4293
2900	53.1982
2875	52.9463
2850	52.6302
2825	52.4114
2800	52.2024
2775	52.0365
2750	51.6407
2725	51.3514
2700	51.0495
2675	50.8431
2650	50.4253
2625	50.1888
2600	49.8747
2575	49.5912
2550	49.1831
2525	48.8684
2500	48.5677
2475	48.3012
2450	47.9292
2425	47.6647
2400	47.4003
2375	47.0129
2350	46.6387
2325	46.346
2300	46.0079
2275	45.6451
2250	45.3502
2225	45.0136
2200	44.5629
2175	44.2443
2150	43.8558
2125	43.5018
2100	43.2778
2075	42.8786
2050	42.5977
2025	42.2002
2000	41.9508
1975	41.589
1950	41.273
1925	40.9353
1900	40.4684
1875	40.071
1850	39.7428
1825	39.4389
1800	39.0609
1775	38.7997
1750	38.2498
1725	37.8114
1700	37.6951
1675	37.3387
1650	36.9452
1625	36.6322
1600	36.1836
1575	35.7866
1550	35.4709
1525	35.13
1500	34.887
1475	34.4337
1450	34.0996
1425	33.8257
1400	33.3611
1375	33.0908
1350	32.7547
1325	32.6009
1300	32.1634
1275	31.7227
1250	31.3908
1225	31.027
1200	30.8041
1175	30.3602
1150	30.1252
1125	29.6833
1100	29.2123
1075	29.0655
1050	28.7382
1025	28.3878
1000	27.932
975	 27.6682
950	 27.2597
925	 26.3225
900	 26.6925
875	 25.4931
850	 24.7898
825	 24.7948
800	 24.59
775	 23.8152
750	 23.2831
725	 22.9283
700	 22.0611
675	 21.5149
650	 20.661
625	 20.1792
600	 18.9482
575	 18.5719
550	 17.308
525	 16.6636
500	 14.6788
475	 14.7216
450	 12.6762
425	 11.5976
400	 10.7998
375	 68.6424
370	 80.5312