File: Bakgrunnsmateriale/MATLAB/FTIR/ftir_data/subBb/Mapping_36/C-4040-8_t01.asc
PE IR       SPECTRUM    SPECTRUM    ASCII       PEDS        1.60
  -1
C-4040~4.ASC
17/05/02
10:54:46.00
17/05/02
10:55:12.00
tln
$C-4040-8_t0001$<tbV0>[12.5,-13.0,8.0,0.0,22,1,0]
27.028
64

2002,4.07
MIRTGS : RIGHTBACK : INTERNAL 2
MIR : ON : INTERNAL 2
OPTKBR

0.200000
8
8.000000
FILLER
RATIO
SPECTRUM
UNLOCKED 256

DOUBLE
64
COMBINED
1
0
0

0.002000
RATIO

1
0
TRUE
51149
0
LEFT NOT FITTED RIGHT NOT FITTED 0
NONE
NONE
15600
12
4.427000
51148
TRUE
1 0 8 72 0 0 0 0

15798

#HDR
-1
-1
#GR
µM
%T
2.38419e-05
0.0
1.282000
0.002000
12874
8
80.0974
52.3091
#DATA
1.282000	 74.1576
1.368000	 67.576
1.454000	 63.7621
1.540000	 64.7605
1.626000	 64.6666
1.712000	 63.3802
1.798000	 65.288
1.884000	 65.2215
1.970000	 64.5126
2.056000	 64.5987
2.142000	 64.7244
2.228000	 64.7562
2.314000	 64.6701
2.400000	 64.6485
2.486000	 64.5398
2.572000	 64.7765
2.658000	 64.9302
2.744000	 65.015
2.830000	 64.8177
2.916000	 64.7664
3.002000	 64.7804
3.088000	 64.8728
3.174000	 64.8103
3.260000	 64.8438
3.346000	 64.8177
3.432000	 64.6428
3.518000	 64.7104
3.604000	 65.0081
3.690000	 64.8437
3.776000	 64.8968
3.862000	 64.8055
3.948000	 65.0323
4.034000	 64.9447
4.120000	 65.0086
4.206000	 64.8761
4.292000	 65.0673
4.378000	 64.946
4.464000	 64.9669
4.550000	 64.8858
4.636000	 65.0644
4.722000	 64.8061
4.808000	 64.9551
4.894000	 64.9673
4.980000	 65.0262
5.066000	 64.8968
5.152000	 64.9837
5.238000	 65.0411
5.324000	 64.9944
5.410000	 64.8571
5.496000	 64.9779
5.582000	 65.0122
5.668000	 64.8839
5.754000	 64.7714
5.840000	 64.8514
5.926000	 64.7946
6.012000	 64.8621
6.098000	 64.8651
6.184000	 64.7758
6.270000	 64.7746
6.356000	 64.7061
6.442000	 64.782
6.528000	 64.7064
6.614000	 64.7077
6.700000	 64.8276
6.786000	 64.6714
6.872000	 64.9985
6.958000	 64.8826
7.044000	 64.798
7.130000	 64.7382
7.216000	 64.7038
7.302000	 64.7031
7.388000	 64.6864
7.474000	 64.8871
7.560000	 64.697
7.646000	 64.6039
7.732000	 64.8395
7.818000	 64.5586
7.904000	 64.5802
7.990000	 64.5116
8.076000	 64.6064
8.161999	 64.574
8.248000	 64.7003
8.334000	 64.7244
8.420000	 64.6251
8.506000	 64.5001
8.592000	 64.5386
8.678000	 64.5971
8.763999	 64.3398
8.850000	 64.4389
8.936000	 64.4696
9.022000	 64.4531
9.108000	 64.5433
9.193999	 64.3208
9.280000	 64.4903
9.366000	 64.346
9.452000	 64.3786
9.538000	 64.326
9.624000	 64.3434
9.710000	 64.4318
9.795999	 64.2105
9.882000	 64.3003
9.968000	 64.1731
10.054	64.2765
10.14	64.0975
10.226	64.1872
10.312	63.9858
10.398	64.3728
10.484	64.2013
10.57	64.2204
10.656	64.1052
10.742	64.252
10.828	64.3623
10.914	64.4291
11	64.0987
11.086	64.0629
11.172	64.1087
11.258	63.6597
11.344	64.1675
11.43	64.5836
11.516	64.3292
11.602	63.5968
11.688	63.7958
11.774	64.4453
11.86	64.0305
11.946	64.1127
12.032	63.9537
12.118	63.6106
12.204	63.5218
12.29	63.3625
12.376	63.5376
12.462	63.7059
12.548	63.1746
12.634	63.3472
12.72	63.5382
12.806	63.6082
12.892	63.7151
12.978	63.7307
13.064	63.5905
13.15	63.4422
13.236	63.3884
13.322	63.5662
13.408	63.7381
13.494	63.4592
13.58	63.2376
13.666	63.1998
13.752	63.1689
13.838	63.3369
13.924	63.634
14.01	63.5818
14.096	63.2182
14.182	62.9589
14.268	62.8107
14.354	62.7434
14.44	62.759
14.526	62.7357
14.612	62.6779
14.698	62.6203
14.784	62.5815
14.87	62.7391
14.956	62.8638
15.042	62.7986
15.128	62.6865
15.214	62.4411
15.3	62.1562
15.386	62.1732
15.472	62.3443
15.558	62.2021
15.644	61.8975
15.73	61.9316
15.816	62.2236
15.902	62.3649
15.988	62.3081
16.074	62.2846
16.16	62.3347
16.246	62.297
16.332	62.1548
16.418	62.125
16.504	62.2765
16.59	62.3864
16.676	62.3192
16.762	62.1639
16.848	62.0416
16.934	62.0101
17.02	62.0603
17.106	62.1051
17.192	62.0578
17.278	61.9829
17.364	61.9841
17.45	61.9854
17.536	61.876
17.622	61.7322
17.708	61.6776
17.794	61.6889
17.88	61.6831
17.966	61.659
18.052	61.6253
18.138	61.5234
18.224	61.3231
18.31	61.0868
18.396	60.8718
18.482	60.6716
18.568	60.4852
18.654	60.3603
18.74	60.3461
18.826	60.4408
18.912	60.6064
18.998	60.8069
19.084	60.9994
19.17	61.1031
19.256	61.034
19.342	60.8017
19.428	60.5504
19.514	60.4555
19.6	60.5535
19.686	60.7048
19.772	60.7333
19.858	60.5896
19.944	60.3762
20.03	60.2313
20.116	60.1881
20.202	60.1388
20.288	59.9395
20.374	59.5559
20.46	59.1207
20.546	58.8364
20.632	58.8075
20.718	58.9546
20.804	59.0924
20.89	59.0834
20.976	58.9333
21.062	58.7523
21.148	58.6552
21.234	58.6925
21.32	58.8412
21.406	59.0464
21.492	59.2548
21.578	59.4199
21.664	59.4941
21.75	59.4352
21.836	59.2254
21.922	58.8836
22.008	58.4564
22.094	57.993
22.18	57.5417
22.266	57.1615
22.352	56.9255
22.438	56.9003
22.524	57.1018
22.61	57.461
22.696	57.8366
22.782	58.0909
22.868	58.1534
22.954	58.0483
23.04	57.8457
23.126	57.6138
23.212	57.3851
23.298	57.15
23.384	56.8819
23.47	56.5696
23.556	56.2291
23.642	55.9101
23.728	55.6849
23.814	55.6105
23.9	55.7011
23.986	55.9196
24.072	56.197
24.158	56.4754
24.244	56.7432
24.33	57.0433
24.416	57.4403
24.502	57.9362
24.588	58.4318
24.674	58.7431
24.76	58.6463
24.846	57.9974
24.932	56.8146
25.018	55.3157
25.104	53.848
25.19	52.7725
25.276	52.3169
25.362	52.5466
25.448	53.3235
25.534	54.4023
25.62	55.532
25.706	56.5704
25.792	57.4283
25.878	58.0835
25.964	58.7001
26.05	59.5585
26.136	60.8733
26.222	62.6575
26.308	64.5907
26.394	66.1462
26.48	66.9232
26.566	66.8042
26.652	66.088
26.738	64.9943
26.824	63.7116
26.91	62.3409
26.996	61.4208
27.028	61.2886