File: Bakgrunnsmateriale/MATLAB/FTIR/ftir_data/subBb/Mapping_36/C-4040-8_t32.asc
PE IR       SPECTRUM    SPECTRUM    ASCII       PEDS        1.60
  -1
C-A132~1.ASC
17/05/02
13:35:22.00
17/05/02
13:35:48.00
tln
$C-4040-8_t0032$<tbV0>[7.5,12.0,8.0,0.0,22,1,0]
27.028
64

2002,4.07
MIRTGS : RIGHTBACK : INTERNAL 2
MIR : ON : INTERNAL 2
OPTKBR

0.200000
8
8.000000
FILLER
RATIO
SPECTRUM
UNLOCKED 256

DOUBLE
64
COMBINED
1
0
0

0.002000
RATIO

1
0
TRUE
51149
0
LEFT NOT FITTED RIGHT NOT FITTED 0
NONE
NONE
15600
12
4.427000
51148
TRUE
1 0 8 72 0 0 0 0

15798

#HDR
-1
-1
#GR
µM
%T
2.38419e-05
0.0
1.282000
0.002000
12874
8
92.8509
50.845
#DATA
1.282000	 79.0763
1.368000	 65.8477
1.454000	 64.4029
1.540000	 64.4582
1.626000	 65.2027
1.712000	 65.2718
1.798000	 64.5297
1.884000	 63.2157
1.970000	 65.1971
2.056000	 64.6002
2.142000	 65.4206
2.228000	 64.4343
2.314000	 64.1746
2.400000	 64.9045
2.486000	 65.0553
2.572000	 65.1957
2.658000	 65.1736
2.744000	 65.225
2.830000	 65.0634
2.916000	 65.1271
3.002000	 65.2104
3.088000	 65.1067
3.174000	 65.2769
3.260000	 65.0596
3.346000	 65.0154
3.432000	 64.7951
3.518000	 65.1902
3.604000	 65.2827
3.690000	 65.1957
3.776000	 65.0066
3.862000	 65.212
3.948000	 65.2893
4.034000	 65.1864
4.120000	 65.2044
4.206000	 65.4135
4.292000	 65.1715
4.378000	 65.3781
4.464000	 65.2705
4.550000	 65.3063
4.636000	 65.2261
4.722000	 65.25
4.808000	 65.225
4.894000	 65.1666
4.980000	 65.2833
5.066000	 65.2622
5.152000	 65.2849
5.238000	 65.3226
5.324000	 65.2392
5.410000	 65.305
5.496000	 65.2862
5.582000	 65.3738
5.668000	 65.267
5.754000	 65.0447
5.840000	 65.1957
5.926000	 65.0333
6.012000	 65.2269
6.098000	 65.1638
6.184000	 65.1224
6.270000	 65.1016
6.356000	 65.1229
6.442000	 65.186
6.528000	 65.0663
6.614000	 65.18
6.700000	 65.1153
6.786000	 65.0248
6.872000	 65.2114
6.958000	 65.1368
7.044000	 65.1052
7.130000	 65.1178
7.216000	 65.0566
7.302000	 65.0326
7.388000	 64.9846
7.474000	 65.094
7.560000	 65.001
7.646000	 65.0219
7.732000	 65.0812
7.818000	 64.9211
7.904000	 64.9108
7.990000	 64.9217
8.076000	 64.985
8.161999	 65.0173
8.248000	 64.7446
8.334000	 64.9274
8.420000	 64.8647
8.506000	 64.9449
8.592000	 64.831
8.678000	 64.9817
8.763999	 64.8213
8.850000	 64.9027
8.936000	 64.9799
9.022000	 64.8083
9.108000	 65.0618
9.193999	 64.9366
9.280000	 64.8035
9.366000	 64.8113
9.452000	 64.8311
9.538000	 65.0755
9.624000	 64.8968
9.710000	 64.7942
9.795999	 64.8145
9.882000	 64.8569
9.968000	 64.853
10.054	64.6611
10.14	64.5807
10.226	64.8666
10.312	64.8173
10.398	64.7945
10.484	64.8742
10.57	64.8159
10.656	64.8387
10.742	65.0398
10.828	64.9136
10.914	65.0599
11	64.6576
11.086	63.9015
11.172	64.1137
11.258	64.6755
11.344	64.7513
11.43	64.7486
11.516	64.7115
11.602	64.5834
11.688	64.5971
11.774	64.8038
11.86	64.631
11.946	64.6764
12.032	64.8159
12.118	64.7949
12.204	64.4769
12.29	64.3611
12.376	64.4647
12.462	64.5363
12.548	64.3259
12.634	64.4009
12.72	64.3654
12.806	64.3098
12.892	64.2942
12.978	64.1686
13.064	64.2022
13.15	64.1985
13.236	63.9037
13.322	63.7558
13.408	63.6655
13.494	63.6634
13.58	63.8319
13.666	63.8765
13.752	63.7314
13.838	63.6409
13.924	63.6849
14.01	63.7955
14.096	63.959
14.182	63.9087
14.268	63.5511
14.354	63.392
14.44	63.5846
14.526	63.7745
14.612	63.7487
14.698	63.7106
14.784	63.7251
14.87	63.6312
14.956	63.6016
15.042	63.7277
15.128	63.8144
15.214	63.7419
15.3	63.4919
15.386	63.2224
15.472	63.1039
15.558	63.1279
15.644	63.2695
15.73	63.4196
15.816	63.3871
15.902	63.2614
15.988	63.293
16.074	63.3873
16.16	63.3113
16.246	63.1779
16.332	63.2161
16.418	63.3455
16.504	63.3524
16.59	63.2359
16.676	63.1246
16.762	63.0589
16.848	63.0462
16.934	63.0824
17.02	63.082
17.106	63.0068
17.192	62.9439
17.278	62.9694
17.364	62.9893
17.45	62.8498
17.536	62.6211
17.622	62.5096
17.708	62.5334
17.794	62.5293
17.88	62.4268
17.966	62.321
18.052	62.3126
18.138	62.4239
18.224	62.5969
18.31	62.7436
18.396	62.8144
18.482	62.7958
18.568	62.6604
18.654	62.404
18.74	62.1148
18.826	61.92
18.912	61.861
18.998	61.8873
19.084	61.9628
19.17	62.0882
19.256	62.2119
19.342	62.2168
19.428	62.0604
19.514	61.8433
19.6	61.6806
19.686	61.5826
19.772	61.5116
19.858	61.4763
19.944	61.5226
20.03	61.6517
20.116	61.7878
20.202	61.8272
20.288	61.7281
20.374	61.5513
20.46	61.4152
20.546	61.3941
20.632	61.4567
20.718	61.4898
20.804	61.3944
20.89	61.1734
20.976	60.939
21.062	60.8222
21.148	60.8681
21.234	61.0148
21.32	61.1765
21.406	61.3316
21.492	61.5237
21.578	61.772
21.664	62.0075
21.75	62.0974
21.836	61.9366
21.922	61.5305
22.008	60.9965
22.094	60.4834
22.18	60.0931
22.266	59.8464
22.352	59.7112
22.438	59.6515
22.524	59.6461
22.61	59.6747
22.696	59.6972
22.782	59.6675
22.868	59.5541
22.954	59.3602
23.04	59.1203
23.126	58.8848
23.212	58.7297
23.298	58.7195
23.384	58.8988
23.47	59.2673
23.556	59.7591
23.642	60.2537
23.728	60.6237
23.814	60.7892
23.9	60.7429
23.986	60.5417
24.072	60.2606
24.158	59.9733
24.244	59.7209
24.33	59.5194
24.416	59.3781
24.502	59.2219
24.588	58.9108
24.674	58.2889
24.76	57.2173
24.846	55.7193
24.932	54.0032
25.018	52.4024
25.104	51.2647
25.19	50.8458
25.276	51.1666
25.362	51.9973
25.448	52.9146
25.534	53.5147
25.62	53.5717
25.706	53.1767
25.792	52.6801
25.878	52.5731
25.964	53.3832
26.05	55.4308
26.136	58.724
26.222	62.9581
26.308	67.6174
26.394	72.1846
26.48	76.4137
26.566	80.2727
26.652	83.8498
26.738	87.1012
26.824	89.7696
26.91	91.4053
26.996	91.5639
27.028	91.3933