File: Bakgrunnsmateriale/MATLAB/FTIR/ftir_data/subBb/Mapping_36/C-4040-8_t09_cm-1.asc
PE IR       SPECTRUM    SPECTRUM    ASCII       PEDS        1.60
  -1
C-99E0~1.ASC
17/05/02
11:32:51.00
17/05/02
11:32:51.00
tln
$C-4040-8_t0009$<tbV0>[2.5,-8.0,8.0,0.0,22,1,0]
370
64

2002,4.07
MIRTGS : RIGHTBACK : INTERNAL 2
MIR : ON : INTERNAL 2
OPTKBR

0.200000
8
8.000000
FILLER
RATIO
SPECTRUM
UNLOCKED 256

DOUBLE
64
COMBINED
1
0
0

1.000000
RATIO

1
0
TRUE
51149
0
LEFT NOT FITTED RIGHT NOT FITTED 0
NONE
NONE
15600
12
4.427000
51148
TRUE
1 0 8 72 0 0 0 0

15798

#HDR
-1
-1
#GR
CM-1
%T
2.38419e-05
0.0
7800
-1.000000
7431
8
79.5861
23.9281
#DATA
7800	71.1286
7775	70.1803
7750	70.5894
7725	62.2878
7700	65.9906
7675	66.4549
7650	63.1018
7625	67.1341
7600	62.5635
7575	66.026
7550	61.8765
7525	61.5705
7500	61.7633
7475	61.4671
7450	61.8457
7425	68.4299
7400	68.4268
7375	62.9384
7350	64.1813
7325	62.6946
7300	62.3104
7275	65.764
7250	65.22
7225	64.5536
7200	63.328
7175	63.7053
7150	62.7197
7125	62.5954
7100	64.0156
7075	61.852
7050	61.7736
7025	62.3765
7000	63.2674
6975	63.8183
6950	61.873
6925	62.8897
6900	62.3914
6875	62.1123
6850	62.8167
6825	65.0097
6800	63.7281
6775	62.9055
6750	62.6786
6725	63.6476
6700	63.1492
6675	62.953
6650	61.9375
6625	61.8031
6600	63.4227
6575	63.7693
6550	63.0497
6525	61.3891
6500	62.7556
6475	64.0646
6450	64.1879
6425	63.238
6400	61.4422
6375	63.7466
6350	63.3407
6325	63.6325
6300	61.9344
6275	64.085
6250	63.1192
6225	64.2176
6200	63.9959
6175	63.3943
6150	63.133
6125	62.1557
6100	63.7702
6075	63.3843
6050	63.5306
6025	64.1076
6000	63.2624
5975	63.3986
5950	63.435
5925	62.7539
5900	62.9747
5875	63.4639
5850	64.2597
5825	63.5187
5800	64.1721
5775	63.5434
5750	63.6174
5725	63.5
5700	63.6556
5675	64.0719
5650	63.7208
5625	63.5696
5600	64.1083
5575	64.1963
5550	63.7176
5525	63.5162
5500	64.0487
5475	64.1262
5450	63.9776
5425	62.5658
5400	62.8561
5375	63.9885
5350	63.58
5325	63.6133
5300	63.9749
5275	63.2354
5250	62.4929
5225	63.1797
5200	64.9313
5175	64.7079
5150	63.4916
5125	63.626
5100	63.3304
5075	63.7752
5050	63.781
5025	64.281
5000	64.0185
4975	63.5367
4950	63.9197
4925	63.5606
4900	63.6885
4875	63.8654
4850	63.5954
4825	63.6672
4800	63.5097
4775	63.551
4750	63.6165
4725	63.6534
4700	64.036
4675	63.5832
4650	63.4808
4625	63.5837
4600	63.622
4575	63.5943
4550	63.6822
4525	63.3308
4500	63.5466
4475	63.2298
4450	63.6386
4425	63.1553
4400	69.3376
4375	64.3444
4350	63.8859
4325	62.909
4300	62.9836
4275	63.169
4250	63.0612
4225	62.8344
4200	62.9895
4175	63.3734
4150	62.7813
4125	62.9637
4100	62.9892
4075	62.7254
4050	62.7043
4025	62.6431
4000	62.7188
3975	62.7406
3950	62.6907
3925	62.5694
3900	62.5168
3875	62.4669
3850	62.4264
3825	62.3222
3800	62.442
3775	61.9949
3750	62.2465
3725	61.9802
3700	61.8855
3675	62.0477
3650	61.9491
3625	61.7257
3600	61.5696
3575	61.4348
3550	61.2691
3525	61.0646
3500	60.9955
3475	61.1466
3450	61.0444
3425	61.0969
3400	61.0166
3375	60.7906
3350	60.5966
3325	60.3264
3300	60.5331
3275	60.2129
3250	60.257
3225	59.9616
3200	59.9812
3175	59.816
3150	59.7655
3125	59.4826
3100	59.4199
3075	59.1744
3050	59.0671
3025	59.0557
3000	58.8295
2975	58.5339
2950	58.3058
2925	58.0158
2900	57.9533
2875	57.8881
2850	57.6655
2825	57.6223
2800	57.569
2775	57.3758
2750	57.0916
2725	57.045
2700	56.9618
2675	56.6184
2650	56.2819
2625	56.2272
2600	56.0577
2575	55.7997
2550	55.705
2525	55.4808
2500	55.2647
2475	54.9793
2450	54.797
2425	54.499
2400	54.3324
2375	54.1938
2350	53.958
2325	53.7949
2300	53.4775
2275	53.3395
2250	52.9659
2225	52.8174
2200	52.4853
2175	52.274
2150	51.9847
2125	51.8266
2100	51.7001
2075	51.3639
2050	51.1767
2025	50.8537
2000	50.6489
1975	50.3974
1950	50.1132
1925	49.8341
1900	49.6153
1875	49.4196
1850	49.083
1825	48.8942
1800	48.6593
1775	48.3784
1750	47.9801
1725	47.7097
1700	47.5596
1675	47.2669
1650	46.997
1625	46.7651
1600	46.4717
1575	46.1273
1550	45.9075
1525	45.5677
1500	45.3236
1475	45.015
1450	44.8647
1425	44.5199
1400	44.3708
1375	44.0069
1350	43.6909
1325	43.4412
1300	43.0901
1275	42.7943
1250	42.5283
1225	42.3539
1200	42.0309
1175	41.6621
1150	41.4973
1125	41.2024
1100	40.8581
1075	40.7969
1050	40.4593
1025	40.1033
1000	39.6576
975	 39.4208
950	 38.9165
925	 38.8039
900	 38.37
875	 38.8714
850	 37.6395
825	 36.8952
800	 36.7032
775	 36.2701
750	 35.753
725	 34.7994
700	 34.1022
675	 34.0593
650	 33.2635
625	 32.5183
600	 31.687
575	 30.8522
550	 30.0374
525	 29.0357
500	 27.8549
475	 26.2387
450	 25.5535
425	 26.6988
400	 24.0912
375	 53.6413
370	 77.9326