File: Bakgrunnsmateriale/MATLAB/FTIR/ftir_data/subBb/Mapping_36/C-4040-8_t16_cm-1.asc
PE IR       SPECTRUM    SPECTRUM    ASCII       PEDS        1.60
  -1
C-1A6E~1.ASC
17/05/02
12:12:38.00
17/05/02
12:12:38.00
tln
$C-4040-8_t0016$<tbV0>[-2.5,-3.0,8.0,0.0,22,1,0]
370
64

2002,4.07
MIRTGS : RIGHTBACK : INTERNAL 2
MIR : ON : INTERNAL 2
OPTKBR

0.200000
8
8.000000
FILLER
RATIO
SPECTRUM
UNLOCKED 256

DOUBLE
64
COMBINED
1
0
0

1.000000
RATIO

1
0
TRUE
51149
0
LEFT NOT FITTED RIGHT NOT FITTED 0
NONE
NONE
15600
12
4.427000
51148
TRUE
1 0 8 72 0 0 0 0

15798

#HDR
-1
-1
#GR
CM-1
%T
2.38419e-05
0.0
7800
-1.000000
7431
8
83.4958
38.031
#DATA
7800	75.0494
7775	71.9405
7750	65.4006
7725	72.9511
7700	71.991
7675	64.6286
7650	69.2174
7625	68.0758
7600	69.6833
7575	65.1871
7550	67.8058
7525	64.4965
7500	64.5435
7475	63.6437
7450	68.5423
7425	65.4863
7400	59.8768
7375	64.7301
7350	66.4106
7325	67.4175
7300	65.583
7275	64.3224
7250	65.5461
7225	66.5915
7200	64.1537
7175	66.8717
7150	64.6546
7125	64.454
7100	62.4967
7075	62.5016
7050	61.3428
7025	63.3344
7000	62.0854
6975	63.6618
6950	63.8158
6925	65.335
6900	63.0554
6875	64.4637
6850	62.9525
6825	63.2818
6800	63.3174
6775	62.8835
6750	64.3141
6725	61.8179
6700	65.0625
6675	63.6891
6650	61.5627
6625	66.6902
6600	64.8511
6575	64.2153
6550	63.7765
6525	64.1136
6500	65.07
6475	63.0773
6450	64.1073
6425	62.9166
6400	65.1495
6375	63.9272
6350	64.569
6325	65.2868
6300	64.911
6275	63.7722
6250	63.5265
6225	64.5519
6200	64.1601
6175	63.8333
6150	64.9016
6125	65.0777
6100	64.0377
6075	64.7691
6050	64.3328
6025	64.9193
6000	64.5636
5975	64.4251
5950	64.587
5925	63.7377
5900	64.8321
5875	64.181
5850	64.2246
5825	64.1037
5800	63.7649
5775	64.3057
5750	64.889
5725	64.8622
5700	64.3405
5675	63.9377
5650	64.1538
5625	64.8
5600	64.5251
5575	64.2698
5550	64.238
5525	64.4744
5500	63.6977
5475	64.1464
5450	64.4829
5425	64.3453
5400	64.0568
5375	63.8292
5350	63.0809
5325	62.9121
5300	65.5622
5275	63.443
5250	66.9765
5225	64.6519
5200	63.8658
5175	64.6425
5150	64.3853
5125	64.3214
5100	63.95
5075	64.0249
5050	64.0426
5025	64.3596
5000	64.4585
4975	64.2487
4950	64.1268
4925	63.9467
4900	64.5279
4875	64.4807
4850	64.4104
4825	64.4351
4800	64.0374
4775	64.5036
4750	64.0343
4725	64.062
4700	64.1966
4675	64.1297
4650	64.498
4625	64.3284
4600	64.3123
4575	64.0458
4550	63.8584
4525	63.8231
4500	63.8702
4475	63.7858
4450	63.9192
4425	63.6757
4400	62.7269
4375	57.7682
4350	64.5302
4325	64.1971
4300	64.016
4275	63.6656
4250	63.8799
4225	64.0692
4200	63.6944
4175	64.0837
4150	63.7893
4125	64.0052
4100	64.0092
4075	63.6517
4050	63.9539
4025	63.8973
4000	63.6812
3975	63.782
3950	63.6471
3925	63.8662
3900	63.4771
3875	63.5678
3850	63.6544
3825	63.5975
3800	63.6243
3775	63.4794
3750	63.5432
3725	63.4528
3700	63.3835
3675	63.1429
3650	63.2657
3625	63.3455
3600	63.0966
3575	63.1619
3550	63.1255
3525	62.8983
3500	62.8352
3475	63.0252
3450	62.9933
3425	62.9263
3400	62.7742
3375	62.5391
3350	62.6338
3325	62.6072
3300	62.4302
3275	62.3716
3250	62.5124
3225	62.3334
3200	62.2529
3175	62.2938
3150	62.1535
3125	62.0573
3100	62.0268
3075	62.036
3050	61.897
3025	62.0039
3000	61.7907
2975	61.5812
2950	61.4555
2925	61.0685
2900	61.2904
2875	61.1872
2850	61.0291
2825	60.9707
2800	61.0381
2775	61
2750	60.8432
2725	60.7912
2700	60.676
2675	60.5249
2650	60.4775
2625	60.328
2600	60.3541
2575	60.2047
2550	60.1665
2525	60.1002
2500	59.8981
2475	59.8194
2450	59.7619
2425	59.6328
2400	59.4929
2375	59.3295
2350	59.2792
2325	59.07
2300	58.9503
2275	58.9534
2250	58.8193
2225	58.6381
2200	58.5696
2175	58.3972
2150	58.2203
2125	58.0795
2100	57.9434
2075	57.8904
2050	57.7459
2025	57.6383
2000	57.481
1975	57.385
1950	57.2708
1925	57.1964
1900	57.0688
1875	56.8747
1850	56.7882
1825	56.6596
1800	56.4277
1775	56.2571
1750	56.0573
1725	55.8516
1700	55.878
1675	55.6869
1650	55.6338
1625	55.4629
1600	55.2881
1575	55.1733
1550	55.0551
1525	54.9613
1500	54.8329
1475	54.6616
1450	54.584
1425	54.3852
1400	54.2926
1375	54.1734
1350	53.9476
1325	53.8194
1300	53.6784
1275	53.5179
1250	53.3038
1225	53.1808
1200	52.9812
1175	52.9729
1150	52.7038
1125	52.4566
1100	52.3584
1075	52.11
1050	51.9326
1025	51.7678
1000	51.6604
975	 51.679
950	 51.06
925	 50.3012
900	 50.4743
875	 50.4653
850	 50.3076
825	 50.2733
800	 50.3176
775	 49.7996
750	 49.506
725	 49.2938
700	 48.7104
675	 48.0145
650	 47.6457
625	 47.3916
600	 46.7481
575	 46.4272
550	 45.527
525	 45.3043
500	 44.8719
475	 42.7473
450	 41.9879
425	 40.7763
400	 42.0077
375	 55.6584
370	 46.0431