File: Bakgrunnsmateriale/MATLAB/FTIR/ftir_data/subBb/Mapping_36/C-4040-8_t05.asc
PE IR       SPECTRUM    SPECTRUM    ASCII       PEDS        1.60
  -1
C-B52E~1.ASC
17/05/02
11:13:31.00
17/05/02
11:13:57.00
tln
$C-4040-8_t0005$<tbV0>[-7.5,-13.0,8.0,0.0,22,1,0]
27.028
64

2002,4.07
MIRTGS : RIGHTBACK : INTERNAL 2
MIR : ON : INTERNAL 2
OPTKBR

0.200000
8
8.000000
FILLER
RATIO
SPECTRUM
UNLOCKED 256

DOUBLE
64
COMBINED
1
0
0

0.002000
RATIO

1
0
TRUE
51149
0
LEFT NOT FITTED RIGHT NOT FITTED 0
NONE
NONE
15600
12
4.427000
51148
TRUE
1 0 8 72 0 0 0 0

15798

#HDR
-1
-1
#GR
µM
%T
2.38419e-05
0.0
1.282000
0.002000
12874
8
77.1481
35.7838
#DATA
1.282000	 63.6576
1.368000	 66.8759
1.454000	 64.2135
1.540000	 63.6288
1.626000	 62.989
1.712000	 64.3267
1.798000	 64.4715
1.884000	 63.4888
1.970000	 64.2061
2.056000	 64.3543
2.142000	 64.5057
2.228000	 63.8829
2.314000	 64.1692
2.400000	 64.3806
2.486000	 64.1291
2.572000	 63.8795
2.658000	 63.7291
2.744000	 63.8001
2.830000	 62.9991
2.916000	 63.36
3.002000	 63.1407
3.088000	 62.6397
3.174000	 62.5845
3.260000	 62.371
3.346000	 62.2141
3.432000	 61.5444
3.518000	 61.4768
3.604000	 61.3283
3.690000	 61.0959
3.776000	 60.7885
3.862000	 60.614
3.948000	 60.5148
4.034000	 60.1598
4.120000	 59.9567
4.206000	 59.6993
4.292000	 59.4745
4.378000	 59.2272
4.464000	 59.0258
4.550000	 58.7569
4.636000	 58.524
4.722000	 58.2539
4.808000	 58.1224
4.894000	 57.8866
4.980000	 57.7556
5.066000	 57.5339
5.152000	 57.415
5.238000	 57.1453
5.324000	 57.0418
5.410000	 56.8592
5.496000	 56.6175
5.582000	 56.5358
5.668000	 56.2722
5.754000	 55.9542
5.840000	 56.016
5.926000	 55.9286
6.012000	 55.7828
6.098000	 55.4885
6.184000	 55.4264
6.270000	 55.1535
6.356000	 54.9408
6.442000	 54.867
6.528000	 54.7452
6.614000	 54.6887
6.700000	 54.6433
6.786000	 54.3852
6.872000	 54.2662
6.958000	 54.1632
7.044000	 54.0461
7.130000	 53.9546
7.216000	 53.722
7.302000	 53.5793
7.388000	 53.4981
7.474000	 53.6039
7.560000	 53.4458
7.646000	 53.2849
7.732000	 53.1674
7.818000	 53.1148
7.904000	 52.9729
7.990000	 52.8843
8.076000	 52.8291
8.161999	 52.6173
8.248000	 52.5986
8.334000	 52.6074
8.420000	 52.4325
8.506000	 52.4287
8.592000	 52.1652
8.678000	 52.0263
8.763999	 52.1454
8.850000	 51.9811
8.936000	 51.8215
9.022000	 51.8926
9.108000	 51.7419
9.193999	 51.7621
9.280000	 51.829
9.366000	 51.5715
9.452000	 51.4441
9.538000	 51.2926
9.624000	 51.4799
9.710000	 51.2687
9.795999	 51.1958
9.882000	 51.0673
9.968000	 50.8217
10.054	51.0157
10.14	50.913
10.226	50.7433
10.312	50.7133
10.398	50.7845
10.484	50.8346
10.57	50.7286
10.656	50.6363
10.742	50.6046
10.828	50.2553
10.914	49.9376
11	50.0176
11.086	50.5724
11.172	50.2497
11.258	50.0105
11.344	49.7756
11.43	49.9581
11.516	50.2941
11.602	50.4233
11.688	49.895
11.774	49.8684
11.86	49.7296
11.946	50.0239
12.032	49.4403
12.118	48.8963
12.204	49.4856
12.29	49.4978
12.376	49.4431
12.462	49.4703
12.548	49.1437
12.634	48.7625
12.72	48.78
12.806	48.7379
12.892	48.6213
12.978	48.6714
13.064	48.6339
13.15	48.573
13.236	48.5019
13.322	48.5474
13.408	48.7196
13.494	48.6079
13.58	48.3678
13.666	48.1359
13.752	48.0047
13.838	48.0559
13.924	48.0998
14.01	47.8931
14.096	47.5937
14.182	47.4753
14.268	47.5907
14.354	47.7703
14.44	47.6618
14.526	47.3797
14.612	47.2939
14.698	47.2241
14.784	47.0749
14.87	47.069
14.956	47.1061
15.042	47.0564
15.128	46.9884
15.214	46.8921
15.3	46.807
15.386	46.79
15.472	46.7578
15.558	46.6623
15.644	46.5488
15.73	46.522
15.816	46.629
15.902	46.6882
15.988	46.5294
16.074	46.2888
16.16	46.2063
16.246	46.2969
16.332	46.363
16.418	46.3138
16.504	46.2355
16.59	46.1406
16.676	45.9727
16.762	45.7429
16.848	45.4942
16.934	45.2675
17.02	45.1715
17.106	45.275
17.192	45.4035
17.278	45.3446
17.364	45.1488
17.45	44.9978
17.536	44.9527
17.622	44.9617
17.708	44.9752
17.794	44.9706
17.88	44.9517
17.966	44.9415
18.052	44.94
18.138	44.8923
18.224	44.7408
18.31	44.5146
18.396	44.3474
18.482	44.3491
18.568	44.461
18.654	44.4802
18.74	44.2921
18.826	44.0277
18.912	43.9269
18.998	44.0513
19.084	44.2151
19.17	44.2017
19.256	43.994
19.342	43.761
19.428	43.6517
19.514	43.6529
19.6	43.6291
19.686	43.4796
19.772	43.2251
19.858	42.96
19.944	42.7631
20.03	42.6661
20.116	42.6682
20.202	42.7449
20.288	42.836
20.374	42.8702
20.46	42.8209
20.546	42.735
20.632	42.6798
20.718	42.676
20.804	42.6977
20.89	42.7202
20.976	42.7293
21.062	42.6899
21.148	42.5316
21.234	42.2012
21.32	41.7394
21.406	41.2932
21.492	41.0388
21.578	41.058
21.664	41.2827
21.75	41.5469
21.836	41.6906
21.922	41.6523
22.008	41.4918
22.094	41.328
22.18	41.2545
22.266	41.291
22.352	41.379
22.438	41.4331
22.524	41.3865
22.61	41.2053
22.696	40.8922
22.782	40.493
22.868	40.0937
22.954	39.8137
23.04	39.7676
23.126	40.0174
23.212	40.5237
23.298	41.1536
23.384	41.6983
23.47	41.974
23.556	41.8811
23.642	41.4481
23.728	40.8281
23.814	40.2358
23.9	39.8571
23.986	39.7797
24.072	39.941
24.158	40.1477
24.244	40.1781
24.33	39.8739
24.416	39.2141
24.502	38.2846
24.588	37.2812
24.674	36.4271
24.76	35.8986
24.846	35.8072
24.932	36.1948
25.018	37.0248
25.104	38.2046
25.19	39.6026
25.276	41.0956
25.362	42.5895
25.448	44.0266
25.534	45.3571
25.62	46.4992
25.706	47.3364
25.792	47.7407
25.878	47.6479
25.964	47.1562
26.05	46.5702
26.136	46.3654
26.222	47.1398
26.308	49.4269
26.394	53.4353
26.48	58.7909
26.566	64.6755
26.652	70.1161
26.738	74.2205
26.824	76.5206
26.91	77.1447
26.996	76.5925
27.028	76.3357