File: Bakgrunnsmateriale/MATLAB/FTIR/ftir_data/subBb/Mapping_36/C-4040-8_t08.asc
PE IR       SPECTRUM    SPECTRUM    ASCII       PEDS        1.60
  -1
C-C52A~1.ASC
17/05/02
11:28:10.00
17/05/02
11:28:37.00
tln
$C-4040-8_t0008$<tbV0>[7.5,-8.0,8.0,0.0,22,1,0]
27.028
64

2002,4.07
MIRTGS : RIGHTBACK : INTERNAL 2
MIR : ON : INTERNAL 2
OPTKBR

0.200000
8
8.000000
FILLER
RATIO
SPECTRUM
UNLOCKED 256

DOUBLE
64
COMBINED
1
0
0

0.002000
RATIO

1
0
TRUE
51149
0
LEFT NOT FITTED RIGHT NOT FITTED 0
NONE
NONE
15600
12
4.427000
51148
TRUE
1 0 8 72 0 0 0 0

15798

#HDR
-1
-1
#GR
µM
%T
2.38419e-05
0.0
1.282000
0.002000
12874
8
81.174
9.971926
#DATA
1.282000	 61.8007
1.368000	 67.5948
1.454000	 63.153
1.540000	 63.1895
1.626000	 64.2482
1.712000	 63.5234
1.798000	 63.3387
1.884000	 60.6157
1.970000	 63.4429
2.056000	 62.6781
2.142000	 62.8476
2.228000	 61.7402
2.314000	 61.4207
2.400000	 61.5111
2.486000	 61.1628
2.572000	 60.3785
2.658000	 60.079
2.744000	 59.4609
2.830000	 58.6979
2.916000	 57.9276
3.002000	 57.208
3.088000	 56.4319
3.174000	 55.8251
3.260000	 54.959
3.346000	 54.1402
3.432000	 53.1381
3.518000	 52.5483
3.604000	 52.0289
3.690000	 51.1709
3.776000	 50.3985
3.862000	 49.6467
3.948000	 48.9101
4.034000	 48.3774
4.120000	 47.647
4.206000	 47.0778
4.292000	 46.3802
4.378000	 45.8027
4.464000	 45.2832
4.550000	 44.587
4.636000	 44.1105
4.722000	 43.4924
4.808000	 42.8889
4.894000	 42.4919
4.980000	 41.9787
5.066000	 41.5674
5.152000	 41.034
5.238000	 40.5002
5.324000	 40.1148
5.410000	 39.7328
5.496000	 39.4021
5.582000	 38.9207
5.668000	 38.5056
5.754000	 38.0525
5.840000	 37.7505
5.926000	 37.4466
6.012000	 37.0852
6.098000	 36.8861
6.184000	 36.4541
6.270000	 36.1218
6.356000	 35.7617
6.442000	 35.484
6.528000	 35.1298
6.614000	 34.9917
6.700000	 34.7819
6.786000	 34.4171
6.872000	 34.1658
6.958000	 34.033
7.044000	 33.8371
7.130000	 33.3297
7.216000	 33.3565
7.302000	 33.0513
7.388000	 32.8165
7.474000	 32.6828
7.560000	 32.5486
7.646000	 32.1898
7.732000	 31.9114
7.818000	 31.79
7.904000	 31.5478
7.990000	 31.4283
8.076000	 31.2393
8.161999	 31.0334
8.248000	 30.8815
8.334000	 30.7993
8.420000	 30.5075
8.506000	 30.3623
8.592000	 30.3165
8.678000	 30.0829
8.763999	 29.9083
8.850000	 29.7608
8.936000	 29.581
9.022000	 29.3066
9.108000	 29.1848
9.193999	 29.2084
9.280000	 29.0913
9.366000	 28.8302
9.452000	 28.8831
9.538000	 28.7169
9.624000	 28.4912
9.710000	 28.3311
9.795999	 28.3373
9.882000	 27.9039
9.968000	 27.9842
10.054	27.8505
10.14	27.6244
10.226	27.7204
10.312	27.4317
10.398	27.2834
10.484	27.1061
10.57	27.2793
10.656	26.9361
10.742	26.6352
10.828	26.3391
10.914	26.4139
11	26.169
11.086	26.7168
11.172	26.5227
11.258	26.3785
11.344	25.4493
11.43	25.4961
11.516	25.7147
11.602	25.6137
11.688	24.8904
11.774	24.8217
11.86	25.028
11.946	25.2079
12.032	24.8907
12.118	24.7917
12.204	24.9682
12.29	24.9738
12.376	24.6067
12.462	24.5247
12.548	24.6238
12.634	24.5109
12.72	24.4355
12.806	24.1416
12.892	23.83
12.978	23.8132
13.064	23.7287
13.15	23.4914
13.236	23.4396
13.322	23.314
13.408	23.1332
13.494	23.0541
13.58	22.8604
13.666	22.8052
13.752	22.8966
13.838	22.9356
13.924	22.7617
14.01	22.3676
14.096	22.0962
14.182	21.9768
14.268	22.0305
14.354	22.1755
14.44	22.1497
14.526	21.8799
14.612	21.6585
14.698	21.6145
14.784	21.5619
14.87	21.4044
14.956	21.2759
15.042	21.2665
15.128	21.2465
15.214	21.1414
15.3	20.9301
15.386	20.6569
15.472	20.4512
15.558	20.2981
15.644	20.0931
15.73	19.945
15.816	20.0342
15.902	20.2061
15.988	20.1957
16.074	20.0477
16.16	19.8887
16.246	19.6867
16.332	19.4386
16.418	19.2512
16.504	19.143
16.59	19.0357
16.676	18.9405
16.762	18.9111
16.848	18.9455
16.934	19.0186
17.02	19.0784
17.106	19.024
17.192	18.813
17.278	18.5869
17.364	18.5438
17.45	18.6461
17.536	18.6053
17.622	18.2756
17.708	17.8726
17.794	17.6783
17.88	17.7022
17.966	17.7386
18.052	17.6455
18.138	17.437
18.224	17.178
18.31	16.9194
18.396	16.7268
18.482	16.6607
18.568	16.6981
18.654	16.7384
18.74	16.7139
18.826	16.6567
18.912	16.633
18.998	16.6517
19.084	16.6648
19.17	16.6291
19.256	16.5368
19.342	16.4002
19.428	16.2404
19.514	16.0762
19.6	15.9027
19.686	15.6906
19.772	15.4193
19.858	15.1114
19.944	14.8243
20.03	14.62
20.116	14.5356
20.202	14.5667
20.288	14.6571
20.374	14.7086
20.46	14.6421
20.546	14.4683
20.632	14.2985
20.718	14.2628
20.804	14.3984
20.89	14.613
20.976	14.7499
21.062	14.708
21.148	14.5088
21.234	14.2736
21.32	14.1295
21.406	14.1278
21.492	14.2127
21.578	14.264
21.664	14.1722
21.75	13.8965
21.836	13.4892
21.922	13.0666
22.008	12.7502
22.094	12.6051
22.18	12.6236
22.266	12.7471
22.352	12.8979
22.438	13.0245
22.524	13.1163
22.61	13.1906
22.696	13.2759
22.782	13.378
22.868	13.4691
22.954	13.4971
23.04	13.4182
23.126	13.2178
23.212	12.9278
23.298	12.5982
23.384	12.2577
23.47	11.8895
23.556	11.4537
23.642	10.9494
23.728	10.467
23.814	10.1514
23.9	10.144
23.986	10.5335
24.072	11.2796
24.158	12.2133
24.244	13.1021
24.33	13.7225
24.416	13.9513
24.502	13.742
24.588	13.1972
24.674	12.51
24.76	11.8514
24.846	11.3529
24.932	11.0189
25.018	10.7363
25.104	10.395
25.19	10.0587
25.276	10.0395
25.362	10.8365
25.448	12.8538
25.534	16.1367
25.62	20.2818
25.706	24.4814
25.792	27.8466
25.878	29.7646
25.964	30.2002
26.05	29.7514
26.136	29.4352
26.222	30.4609
26.308	33.8529
26.394	40.0228
26.48	48.5013
26.566	58.0829
26.652	67.2404
26.738	74.5512
26.824	79.1825
26.91	81.066
26.996	80.8129
27.028	80.5312