File: Bakgrunnsmateriale/MATLAB/FTIR/ftir_data/subBb/Mapping_36/C-4040-8_t07.asc
PE IR       SPECTRUM    SPECTRUM    ASCII       PEDS        1.60
  -1
C-B526~1.ASC
17/05/02
11:23:29.00
17/05/02
11:23:55.00
tln
$C-4040-8_t0007$<tbV0>[12.5,-8.0,8.0,0.0,22,1,0]
27.028
64

2002,4.07
MIRTGS : RIGHTBACK : INTERNAL 2
MIR : ON : INTERNAL 2
OPTKBR

0.200000
8
8.000000
FILLER
RATIO
SPECTRUM
UNLOCKED 256

DOUBLE
64
COMBINED
1
0
0

0.002000
RATIO

1
0
TRUE
51149
0
LEFT NOT FITTED RIGHT NOT FITTED 0
NONE
NONE
15600
12
4.427000
51148
TRUE
1 0 8 72 0 0 0 0

15798

#HDR
-1
-1
#GR
µM
%T
2.38419e-05
0.0
1.282000
0.002000
12874
8
94.2451
48.7065
#DATA
1.282000	 68.295
1.368000	 64.2291
1.454000	 62.4466
1.540000	 63.7783
1.626000	 64.6112
1.712000	 64.754
1.798000	 65.2446
1.884000	 64.3697
1.970000	 64.7035
2.056000	 64.7179
2.142000	 64.9472
2.228000	 64.4538
2.314000	 64.3528
2.400000	 65.0946
2.486000	 65.3275
2.572000	 65.0739
2.658000	 65.0436
2.744000	 65.0965
2.830000	 65.1437
2.916000	 65.0978
3.002000	 65.143
3.088000	 64.9897
3.174000	 65.3163
3.260000	 65.0666
3.346000	 65.0756
3.432000	 64.7259
3.518000	 65.1742
3.604000	 65.2002
3.690000	 65.1299
3.776000	 65.0982
3.862000	 65.1423
3.948000	 65.1987
4.034000	 65.2421
4.120000	 65.2548
4.206000	 65.2332
4.292000	 65.1961
4.378000	 65.2142
4.464000	 65.2054
4.550000	 65.1522
4.636000	 65.1925
4.722000	 65.0927
4.808000	 65.1496
4.894000	 65.216
4.980000	 65.2292
5.066000	 65.177
5.152000	 65.1491
5.238000	 65.1737
5.324000	 65.139
5.410000	 65.1443
5.496000	 65.2177
5.582000	 65.2631
5.668000	 65.1509
5.754000	 64.9382
5.840000	 65.0628
5.926000	 65.2546
6.012000	 65.1611
6.098000	 65.099
6.184000	 65.1879
6.270000	 65.0765
6.356000	 65.0833
6.442000	 65.1221
6.528000	 64.9655
6.614000	 64.9342
6.700000	 64.9994
6.786000	 65.0896
6.872000	 64.966
6.958000	 65.0378
7.044000	 65.2232
7.130000	 64.9669
7.216000	 64.9443
7.302000	 64.8603
7.388000	 64.8886
7.474000	 65.155
7.560000	 64.9767
7.646000	 64.7804
7.732000	 64.9231
7.818000	 64.9024
7.904000	 64.8946
7.990000	 64.8138
8.076000	 64.8794
8.161999	 64.7174
8.248000	 64.8626
8.334000	 65.0011
8.420000	 64.7353
8.506000	 64.7953
8.592000	 64.7273
8.678000	 64.6885
8.763999	 64.8102
8.850000	 64.776
8.936000	 64.8579
9.022000	 64.9124
9.108000	 64.7379
9.193999	 64.7465
9.280000	 64.7507
9.366000	 64.5712
9.452000	 64.5274
9.538000	 64.662
9.624000	 64.9026
9.710000	 64.708
9.795999	 64.5553
9.882000	 64.5957
9.968000	 64.7898
10.054	64.8317
10.14	64.6975
10.226	64.6737
10.312	64.7433
10.398	64.5545
10.484	64.5071
10.57	64.3833
10.656	64.3433
10.742	64.615
10.828	64.4762
10.914	64.3712
11	64.5822
11.086	64.6125
11.172	64.5209
11.258	64.489
11.344	64.8575
11.43	65.4811
11.516	65.0954
11.602	64.1316
11.688	64.1978
11.774	64.6506
11.86	64.4266
11.946	64.803
12.032	64.2757
12.118	63.2134
12.204	63.8592
12.29	64.5097
12.376	64.2067
12.462	63.7822
12.548	63.89
12.634	64.2723
12.72	64.3134
12.806	63.9635
12.892	63.9686
12.978	63.9932
13.064	64.0107
13.15	64.0954
13.236	63.9588
13.322	63.7125
13.408	63.6483
13.494	63.667
13.58	63.5879
13.666	63.4856
13.752	63.5585
13.838	63.5303
13.924	63.4406
14.01	63.4405
14.096	63.4467
14.182	63.352
14.268	63.3187
14.354	63.2454
14.44	63.0634
14.526	62.9321
14.612	62.9227
14.698	62.938
14.784	62.8824
14.87	62.8468
14.956	62.9032
15.042	63.1033
15.128	63.2639
15.214	63.2512
15.3	63.132
15.386	62.9279
15.472	62.7736
15.558	62.6326
15.644	62.4538
15.73	62.4889
15.816	62.6535
15.902	62.6608
15.988	62.6114
16.074	62.6215
16.16	62.6202
16.246	62.5902
16.332	62.5268
16.418	62.4747
16.504	62.5817
16.59	62.8213
16.676	62.9598
16.762	62.908
16.848	62.8314
16.934	62.8043
17.02	62.6853
17.106	62.4211
17.192	62.1697
17.278	62.1248
17.364	62.291
17.45	62.4281
17.536	62.298
17.622	61.9305
17.708	61.5602
17.794	61.3747
17.88	61.3915
17.966	61.5304
18.052	61.6903
18.138	61.7621
18.224	61.6688
18.31	61.4419
18.396	61.2217
18.482	61.1345
18.568	61.1867
18.654	61.2895
18.74	61.3568
18.826	61.36
18.912	61.2996
18.998	61.169
19.084	60.9667
19.17	60.74
19.256	60.5848
19.342	60.5704
19.428	60.6445
19.514	60.6531
19.6	60.4739
19.686	60.1423
19.772	59.8214
19.858	59.6597
19.944	59.6816
20.03	59.7985
20.116	59.9003
20.202	59.9278
20.288	59.8813
20.374	59.7971
20.46	59.7249
20.546	59.7002
20.632	59.7099
20.718	59.692
20.804	59.5998
20.89	59.4676
20.976	59.3874
21.062	59.4266
21.148	59.567
21.234	59.7211
21.32	59.794
21.406	59.7368
21.492	59.5686
21.578	59.3462
21.664	59.112
21.75	58.8766
21.836	58.6489
21.922	58.4714
22.008	58.4113
22.094	58.5125
22.18	58.7616
22.266	59.0885
22.352	59.3902
22.438	59.5673
22.524	59.5571
22.61	59.3519
22.696	59.0134
22.782	58.653
22.868	58.3875
22.954	58.2811
23.04	58.3207
23.126	58.4322
23.212	58.5473
23.298	58.6407
23.384	58.7417
23.47	58.8877
23.556	59.0786
23.642	59.2839
23.728	59.4593
23.814	59.5839
23.9	59.6809
23.986	59.7982
24.072	59.9411
24.158	60.0585
24.244	60.0551
24.33	59.8428
24.416	59.4116
24.502	58.7847
24.588	58.0615
24.674	57.3591
24.76	56.7266
24.846	56.1356
24.932	55.4873
25.018	54.6608
25.104	53.5363
25.19	52.1367
25.276	50.6532
25.362	49.3775
25.448	48.7285
25.534	49.0147
25.62	50.2905
25.706	52.3319
25.792	54.7245
25.878	57.0566
25.964	59.093
26.05	60.9407
26.136	63.0202
26.222	65.9501
26.308	70.2699
26.394	76.0525
26.48	82.6708
26.566	88.8477
26.652	93.0663
26.738	94.1916
26.824	91.7986
26.91	86.3648
26.996	78.2034
27.028	75.6492