File: Bakgrunnsmateriale/MATLAB/FTIR/ftir_data/subBb/Mapping_36/C-4040-8_t34_cm-1.asc
PE IR       SPECTRUM    SPECTRUM    ASCII       PEDS        1.60
  -1
C-1B6F~1.ASC
17/05/02
13:44:44.00
17/05/02
13:44:44.00
tln
$C-4040-8_t0034$<tbV0>[-2.5,12.0,8.0,0.0,22,1,0]
370
64

2002,4.07
MIRTGS : RIGHTBACK : INTERNAL 2
MIR : ON : INTERNAL 2
OPTKBR

0.200000
8
8.000000
FILLER
RATIO
SPECTRUM
UNLOCKED 256

DOUBLE
64
COMBINED
1
0
0

1.000000
RATIO

1
0
TRUE
51149
0
LEFT NOT FITTED RIGHT NOT FITTED 0
NONE
NONE
15600
12
4.427000
51148
TRUE
1 0 8 72 0 0 0 0

15798

#HDR
-1
-1
#GR
CM-1
%T
2.38419e-05
0.0
7800
-1.000000
7431
8
87.1398
56.5576
#DATA
7800	68.2395
7775	60.876
7750	73.8188
7725	72.4199
7700	71.3941
7675	72.7881
7650	71.4202
7625	68.4948
7600	72.1853
7575	70.7193
7550	68.8319
7525	67.9027
7500	68.6668
7475	64.0492
7450	67.1379
7425	65.8321
7400	62.5887
7375	61.5969
7350	68.991
7325	65.4895
7300	63.8396
7275	66.155
7250	67.0339
7225	67.1977
7200	65.0504
7175	64.1057
7150	64.0569
7125	66.2845
7100	63.352
7075	64.3535
7050	67.444
7025	65.5849
7000	64.862
6975	64.7024
6950	64.2151
6925	63.2149
6900	65.2797
6875	66.4137
6850	65.5345
6825	64.1068
6800	65.2769
6775	65.9369
6750	64.2153
6725	62.5509
6700	65.9459
6675	65.9986
6650	64.2786
6625	65.091
6600	64.2807
6575	64.5621
6550	63.3188
6525	64.9802
6500	64.3917
6475	64.6025
6450	63.538
6425	64.4992
6400	64.8715
6375	64.8067
6350	65.0739
6325	65.9198
6300	63.9611
6275	65.7582
6250	64.9888
6225	63.5615
6200	64.6212
6175	64.1198
6150	64.3341
6125	64.9738
6100	65.2639
6075	63.9066
6050	65.0244
6025	64.5611
6000	65.0912
5975	64.8891
5950	65.0137
5925	64.9161
5900	65.6288
5875	64.2264
5850	64.7474
5825	65.539
5800	64.685
5775	64.4467
5750	64.7069
5725	64.7114
5700	64.4626
5675	64.2848
5650	65.1197
5625	65.517
5600	65.8525
5575	65.7449
5550	65.2575
5525	64.5172
5500	64.4203
5475	64.2818
5450	65.1714
5425	66.1032
5400	64.6288
5375	65.4019
5350	64.4702
5325	64.0596
5300	64.7656
5275	63.1071
5250	64.907
5225	64.7728
5200	65.3427
5175	64.5602
5150	64.8684
5125	65.2234
5100	65.242
5075	65.0509
5050	64.966
5025	65.0835
5000	64.9745
4975	64.7513
4950	64.7504
4925	64.7154
4900	64.6533
4875	64.849
4850	64.9459
4825	64.9809
4800	64.7749
4775	64.993
4750	65.1822
4725	65.3088
4700	65.1248
4675	65.2107
4650	65.1064
4625	65.2507
4600	65.1007
4575	65.1473
4550	64.2973
4525	64.9212
4500	63.9266
4475	64.2472
4450	64.2017
4425	64.2212
4400	63.5271
4375	76.2797
4350	64.256
4325	64.2249
4300	64.5727
4275	64.7053
4250	64.549
4225	64.7849
4200	64.7521
4175	65.077
4150	65.3283
4125	65.4124
4100	65.2768
4075	65.0815
4050	65.3531
4025	65.2385
4000	65.0353
3975	65.0493
3950	65.1686
3925	65.0663
3900	65.0361
3875	64.949
3850	64.8576
3825	65.0001
3800	65.0759
3775	65.0962
3750	65.1247
3725	65.2176
3700	65.3029
3675	65.136
3650	65.2554
3625	65.175
3600	65.0753
3575	65.1476
3550	65.2752
3525	65.0948
3500	65.0396
3475	64.8097
3450	65.0019
3425	65.1103
3400	65.2673
3375	64.985
3350	65.1115
3325	65.0813
3300	65.0872
3275	65.1783
3250	65.1918
3225	65.1134
3200	65.0951
3175	65.2577
3150	65.1324
3125	65.0448
3100	65.1283
3075	65.0895
3050	65.1688
3025	65.1042
3000	65.234
2975	65.0519
2950	64.8503
2925	64.6731
2900	64.883
2875	64.8636
2850	64.8564
2825	65.2469
2800	65.2371
2775	65.2933
2750	65.2045
2725	65.3367
2700	65.2232
2675	65.0352
2650	65.2284
2625	65.2732
2600	65.1963
2575	65.1687
2550	65.2629
2525	65.1443
2500	65.3276
2475	65.0979
2450	65.0985
2425	65.1888
2400	65.2005
2375	65.1859
2350	65.2617
2325	65.1458
2300	65.2828
2275	65.1936
2250	65.2269
2225	65.2549
2200	65.1695
2175	65.2751
2150	65.2557
2125	65.2715
2100	65.2097
2075	65.212
2050	65.2367
2025	65.2183
2000	65.256
1975	65.2909
1950	65.3125
1925	65.2682
1900	65.2957
1875	65.1491
1850	65.2625
1825	65.2066
1800	65.2839
1775	65.2424
1750	65.1085
1725	64.9784
1700	65.1295
1675	65.2093
1650	65.119
1625	65.2056
1600	65.0082
1575	65.0216
1550	65.0053
1525	65.0255
1500	65.1691
1475	65.0679
1450	64.9671
1425	64.9467
1400	64.9316
1375	64.9346
1350	64.9405
1325	64.8859
1300	64.9461
1275	64.8173
1250	64.8054
1225	64.9582
1200	64.7926
1175	64.6875
1150	64.7527
1125	64.9088
1100	64.8148
1075	64.6541
1050	64.6194
1025	64.6269
1000	64.6257
975	 64.8521
950	 64.4558
925	 64.4558
900	 63.836
875	 64.7119
850	 64.4862
825	 64.4527
800	 64.0223
775	 63.8882
750	 63.587
725	 63.5424
700	 62.8977
675	 62.9087
650	 62.5606
625	 62.2768
600	 62.4754
575	 61.9382
550	 61.4236
525	 61.3106
500	 60.4544
475	 59.7663
450	 59.4234
425	 57.868
400	 58.4517
375	 77.374
370	 87.1398