File: Bakgrunnsmateriale/MATLAB/FTIR/ftir_data/subBb/Mapping_36/C-4040-8_t10.asc
PE IR       SPECTRUM    SPECTRUM    ASCII       PEDS        1.60
  -1
C-A92A~1.ASC
17/05/02
11:37:33.00
17/05/02
11:37:59.00
tln
$C-4040-8_t0010$<tbV0>[-2.5,-8.0,8.0,0.0,22,1,0]
27.028
64

2002,4.07
MIRTGS : RIGHTBACK : INTERNAL 2
MIR : ON : INTERNAL 2
OPTKBR

0.200000
8
8.000000
FILLER
RATIO
SPECTRUM
UNLOCKED 256

DOUBLE
64
COMBINED
1
0
0

0.002000
RATIO

1
0
TRUE
51149
0
LEFT NOT FITTED RIGHT NOT FITTED 0
NONE
NONE
15600
12
4.427000
51148
TRUE
1 0 8 72 0 0 0 0

15798

#HDR
-1
-1
#GR
µM
%T
2.38419e-05
0.0
1.282000
0.002000
12874
8
75.094
32.563
#DATA
1.282000	 67.7793
1.368000	 61.2952
1.454000	 63.0787
1.540000	 64.1464
1.626000	 62.8711
1.712000	 64.5338
1.798000	 64.0327
1.884000	 62.9623
1.970000	 63.9673
2.056000	 63.9187
2.142000	 63.9187
2.228000	 63.1126
2.314000	 63.1675
2.400000	 63.7867
2.486000	 63.5419
2.572000	 63.0107
2.658000	 63.2358
2.744000	 63.0104
2.830000	 62.4168
2.916000	 62.3614
3.002000	 61.9705
3.088000	 61.6702
3.174000	 61.3237
3.260000	 61.0391
3.346000	 60.6709
3.432000	 60.1073
3.518000	 59.9349
3.604000	 59.6762
3.690000	 59.3153
3.776000	 58.9802
3.862000	 58.7523
3.948000	 58.4302
4.034000	 58.0815
4.120000	 57.8569
4.206000	 57.4746
4.292000	 57.1582
4.378000	 56.7719
4.464000	 56.4953
4.550000	 56.1548
4.636000	 55.9545
4.722000	 55.6307
4.808000	 55.2054
4.894000	 54.9985
4.980000	 54.7704
5.066000	 54.5032
5.152000	 54.2534
5.238000	 54.1283
5.324000	 53.8562
5.410000	 53.5891
5.496000	 53.3951
5.582000	 53.1807
5.668000	 52.9666
5.754000	 52.6468
5.840000	 52.542
5.926000	 52.3544
6.012000	 52.1259
6.098000	 51.835
6.184000	 51.6261
6.270000	 51.393
6.356000	 51.2264
6.442000	 51.1354
6.528000	 50.8549
6.614000	 50.8124
6.700000	 50.651
6.786000	 50.393
6.872000	 50.3678
6.958000	 50.2145
7.044000	 50.0157
7.130000	 49.8618
7.216000	 49.7295
7.302000	 49.6361
7.388000	 49.3942
7.474000	 49.3726
7.560000	 49.047
7.646000	 49.0566
7.732000	 48.8685
7.818000	 48.7423
7.904000	 48.4915
7.990000	 48.4859
8.076000	 48.408
8.161999	 48.1558
8.248000	 48.1941
8.334000	 48.1353
8.420000	 47.8171
8.506000	 47.7854
8.592000	 47.7893
8.678000	 47.5404
8.763999	 47.3791
8.850000	 47.3087
8.936000	 47.3147
9.022000	 47.0935
9.108000	 46.9831
9.193999	 47.0085
9.280000	 46.859
9.366000	 46.6078
9.452000	 46.6015
9.538000	 46.7729
9.624000	 46.5825
9.710000	 46.2802
9.795999	 46.3863
9.882000	 46.3407
9.968000	 46.0484
10.054	46.1069
10.14	46.0127
10.226	45.6969
10.312	45.7696
10.398	45.6488
10.484	45.6285
10.57	45.5845
10.656	45.3327
10.742	45.4561
10.828	45.1685
10.914	45.1592
11	44.8925
11.086	44.6605
11.172	44.4326
11.258	44.2956
11.344	44.1264
11.43	44.3916
11.516	44.548
11.602	44.728
11.688	43.8969
11.774	43.7432
11.86	43.8193
11.946	44.0687
12.032	44.3843
12.118	43.9565
12.204	43.6856
12.29	43.7662
12.376	43.7948
12.462	43.8704
12.548	43.8111
12.634	43.625
12.72	43.4368
12.806	43.1288
12.892	43.078
12.978	43.1925
13.064	43.2351
13.15	43.1714
13.236	43.1142
13.322	42.9684
13.408	43.0519
13.494	42.9855
13.58	42.6919
13.666	42.5873
13.752	42.7002
13.838	42.7578
13.924	42.6316
14.01	42.5747
14.096	42.4258
14.182	42.1336
14.268	41.9467
14.354	41.9539
14.44	41.9124
14.526	41.71
14.612	41.5291
14.698	41.4042
14.784	41.2815
14.87	41.227
14.956	41.1215
15.042	40.8655
15.128	40.7779
15.214	40.9209
15.3	40.9678
15.386	40.9402
15.472	40.986
15.558	40.9413
15.644	40.7703
15.73	40.637
15.816	40.488
15.902	40.2331
15.988	39.9938
16.074	39.8926
16.16	39.8715
16.246	39.8087
16.332	39.7561
16.418	39.8619
16.504	40.03
16.59	40.0319
16.676	39.9151
16.762	39.8676
16.848	39.8373
16.934	39.646
17.02	39.3427
17.106	39.1495
17.192	39.1206
17.278	39.1034
17.364	38.9677
17.45	38.7049
17.536	38.3926
17.622	38.1653
17.708	38.1414
17.794	38.3157
17.88	38.5544
17.966	38.704
18.052	38.69
18.138	38.5412
18.224	38.3501
18.31	38.1846
18.396	38.0314
18.482	37.8455
18.568	37.6387
18.654	37.4848
18.74	37.4353
18.826	37.4576
18.912	37.4682
18.998	37.4064
19.084	37.2835
19.17	37.1875
19.256	37.187
19.342	37.2295
19.428	37.1761
19.514	36.949
19.6	36.6091
19.686	36.2902
19.772	36.0795
19.858	35.9798
19.944	35.9446
20.03	35.9111
20.116	35.8293
20.202	35.707
20.288	35.6057
20.374	35.5808
20.46	35.6266
20.546	35.6913
20.632	35.7215
20.718	35.6908
20.804	35.6045
20.89	35.49
20.976	35.3869
21.062	35.3321
21.148	35.3312
21.234	35.34
21.32	35.2799
21.406	35.0934
21.492	34.7942
21.578	34.4768
21.664	34.2737
21.75	34.2745
21.836	34.4679
21.922	34.7375
22.008	34.925
22.094	34.9243
22.18	34.7277
22.266	34.4145
22.352	34.0997
22.438	33.8739
22.524	33.7854
22.61	33.8455
22.696	34.0346
22.782	34.2967
22.868	34.5364
22.954	34.6344
23.04	34.5001
23.126	34.1232
23.212	33.5951
23.298	33.0731
23.384	32.7083
23.47	32.5657
23.556	32.6219
23.642	32.7729
23.728	32.9268
23.814	33.0246
23.9	33.0402
23.986	32.9802
24.072	32.8822
24.158	32.7971
24.244	32.7655
24.33	32.8248
24.416	33.0193
24.502	33.3561
24.588	33.7983
24.674	34.294
24.76	34.8178
24.846	35.34
24.932	35.8932
25.018	36.6125
25.104	37.7567
25.19	39.5315
25.276	41.9578
25.362	44.8598
25.448	47.7183
25.534	49.9224
25.62	50.9693
25.706	50.5554
25.792	48.7295
25.878	46.0169
25.964	43.5406
26.05	42.6741
26.136	44.2822
26.222	48.1091
26.308	52.5858
26.394	55.5589
26.48	55.481
26.566	52.087
26.652	46.7035
26.738	41.4342
26.824	38.3244
26.91	38.378
26.996	42.6936
27.028	44.4899