File: Bakgrunnsmateriale/MATLAB/FTIR/ftir_data/subBb/Mapping_36/C-4040-8_t10_cm-1.asc
PE IR       SPECTRUM    SPECTRUM    ASCII       PEDS        1.60
  -1
C-1A61~1.ASC
17/05/02
11:37:33.00
17/05/02
11:37:33.00
tln
$C-4040-8_t0010$<tbV0>[-2.5,-8.0,8.0,0.0,22,1,0]
370
64

2002,4.07
MIRTGS : RIGHTBACK : INTERNAL 2
MIR : ON : INTERNAL 2
OPTKBR

0.200000
8
8.000000
FILLER
RATIO
SPECTRUM
UNLOCKED 256

DOUBLE
64
COMBINED
1
0
0

1.000000
RATIO

1
0
TRUE
51149
0
LEFT NOT FITTED RIGHT NOT FITTED 0
NONE
NONE
15600
12
4.427000
51148
TRUE
1 0 8 72 0 0 0 0

15798

#HDR
-1
-1
#GR
CM-1
%T
2.38419e-05
0.0
7800
-1.000000
7431
8
75.0515
32.5642
#DATA
7800	67.7793
7775	65.0168
7750	63.1894
7725	68.7936
7700	65.6042
7675	64.7832
7650	63.652
7625	67.8409
7600	65.2721
7575	65.5829
7550	60.5667
7525	58.8718
7500	62.7059
7475	60.847
7450	62.6061
7425	64.977
7400	64.777
7375	61.6986
7350	60.9322
7325	61.1689
7300	64.3689
7275	64.7451
7250	62.8926
7225	67.0101
7200	61.6883
7175	63.3887
7150	61.3647
7125	64.1407
7100	65.8036
7075	63.9555
7050	64.4368
7025	63.8552
7000	64.927
6975	64.5186
6950	63.3856
6925	65.0032
6900	64.7274
6875	63.0851
6850	64.3725
6825	63.5304
6800	63.717
6775	63.1289
6750	64.0409
6725	62.9478
6700	64.8801
6675	62.989
6650	63.7952
6625	62.4515
6600	65.3714
6575	65.1345
6550	62.5198
6525	65.4909
6500	62.6899
6475	63.8995
6450	64.6563
6425	62.849
6400	63.2298
6375	65.3829
6350	63.6676
6325	63.5333
6300	63.029
6275	64.4539
6250	64.6167
6225	64.9701
6200	64.2847
6175	63.9852
6150	62.865
6125	63.7671
6100	64.2737
6075	63.2372
6050	64.5864
6025	64.5798
6000	64.5673
5975	64.9088
5950	62.4423
5925	62.7856
5900	63.6246
5875	64.1573
5850	64.3574
5825	64.4967
5800	64.6149
5775	63.778
5750	62.9864
5725	63.6168
5700	63.4822
5675	63.804
5650	63.8514
5625	64.2787
5600	64.0178
5575	64.5799
5550	64.3117
5525	63.7274
5500	64.3367
5475	63.7675
5450	63.8354
5425	63.0387
5400	63.7724
5375	64.0115
5350	64.3165
5325	64.6512
5300	64.3572
5275	63.0406
5250	67.2551
5225	62.9089
5200	64.8834
5175	65.1464
5150	62.9886
5125	64.6073
5100	63.9468
5075	63.915
5050	63.7286
5025	63.9729
5000	64.028
4975	63.9965
4950	64.0323
4925	64.2985
4900	63.9359
4875	63.8945
4850	63.5102
4825	64.1566
4800	64.2284
4775	64.2653
4750	64.1456
4725	64.0484
4700	64.1263
4675	63.8598
4650	64.0342
4625	64.037
4600	63.9775
4575	63.8351
4550	64.1421
4525	63.2576
4500	63.2919
4475	63.0784
4450	63.6521
4425	63.4453
4400	67.543
4375	64.2295
4350	63.2432
4325	62.9523
4300	63.0821
4275	63.376
4250	63.5616
4225	63.5173
4200	63.6552
4175	63.2077
4150	63.5478
4125	63.8576
4100	63.7203
4075	63.9057
4050	63.6748
4025	63.4987
4000	63.48
3975	63.5174
3950	63.3518
3925	63.1383
3900	63.34
3875	63.5916
3850	63.1219
3825	63.218
3800	63.4635
3775	63.0199
3750	63.1192
3725	62.9948
3700	62.8693
3675	63.0542
3650	63.0949
3625	62.7988
3600	62.7792
3575	62.7838
3550	62.5332
3525	62.507
3500	62.5154
3475	62.3259
3450	62.3458
3425	62.2806
3400	62.1661
3375	62.1402
3350	62.0602
3325	61.8757
3300	61.8129
3275	61.7372
3250	61.5449
3225	61.5127
3200	61.5521
3175	61.4371
3150	61.3199
3125	61.171
3100	61.1851
3075	60.9545
3050	61.0264
3025	60.9036
3000	60.6996
2975	60.4891
2950	60.3775
2925	60.1155
2900	60.115
2875	59.9819
2850	60.023
2825	59.8899
2800	59.778
2775	59.682
2750	59.5556
2725	59.5144
2700	59.316
2675	59.1054
2650	59.0355
2625	58.7474
2600	58.8298
2575	58.5251
2550	58.3955
2525	58.4135
2500	58.2956
2475	58.0709
2450	57.9306
2425	57.8396
2400	57.5545
2375	57.4458
2350	57.2069
2325	57.0569
2300	56.9298
2275	56.6291
2250	56.5392
2225	56.4267
2200	56.1494
2175	55.9981
2150	55.9703
2125	55.6659
2100	55.5599
2075	55.3003
2050	55.1646
2025	54.8961
2000	54.742
1975	54.5197
1950	54.3206
1925	54.2631
1900	54.1144
1875	53.848
1850	53.5966
1825	53.4499
1800	53.2213
1775	52.9769
1750	52.7751
1725	52.4218
1700	52.4326
1675	52.2087
1650	51.9245
1625	51.7042
1600	51.4509
1575	51.2771
1550	51.1097
1525	50.879
1500	50.706
1475	50.4043
1450	50.269
1425	50.0556
1400	49.8465
1375	49.6877
1350	49.371
1325	49.0896
1300	48.9774
1275	48.7099
1250	48.4608
1225	48.1519
1200	48.1365
1175	47.7808
1150	47.5314
1125	47.306
1100	46.9788
1075	46.8152
1050	46.7439
1025	46.2938
1000	46.0397
975	 45.6961
950	 45.6133
925	 45.1857
900	 44.605
875	 44.3886
850	 43.7201
825	 43.9348
800	 43.8831
775	 43.092
750	 42.9641
725	 42.7574
700	 41.9366
675	 41.2534
650	 40.94
625	 39.9707
600	 39.9263
575	 38.8955
550	 38.4431
525	 37.3384
500	 35.9266
475	 35.3351
450	 34.5814
425	 32.589
400	 36.4346
375	 45.7555
370	 44.4899