File: Bakgrunnsmateriale/MATLAB/FTIR/ftir_data/subBb/Mapping_36/C-4040-8_t24_cm-1.asc
PE IR       SPECTRUM    SPECTRUM    ASCII       PEDS        1.60
  -1
C-9A6F~1.ASC
17/05/02
12:50:44.00
17/05/02
12:50:44.00
tln
$C-4040-8_t0024$<tbV0>[-12.5,2.0,8.0,0.0,22,1,0]
370
64

2002,4.07
MIRTGS : RIGHTBACK : INTERNAL 2
MIR : ON : INTERNAL 2
OPTKBR

0.200000
8
8.000000
FILLER
RATIO
SPECTRUM
UNLOCKED 256

DOUBLE
64
COMBINED
1
0
0

1.000000
RATIO

1
0
TRUE
51149
0
LEFT NOT FITTED RIGHT NOT FITTED 0
NONE
NONE
15600
12
4.427000
51148
TRUE
1 0 8 72 0 0 0 0

15798

#HDR
-1
-1
#GR
CM-1
%T
2.38419e-05
0.0
7800
-1.000000
7431
8
85.8146
43.5031
#DATA
7800	61.5177
7775	60.3098
7750	62.8462
7725	70.8089
7700	66.9053
7675	76.3035
7650	68.2858
7625	68.1983
7600	68.6866
7575	62.2546
7550	66.0656
7525	68.0789
7500	65.1316
7475	67.469
7450	64.333
7425	65.559
7400	65.862
7375	65.6768
7350	66.3859
7325	69.8387
7300	68.856
7275	63.9826
7250	66.4283
7225	62.6841
7200	63.8969
7175	67.0899
7150	64.7829
7125	63.3911
7100	64.0085
7075	64.1412
7050	62.7613
7025	70.4691
7000	63.7297
6975	64.5036
6950	63.6322
6925	65.9008
6900	64.3353
6875	63.526
6850	62.2638
6825	64.7361
6800	64.131
6775	62.7599
6750	61.6514
6725	62.992
6700	64.061
6675	64.3527
6650	63.7097
6625	66.8208
6600	65.3269
6575	64.8116
6550	65.2588
6525	64.8091
6500	67.4314
6475	66.098
6450	65.8657
6425	62.7642
6400	65.2827
6375	63.9033
6350	64.9013
6325	65.4238
6300	64.5605
6275	63.6998
6250	63.9271
6225	64.0618
6200	65.0799
6175	64.6719
6150	65.5625
6125	66.1015
6100	63.9296
6075	64.8138
6050	65.4927
6025	64.9219
6000	66.4357
5975	64.6763
5950	64.6975
5925	65.1814
5900	64.3899
5875	64.7342
5850	64.5425
5825	64.6001
5800	64.6397
5775	64.6065
5750	65.5344
5725	64.9963
5700	65.2435
5675	65.2598
5650	64.6482
5625	66.3023
5600	64.9418
5575	64.7905
5550	65.0052
5525	66.5177
5500	65.3827
5475	65.0939
5450	64.9077
5425	64.9794
5400	64.7629
5375	65.1835
5350	64.2346
5325	63.545
5300	61.5569
5275	66.3052
5250	67.5231
5225	65.6389
5200	64.8777
5175	64.9972
5150	65.1837
5125	65.0218
5100	64.5677
5075	64.8756
5050	65.0349
5025	65.0551
5000	65.292
4975	64.7192
4950	64.7969
4925	64.8758
4900	64.9205
4875	64.6053
4850	65.0592
4825	65.0675
4800	64.9925
4775	65.2583
4750	65.0513
4725	65.3604
4700	65.3824
4675	65.295
4650	65.1289
4625	65.0822
4600	64.9539
4575	64.4349
4550	64.5326
4525	64.3239
4500	64.5157
4475	64.7125
4450	64.6486
4425	64.5426
4400	63.14
4375	66.1828
4350	64.7914
4325	64.4142
4300	64.6407
4275	64.8307
4250	64.799
4225	64.7752
4200	64.6052
4175	64.9639
4150	65.0087
4125	65.2749
4100	65.3467
4075	65.2362
4050	65.341
4025	65.3685
4000	64.9981
3975	65.383
3950	65.133
3925	65.0047
3900	64.9566
3875	65.0878
3850	65.301
3825	65.0527
3800	65.0807
3775	65.1147
3750	65.3038
3725	65.1718
3700	65.2222
3675	65.3211
3650	65.1349
3625	65.3815
3600	65.2712
3575	65.5488
3550	65.2446
3525	65.0669
3500	64.8475
3475	65.169
3450	65.2414
3425	65.1027
3400	65.1908
3375	65.2115
3350	64.9559
3325	65.0407
3300	65.22
3275	65.1623
3250	65.1513
3225	65.0424
3200	65.0566
3175	65.1938
3150	65.1993
3125	65.3114
3100	65.2425
3075	65.2494
3050	65.2734
3025	65.2607
3000	65.1773
2975	65.0558
2950	64.9122
2925	64.8947
2900	65.0166
2875	65.1551
2850	64.9011
2825	65.2098
2800	65.2326
2775	65.2103
2750	65.2575
2725	65.2961
2700	65.2384
2675	65.2297
2650	65.2872
2625	65.3064
2600	65.3651
2575	65.2571
2550	65.2381
2525	65.2863
2500	65.2615
2475	65.3758
2450	65.2945
2425	65.2213
2400	65.3077
2375	65.3363
2350	65.2929
2325	65.3668
2300	65.3869
2275	65.3735
2250	65.3181
2225	65.2156
2200	65.3462
2175	65.3594
2150	65.3677
2125	65.3021
2100	65.2033
2075	65.3887
2050	65.2468
2025	65.3437
2000	65.3155
1975	65.4163
1950	65.3399
1925	65.2715
1900	65.3474
1875	65.356
1850	65.3486
1825	65.3342
1800	65.2808
1775	65.4321
1750	65.2229
1725	65.0677
1700	65.304
1675	65.1528
1650	65.2583
1625	65.1741
1600	65.1896
1575	65.1026
1550	65.1666
1525	65.1397
1500	65.209
1475	65.1599
1450	65.0958
1425	65.1289
1400	65.2118
1375	65.0661
1350	65.0835
1325	65.1115
1300	64.9623
1275	65.0121
1250	65.0558
1225	65.1001
1200	64.9762
1175	65.0378
1150	64.8988
1125	64.8835
1100	64.9013
1075	64.7307
1050	64.7546
1025	64.9141
1000	64.8347
975	 64.7662
950	 64.8015
925	 64.9002
900	 64.334
875	 65.0581
850	 64.3609
825	 64.6188
800	 63.9716
775	 64.0975
750	 64.1455
725	 63.8983
700	 63.5315
675	 63.4037
650	 63.3592
625	 63.1395
600	 63.1989
575	 62.5139
550	 63.0678
525	 62.7841
500	 61.7949
475	 61.699
450	 60.1386
425	 58.8115
400	 56.7181
375	 53.5368
370	 61.0647