File: Bakgrunnsmateriale/MATLAB/FTIR/ftir_data/subBb/Mapping_36/C-4040-8_e37.asc
PE IR       SPECTRUM    SPECTRUM    ASCII       PEDS        1.60
  -1
C-4040~2.ASC
17/05/02
10:48:50.00
17/05/02
10:49:17.00
tln
$C-4040-8_e0037$<ebV0>[-23.3,12.1,10.0,0.0,22,1,0]
27.028
64

2002,4.07
MIRTGS : RIGHTBACK : INTERNAL 2
MIR : ON : INTERNAL 2
OPTKBR

0.200000
8
8.000000
FILLER
SINGLE
SPECTRUM
UNLOCKED 256

DOUBLE

COMBINED
1
0
0

0.002000
BACKG

1
0
TRUE
51149
0
LEFT NOT FITTED RIGHT NOT FITTED 0
NONE
NONE
15600
12
4.427000
51148
TRUE
1 0 8 72 0 0 0 0

15798

#HDR
-1
-1
#GR
µM
EGY
2.38419e-05
0.0
1.282000
0.002000
12874
8
2.447628
0.006937
#DATA
1.282000	 0.034904
1.368000	 0.104510
1.454000	 0.167507
1.540000	 0.217805
1.626000	 0.308670
1.712000	 0.394140
1.798000	 0.459708
1.884000	 0.578850
1.970000	 0.720456
2.056000	 0.828776
2.142000	 0.907036
2.228000	 1.003948
2.314000	 1.097580
2.400000	 1.208921
2.486000	 1.363915
2.572000	 1.440432
2.658000	 1.551011
2.744000	 1.576480
2.830000	 1.622439
2.916000	 1.581553
3.002000	 1.671598
3.088000	 1.775963
3.174000	 1.805422
3.260000	 1.923262
3.346000	 2.024755
3.432000	 1.878001
3.518000	 2.049604
3.604000	 2.219768
3.690000	 2.249065
3.776000	 2.222767
3.862000	 2.233711
3.948000	 2.301473
4.034000	 2.319443
4.120000	 2.275744
4.206000	 2.244866
4.292000	 2.278619
4.378000	 2.353262
4.464000	 2.374046
4.550000	 2.354680
4.636000	 2.329103
4.722000	 2.333184
4.808000	 2.341800
4.894000	 2.408833
4.980000	 2.444605
5.066000	 2.436187
5.152000	 2.408001
5.238000	 2.375693
5.324000	 2.368305
5.410000	 2.384443
5.496000	 2.409191
5.582000	 2.416308
5.668000	 2.401471
5.754000	 2.325537
5.840000	 2.290103
5.926000	 2.240579
6.012000	 2.204871
6.098000	 2.145127
6.184000	 2.039065
6.270000	 2.003672
6.356000	 1.973020
6.442000	 1.939750
6.528000	 2.075202
6.614000	 2.081017
6.700000	 1.670779
6.786000	 1.968336
6.872000	 1.785425
6.958000	 1.857419
7.044000	 1.847834
7.130000	 1.719516
7.216000	 1.779270
7.302000	 1.810089
7.388000	 1.810054
7.474000	 1.811392
7.560000	 1.844686
7.646000	 1.848674
7.732000	 1.848258
7.818000	 1.838511
7.904000	 1.724831
7.990000	 1.794920
8.076000	 1.827905
8.161999	 1.812947
8.248000	 1.756685
8.334000	 1.738007
8.420000	 1.726820
8.506000	 1.693021
8.592000	 1.642271
8.678000	 1.607613
8.763999	 1.586509
8.850000	 1.545657
8.936000	 1.489870
9.022000	 1.437337
9.108000	 1.420215
9.193999	 1.421600
9.280000	 1.420593
9.366000	 1.431738
9.452000	 1.395413
9.538000	 1.297814
9.624000	 1.375788
9.710000	 1.367317
9.795999	 1.354862
9.882000	 1.370713
9.968000	 1.390758
10.054	1.390025
10.14	1.381354
10.226	1.366259
10.312	1.344632
10.398	1.315914
10.484	1.288785
10.57	1.266682
10.656	1.251509
10.742	1.234622
10.828	1.219206
10.914	1.197436
11	1.170144
11.086	1.151598
11.172	1.143154
11.258	1.119648
11.344	1.060273
11.43	1.022418
11.516	1.054683
11.602	1.087827
11.688	1.090894
11.774	1.078066
11.86	1.069818
11.946	1.031972
12.032	0.942426
12.118	0.852574
12.204	0.875380
12.29	0.932910
12.376	0.946148
12.462	0.938838
12.548	0.942113
12.634	0.956577
12.72	0.970553
12.806	0.976581
12.892	0.973327
12.978	0.967378
13.064	0.962675
13.15	0.958661
13.236	0.953048
13.322	0.946897
13.408	0.939226
13.494	0.930700
13.58	0.921234
13.666	0.909692
13.752	0.896644
13.838	0.882660
13.924	0.868982
14.01	0.856258
14.096	0.843875
14.182	0.831294
14.268	0.814979
14.354	0.791470
14.44	0.760460
14.526	0.734564
14.612	0.728391
14.698	0.731667
14.784	0.729718
14.87	0.721953
14.956	0.712738
15.042	0.703986
15.128	0.695218
15.214	0.686200
15.3	0.677059
15.386	0.667290
15.472	0.657238
15.558	0.648472
15.644	0.640218
15.73	0.630359
15.816	0.619936
15.902	0.610989
15.988	0.602945
16.074	0.594205
16.16	0.583572
16.246	0.570383
16.332	0.554614
16.418	0.538035
16.504	0.525294
16.59	0.520007
16.676	0.519734
16.762	0.519231
16.848	0.516358
16.934	0.512181
17.02	0.508219
17.106	0.505080
17.192	0.502941
17.278	0.501012
17.364	0.498409
17.45	0.495200
17.536	0.492043
17.622	0.488794
17.708	0.484914
17.794	0.480343
17.88	0.475541
17.966	0.470614
18.052	0.465767
18.138	0.461338
18.224	0.457467
18.31	0.453828
18.396	0.449925
18.482	0.445422
18.568	0.440399
18.654	0.435367
18.74	0.430409
18.826	0.425349
18.912	0.419766
18.998	0.413780
19.084	0.407645
19.17	0.401716
19.256	0.396115
19.342	0.390861
19.428	0.385819
19.514	0.380810
19.6	0.375631
19.686	0.370250
19.772	0.364550
19.858	0.358217
19.944	0.351088
20.03	0.343341
20.116	0.335475
20.202	0.327994
20.288	0.321072
20.374	0.314377
20.46	0.307667
20.546	0.300661
20.632	0.293282
20.718	0.285791
20.804	0.278506
20.89	0.271630
20.976	0.265178
21.062	0.259140
21.148	0.253409
21.234	0.247934
21.32	0.242454
21.406	0.236836
21.492	0.230869
21.578	0.224443
21.664	0.217646
21.75	0.210576
21.836	0.203425
21.922	0.196409
22.008	0.189819
22.094	0.183781
22.18	0.178317
22.266	0.173446
22.352	0.168983
22.438	0.164748
22.524	0.160501
22.61	0.156146
22.696	0.151650
22.782	0.147014
22.868	0.142246
22.954	0.137329
23.04	0.132267
23.126	0.127076
23.212	0.121779
23.298	0.116509
23.384	0.111283
23.47	0.106173
23.556	0.101218
23.642	0.096414
23.728	0.091757
23.814	0.087241
23.9	0.082750
23.986	0.078317
24.072	0.073958
24.158	0.069742
24.244	0.065856
24.33	0.062380
24.416	0.059335
24.502	0.056644
24.588	0.054133
24.674	0.051657
24.76	0.049046
24.846	0.046268
24.932	0.043349
25.018	0.040327
25.104	0.037349
25.19	0.034512
25.276	0.031870
25.362	0.029459
25.448	0.027306
25.534	0.025381
25.62	0.023677
25.706	0.022188
25.792	0.020802
25.878	0.019440
25.964	0.018045
26.05	0.016618
26.136	0.015086
26.222	0.013493
26.308	0.011934
26.394	0.010578
26.48	0.009490
26.566	0.008681
26.652	0.008170
26.738	0.007843
26.824	0.007615
26.91	0.007374
26.996	0.007042
27.028	0.006937