File: Bakgrunnsmateriale/MATLAB/FTIR/ftir_data/subBb/Mapping_36/C-4040-8_t06.asc
PE IR       SPECTRUM    SPECTRUM    ASCII       PEDS        1.60
  -1
C-B522~1.ASC
17/05/02
11:18:12.00
17/05/02
11:18:38.00
tln
$C-4040-8_t0006$<tbV0>[-12.5,-13.0,8.0,0.0,22,1,0]
27.028
64

2002,4.07
MIRTGS : RIGHTBACK : INTERNAL 2
MIR : ON : INTERNAL 2
OPTKBR

0.200000
8
8.000000
FILLER
RATIO
SPECTRUM
UNLOCKED 256

DOUBLE
64
COMBINED
1
0
0

0.002000
RATIO

1
0
TRUE
51149
0
LEFT NOT FITTED RIGHT NOT FITTED 0
NONE
NONE
15600
12
4.427000
51148
TRUE
1 0 8 72 0 0 0 0

15798

#HDR
-1
-1
#GR
µM
%T
2.38419e-05
0.0
1.282000
0.002000
12874
8
73.7856
24.2776
#DATA
1.282000	 70.3139
1.368000	 64.2242
1.454000	 63.9665
1.540000	 66.2541
1.626000	 63.6215
1.712000	 64.246
1.798000	 64.5418
1.884000	 64.5608
1.970000	 64.3357
2.056000	 64.4749
2.142000	 64.7696
2.228000	 64.7429
2.314000	 64.8642
2.400000	 64.5436
2.486000	 64.0314
2.572000	 64.2307
2.658000	 64.1089
2.744000	 64.0064
2.830000	 63.6232
2.916000	 63.5901
3.002000	 63.1721
3.088000	 63.0317
3.174000	 62.8541
3.260000	 62.7917
3.346000	 62.3829
3.432000	 61.9046
3.518000	 61.988
3.604000	 61.858
3.690000	 61.6691
3.776000	 61.239
3.862000	 61.1256
3.948000	 60.9102
4.034000	 60.7696
4.120000	 60.5891
4.206000	 60.3507
4.292000	 60.1678
4.378000	 60.0275
4.464000	 59.8181
4.550000	 59.5267
4.636000	 59.5587
4.722000	 59.1662
4.808000	 59.0739
4.894000	 58.9194
4.980000	 58.7272
5.066000	 58.5965
5.152000	 58.4616
5.238000	 58.4107
5.324000	 58.1692
5.410000	 57.9652
5.496000	 57.9365
5.582000	 57.6775
5.668000	 57.5524
5.754000	 57.2987
5.840000	 57.2957
5.926000	 57.2031
6.012000	 57.1899
6.098000	 56.9727
6.184000	 56.8835
6.270000	 56.6429
6.356000	 56.5473
6.442000	 56.3459
6.528000	 56.183
6.614000	 56.1404
6.700000	 56.1556
6.786000	 55.8647
6.872000	 56.0256
6.958000	 55.835
7.044000	 55.7414
7.130000	 55.4612
7.216000	 55.4036
7.302000	 55.5041
7.388000	 55.3925
7.474000	 55.3024
7.560000	 55.2257
7.646000	 54.9688
7.732000	 54.922
7.818000	 54.7233
7.904000	 54.6835
7.990000	 54.6368
8.076000	 54.5016
8.161999	 54.5468
8.248000	 54.4804
8.334000	 54.4319
8.420000	 54.2392
8.506000	 54.2616
8.592000	 54.1959
8.678000	 54.1705
8.763999	 53.9517
8.850000	 53.9452
8.936000	 53.8625
9.022000	 53.7202
9.108000	 54.0135
9.193999	 53.9163
9.280000	 53.5606
9.366000	 53.5653
9.452000	 53.3341
9.538000	 53.2716
9.624000	 53.4562
9.710000	 53.3247
9.795999	 53.3174
9.882000	 53.1829
9.968000	 53.0588
10.054	53.146
10.14	52.705
10.226	52.8481
10.312	52.7328
10.398	52.6479
10.484	52.5442
10.57	52.5935
10.656	52.5317
10.742	52.4052
10.828	52.3485
10.914	52.68
11	52.6654
11.086	52.6476
11.172	52.6687
11.258	52.406
11.344	51.8115
11.43	51.6967
11.516	51.5885
11.602	51.7546
11.688	51.6296
11.774	52.0724
11.86	51.1185
11.946	51.2908
12.032	51.2743
12.118	51.3007
12.204	51.8626
12.29	51.5532
12.376	51.316
12.462	51.5237
12.548	51.306
12.634	51.1406
12.72	50.9107
12.806	50.7548
12.892	50.8101
12.978	50.9504
13.064	50.9077
13.15	50.7906
13.236	51.031
13.322	51.0393
13.408	50.6633
13.494	50.3821
13.58	50.5009
13.666	50.5576
13.752	50.4801
13.838	50.489
13.924	50.4162
14.01	50.0991
14.096	49.8123
14.182	49.5837
14.268	49.4649
14.354	49.536
14.44	49.6098
14.526	49.6321
14.612	49.6599
14.698	49.7073
14.784	49.6927
14.87	49.6634
14.956	49.6833
15.042	49.6289
15.128	49.4299
15.214	49.1869
15.3	48.9425
15.386	48.7639
15.472	48.7272
15.558	48.659
15.644	48.5618
15.73	48.6837
15.816	48.9429
15.902	49.1096
15.988	49.1258
16.074	48.9781
16.16	48.7576
16.246	48.6501
16.332	48.6615
16.418	48.6462
16.504	48.5751
16.59	48.5138
16.676	48.4575
16.762	48.3982
16.848	48.43
16.934	48.5144
17.02	48.4025
17.106	48.0296
17.192	47.6271
17.278	47.3806
17.364	47.2949
17.45	47.3658
17.536	47.5885
17.622	47.8224
17.708	47.9147
17.794	47.8781
17.88	47.7655
17.966	47.5472
18.052	47.2535
18.138	47.0398
18.224	46.9834
18.31	46.9837
18.396	46.9369
18.482	46.8776
18.568	46.8766
18.654	46.9245
18.74	46.9573
18.826	46.9195
18.912	46.7775
18.998	46.5417
19.084	46.2998
19.17	46.1652
19.256	46.1561
19.342	46.161
19.428	46.0511
19.514	45.8047
19.6	45.5053
19.686	45.2541
19.772	45.1062
19.858	45.0649
19.944	45.0861
20.03	45.089
20.116	44.9988
20.202	44.8137
20.288	44.625
20.374	44.5527
20.46	44.6455
20.546	44.8426
20.632	45.0216
20.718	45.0906
20.804	45.0456
20.89	44.9523
20.976	44.8752
21.062	44.8319
21.148	44.8017
21.234	44.7563
21.32	44.6681
21.406	44.5037
21.492	44.2415
21.578	43.9035
21.664	43.564
21.75	43.3129
21.836	43.2066
21.922	43.2306
22.008	43.3008
22.094	43.3177
22.18	43.2253
22.266	43.038
22.352	42.8212
22.438	42.6343
22.524	42.5009
22.61	42.4073
22.696	42.3378
22.782	42.2908
22.868	42.2674
22.954	42.2447
23.04	42.1678
23.126	41.9744
23.212	41.673
23.298	41.3442
23.384	41.1293
23.47	41.1354
23.556	41.3706
23.642	41.7504
23.728	42.1329
23.814	42.4139
23.9	42.5772
23.986	42.6888
24.072	42.8513
24.158	43.1549
24.244	43.5935
24.33	44.0551
24.416	44.3944
24.502	44.4268
24.588	44.0238
24.674	43.1497
24.76	41.8225
24.846	40.1162
24.932	38.1474
25.018	36.0645
25.104	34.076
25.19	32.283
25.276	30.6553
25.362	29.1174
25.448	27.6178
25.534	26.2042
25.62	25.04
25.706	24.3694
25.792	24.3711
25.878	25.1885
25.964	27.0707
26.05	30.3253
26.136	35.1041
26.222	41.1798
26.308	47.7706
26.394	53.7715
26.48	58.194
26.566	60.5986
26.652	61.3803
26.738	61.4652
26.824	61.981
26.91	63.8238
26.996	68.1024
27.028	69.6568