File: Bakgrunnsmateriale/MATLAB/FTIR/ftir_data/subBb/Mapping_36/C-4040-8_t11_cm-1.asc
PE IR       SPECTRUM    SPECTRUM    ASCII       PEDS        1.60
  -1
C-1AE4~1.ASC
17/05/02
11:42:14.00
17/05/02
11:42:14.00
tln
$C-4040-8_t0011$<tbV0>[-7.5,-8.0,8.0,0.0,22,1,0]
370
64

2002,4.07
MIRTGS : RIGHTBACK : INTERNAL 2
MIR : ON : INTERNAL 2
OPTKBR

0.200000
8
8.000000
FILLER
RATIO
SPECTRUM
UNLOCKED 256

DOUBLE
64
COMBINED
1
0
0

1.000000
RATIO

1
0
TRUE
51149
0
LEFT NOT FITTED RIGHT NOT FITTED 0
NONE
NONE
15600
12
4.427000
51148
TRUE
1 0 8 72 0 0 0 0

15798

#HDR
-1
-1
#GR
CM-1
%T
2.38419e-05
0.0
7800
-1.000000
7431
8
76.4695
19.314
#DATA
7800	64.5421
7775	66.1581
7750	65.9117
7725	58.9696
7700	69.7824
7675	71.0702
7650	65.5064
7625	62.5483
7600	61.5861
7575	64.8542
7550	60.978
7525	61.6277
7500	63.4035
7475	58.623
7450	61.2782
7425	64.7295
7400	65.8262
7375	60.7894
7350	61.3558
7325	64.3003
7300	64.988
7275	68.0357
7250	69.4601
7225	65.8693
7200	66.7924
7175	66.7523
7150	62.062
7125	64.1298
7100	63.7181
7075	65.6603
7050	64.3331
7025	62.8293
7000	65.7567
6975	64.4655
6950	65.0345
6925	63.8672
6900	64.1631
6875	63.9106
6850	64.1939
6825	64.6975
6800	62.8342
6775	65.7933
6750	64.2528
6725	65.0177
6700	63.7242
6675	64.2544
6650	61.371
6625	61.8663
6600	64.5013
6575	64.8742
6550	63.7602
6525	64.4067
6500	64.3974
6475	65.4063
6450	63.8968
6425	63.3481
6400	64.2422
6375	65.0121
6350	64.5311
6325	63.4055
6300	64.2693
6275	64.3777
6250	63.5008
6225	63.7734
6200	64.7112
6175	64.7705
6150	64.9259
6125	64.2611
6100	64.9707
6075	63.4437
6050	64.2487
6025	64.5706
6000	64.3238
5975	64.9711
5950	63.6636
5925	64.1622
5900	64.2269
5875	64.276
5850	64.3746
5825	64.1783
5800	64.5139
5775	63.9693
5750	64.0673
5725	63.693
5700	64.4296
5675	64.3736
5650	64.2883
5625	64.1514
5600	64.03
5575	64.5411
5550	64.3714
5525	64.1343
5500	64.6677
5475	64.5627
5450	64.1718
5425	64.4498
5400	63.5557
5375	64.5156
5350	63.4784
5325	64.999
5300	63.9678
5275	66.3074
5250	64.5135
5225	62.7508
5200	64.0702
5175	65.7042
5150	63.1874
5125	64.3011
5100	64.0198
5075	64.2344
5050	64.5595
5025	63.6924
5000	63.9402
4975	64.2367
4950	64.0115
4925	63.9491
4900	64.2963
4875	64.232
4850	63.7519
4825	64.1922
4800	64.0312
4775	63.966
4750	64.2395
4725	63.6514
4700	64.4701
4675	64.3565
4650	64.1074
4625	64.2131
4600	63.8903
4575	64.1739
4550	64.1641
4525	63.9604
4500	64.1714
4475	64.128
4450	64.4705
4425	63.5005
4400	72.7394
4375	64.502
4350	64.5019
4325	63.8588
4300	63.5955
4275	63.8362
4250	63.8132
4225	63.8201
4200	63.2923
4175	63.4827
4150	63.48
4125	63.4071
4100	63.2539
4075	63.2758
4050	63.2572
4025	63.0507
4000	63.0136
3975	63.0764
3950	63.3912
3925	62.9637
3900	63.1524
3875	63.2966
3850	62.8533
3825	62.9691
3800	62.9066
3775	62.5905
3750	62.7015
3725	62.6792
3700	62.5161
3675	62.5231
3650	62.3638
3625	62.2214
3600	62.2959
3575	62.0767
3550	61.7444
3525	61.8004
3500	61.6739
3475	61.4626
3450	61.6488
3425	61.4993
3400	61.2533
3375	61.2622
3350	61.0775
3325	60.9536
3300	60.6549
3275	60.5607
3250	60.6657
3225	60.2593
3200	60.2271
3175	60.1743
3150	60.0859
3125	59.9647
3100	59.7423
3075	59.6647
3050	59.5204
3025	59.3976
3000	59.0615
2975	59.0621
2950	58.7576
2925	58.3976
2900	58.4294
2875	58.2566
2850	58.1879
2825	58.0345
2800	57.9421
2775	57.8282
2750	57.5819
2725	57.3479
2700	57.2398
2675	56.929
2650	56.8286
2625	56.5579
2600	56.3984
2575	56.2713
2550	56.0441
2525	55.7797
2500	55.7164
2475	55.5019
2450	55.1543
2425	55.0946
2400	54.8269
2375	54.4561
2350	54.3626
2325	54.1162
2300	53.9092
2275	53.6781
2250	53.3488
2225	53.1934
2200	52.9038
2175	52.6207
2150	52.502
2125	52.2239
2100	51.91
2075	51.883
2050	51.4936
2025	51.118
2000	50.9582
1975	50.6392
1950	50.4066
1925	50.2721
1900	49.928
1875	49.6628
1850	49.3351
1825	49.2308
1800	48.9703
1775	48.6258
1750	48.3223
1725	47.9487
1700	47.9192
1675	47.5831
1650	47.317
1625	46.9894
1600	46.8437
1575	46.5752
1550	46.224
1525	45.9101
1500	45.7257
1475	45.385
1450	44.9119
1425	44.7209
1400	44.6306
1375	44.3093
1350	43.9988
1325	43.856
1300	43.4313
1275	43.2385
1250	42.9337
1225	42.5007
1200	42.4078
1175	42.0442
1150	41.8264
1125	41.5446
1100	41.1251
1075	40.7594
1050	40.5211
1025	40.2707
1000	40.0048
975	 39.4757
950	 39.0714
925	 39.1031
900	 38.6252
875	 37.9848
850	 37.1197
825	 37.377
800	 37.3237
775	 36.5908
750	 35.9461
725	 35.2943
700	 34.6911
675	 34.1744
650	 33.6145
625	 32.7327
600	 32.1083
575	 30.8038
550	 30.4808
525	 29.146
500	 28.6616
475	 27.541
450	 25.685
425	 25.0253
400	 21.9085
375	 39.1163
370	 41.4027