File: Bakgrunnsmateriale/MATLAB/FTIR/ftir_data/subBb/Mapping_36/C-4040-8_t02.asc
PE IR       SPECTRUM    SPECTRUM    ASCII       PEDS        1.60
  -1
C-A522~1.ASC
17/05/02
10:59:27.00
17/05/02
10:59:53.00
tln
$C-4040-8_t0002$<tbV0>[7.5,-13.0,8.0,0.0,22,1,0]
27.028
64

2002,4.07
MIRTGS : RIGHTBACK : INTERNAL 2
MIR : ON : INTERNAL 2
OPTKBR

0.200000
8
8.000000
FILLER
RATIO
SPECTRUM
UNLOCKED 256

DOUBLE
64
COMBINED
1
0
0

0.002000
RATIO

1
0
TRUE
51149
0
LEFT NOT FITTED RIGHT NOT FITTED 0
NONE
NONE
15600
12
4.427000
51148
TRUE
1 0 8 72 0 0 0 0

15798

#HDR
-1
-1
#GR
µM
%T
2.38419e-05
0.0
1.282000
0.002000
12874
8
70.9828
12.3582
#DATA
1.282000	 64.4936
1.368000	 61.0991
1.454000	 64.1893
1.540000	 64.3787
1.626000	 63.2452
1.712000	 63.6544
1.798000	 62.9009
1.884000	 62.2971
1.970000	 63.342
2.056000	 63.026
2.142000	 63.0717
2.228000	 62.7061
2.314000	 62.3617
2.400000	 61.9985
2.486000	 61.8525
2.572000	 61.5237
2.658000	 60.9003
2.744000	 60.5977
2.830000	 59.6814
2.916000	 59.2001
3.002000	 58.4806
3.088000	 57.7148
3.174000	 57.2589
3.260000	 56.4152
3.346000	 55.7918
3.432000	 54.8189
3.518000	 54.3019
3.604000	 53.8036
3.690000	 53.151
3.776000	 52.3137
3.862000	 51.7646
3.948000	 51.1567
4.034000	 50.5876
4.120000	 49.8526
4.206000	 49.2944
4.292000	 48.8073
4.378000	 48.2549
4.464000	 47.6376
4.550000	 47.0753
4.636000	 46.7958
4.722000	 46.0341
4.808000	 45.4695
4.894000	 45.0077
4.980000	 44.5777
5.066000	 44.124
5.152000	 43.8223
5.238000	 43.3009
5.324000	 42.9151
5.410000	 42.4791
5.496000	 42.1942
5.582000	 41.7649
5.668000	 41.3549
5.754000	 40.9814
5.840000	 40.6078
5.926000	 40.4505
6.012000	 39.9952
6.098000	 39.7694
6.184000	 39.3728
6.270000	 39.0065
6.356000	 38.6763
6.442000	 38.5316
6.528000	 38.1655
6.614000	 38.0704
6.700000	 37.6245
6.786000	 37.4487
6.872000	 37.1718
6.958000	 37.058
7.044000	 36.6847
7.130000	 36.3848
7.216000	 36.3479
7.302000	 36.0745
7.388000	 35.8528
7.474000	 35.6829
7.560000	 35.4328
7.646000	 35.2624
7.732000	 35.0444
7.818000	 34.7891
7.904000	 34.5795
7.990000	 34.5284
8.076000	 34.3268
8.161999	 33.9675
8.248000	 33.9874
8.334000	 33.7717
8.420000	 33.5756
8.506000	 33.4788
8.592000	 33.1841
8.678000	 33.242
8.763999	 32.9398
8.850000	 32.8402
8.936000	 32.7214
9.022000	 32.5802
9.108000	 32.417
9.193999	 32.3184
9.280000	 32.2173
9.366000	 32.037
9.452000	 31.8105
9.538000	 31.8079
9.624000	 31.6384
9.710000	 31.4072
9.795999	 31.2679
9.882000	 31.303
9.968000	 31.1111
10.054	31.007
10.14	30.7894
10.226	30.7769
10.312	30.7212
10.398	30.4858
10.484	30.137
10.57	29.9109
10.656	30.0678
10.742	30.177
10.828	29.6922
10.914	29.5443
11	29.5523
11.086	29.1568
11.172	29.1482
11.258	29.1692
11.344	29.3767
11.43	29.1314
11.516	28.4688
11.602	28.2217
11.688	28.376
11.774	28.4532
11.86	28.6727
11.946	28.6982
12.032	28.3879
12.118	27.8836
12.204	27.8988
12.29	28.0065
12.376	28.3974
12.462	28.2072
12.548	27.5492
12.634	27.1959
12.72	27.1075
12.806	26.9538
12.892	26.9459
12.978	26.9951
13.064	27.0487
13.15	26.9546
13.236	26.836
13.322	26.533
13.408	26.2495
13.494	26.1745
13.58	26.0915
13.666	25.8511
13.752	25.7672
13.838	25.6883
13.924	25.538
14.01	25.4648
14.096	25.3614
14.182	25.1738
14.268	25.1113
14.354	25.1118
14.44	25.0022
14.526	24.874
14.612	24.7237
14.698	24.5644
14.784	24.4503
14.87	24.3492
14.956	24.2366
15.042	24.1773
15.128	24.1013
15.214	23.9503
15.3	23.8511
15.386	23.831
15.472	23.7412
15.558	23.5076
15.644	23.3243
15.73	23.2897
15.816	23.2075
15.902	23.0953
15.988	23.0867
16.074	23.0353
16.16	22.8864
16.246	22.771
16.332	22.7086
16.418	22.7211
16.504	22.7923
16.59	22.7276
16.676	22.4892
16.762	22.2702
16.848	22.1747
16.934	22.1487
17.02	22.0858
17.106	21.8794
17.192	21.5564
17.278	21.3253
17.364	21.3376
17.45	21.4794
17.536	21.5016
17.622	21.3309
17.708	21.1077
17.794	20.9666
17.88	20.9173
17.966	20.893
18.052	20.8036
18.138	20.5873
18.224	20.3026
18.31	20.0871
18.396	19.9877
18.482	19.9282
18.568	19.8567
18.654	19.8148
18.74	19.836
18.826	19.8669
18.912	19.8144
18.998	19.6233
19.084	19.3032
19.17	18.9459
19.256	18.6927
19.342	18.6318
19.428	18.7148
19.514	18.8026
19.6	18.7858
19.686	18.6625
19.772	18.5025
19.858	18.3536
19.944	18.2098
20.03	18.0551
20.116	17.8991
20.202	17.7515
20.288	17.6023
20.374	17.4422
20.46	17.2931
20.546	17.187
20.632	17.1148
20.718	17.0156
20.804	16.8341
20.89	16.5836
20.976	16.3385
21.062	16.1705
21.148	16.1104
21.234	16.1504
21.32	16.2671
21.406	16.4354
21.492	16.6266
21.578	16.8087
21.664	16.9513
21.75	17.0411
21.836	17.0952
21.922	17.1563
22.008	17.262
22.094	17.4066
22.18	17.5256
22.266	17.5184
22.352	17.3073
22.438	16.9027
22.524	16.4103
22.61	15.9932
22.696	15.784
22.782	15.8209
22.868	16.041
22.954	16.3067
23.04	16.4833
23.126	16.4847
23.212	16.2969
23.298	15.969
23.384	15.5815
23.47	15.2037
23.556	14.8895
23.642	14.6698
23.728	14.5553
23.814	14.5178
23.9	14.4931
23.986	14.3977
24.072	14.1698
24.158	13.7932
24.244	13.3082
24.33	12.8178
24.416	12.4643
24.502	12.3627
24.588	12.5965
24.674	13.1979
24.76	14.1335
24.846	15.3135
24.932	16.5481
25.018	17.5901
25.104	18.2537
25.19	18.4668
25.276	18.3256
25.362	18.0724
25.448	17.919
25.534	17.9538
25.62	18.1217
25.706	18.1838
25.792	17.9314
25.878	17.3639
25.964	16.7705
26.05	16.6208
26.136	17.3246
26.222	19.0281
26.308	21.5207
26.394	24.3387
26.48	26.9587
26.566	29.0369
26.652	30.5731
26.738	31.9054
26.824	33.5161
26.91	35.8111
26.996	39.131
27.028	40.1771