File: Bakgrunnsmateriale/MATLAB/FTIR/ftir_data/subBb/Mapping_36/C-4040-8_t03_cm-1.asc
PE IR       SPECTRUM    SPECTRUM    ASCII       PEDS        1.60
  -1
C-99E1~1.ASC
17/05/02
11:04:08.00
17/05/02
11:04:08.00
tln
$C-4040-8_t0003$<tbV0>[2.5,-13.0,8.0,0.0,22,1,0]
370
64

2002,4.07
MIRTGS : RIGHTBACK : INTERNAL 2
MIR : ON : INTERNAL 2
OPTKBR

0.200000
8
8.000000
FILLER
RATIO
SPECTRUM
UNLOCKED 256

DOUBLE
64
COMBINED
1
0
0

1.000000
RATIO

1
0
TRUE
51149
0
LEFT NOT FITTED RIGHT NOT FITTED 0
NONE
NONE
15600
12
4.427000
51148
TRUE
1 0 8 72 0 0 0 0

15798

#HDR
-1
-1
#GR
CM-1
%T
2.38419e-05
0.0
7800
-1.000000
7431
8
73.852
25.5955
#DATA
7800	70.6359
7775	67.1017
7750	61.8
7725	58.4965
7700	68.4544
7675	73.4901
7650	66.082
7625	61.3874
7600	63.4419
7575	58.9238
7550	66.0361
7525	63.8541
7500	59.3792
7475	60.8512
7450	67.0504
7425	63.3588
7400	66.7316
7375	62.7255
7350	63.0626
7325	66.8302
7300	61.2245
7275	64.6738
7250	63.0513
7225	66.8206
7200	63.8049
7175	67.434
7150	62.2804
7125	63.9346
7100	65.1506
7075	63.1456
7050	62.7391
7025	65.8491
7000	62.7847
6975	65.6886
6950	63.2663
6925	62.9407
6900	63.3167
6875	62.5765
6850	64.7954
6825	63.2856
6800	61.3071
6775	63.7211
6750	63.188
6725	63.2362
6700	64.0648
6675	62.4555
6650	63.8808
6625	63.735
6600	62.8171
6575	62.3211
6550	64.3737
6525	63.7421
6500	63.7573
6475	62.6064
6450	63.2395
6425	64.268
6400	62.5062
6375	63.4888
6350	62.1916
6325	63.4806
6300	63.7912
6275	65.522
6250	63.8674
6225	63.5935
6200	62.8379
6175	63.4382
6150	63.3324
6125	63.1548
6100	64.1307
6075	63.3095
6050	62.9955
6025	64.3569
6000	63.165
5975	64.1016
5950	62.803
5925	62.8151
5900	63.0814
5875	63.3841
5850	63.7217
5825	63.5345
5800	64.6743
5775	63.0569
5750	63.9365
5725	63.4911
5700	62.8955
5675	63.8184
5650	64.1098
5625	64.5731
5600	64.4766
5575	64.1117
5550	64.0532
5525	63.6693
5500	64.3598
5475	64.2801
5450	63.8326
5425	63.3181
5400	63.8787
5375	63.6945
5350	64.4384
5325	64.178
5300	63.1732
5275	62.4046
5250	65.1709
5225	62.0859
5200	65.3673
5175	64.8175
5150	62.4953
5125	63.901
5100	63.3611
5075	63.5719
5050	64.0806
5025	64.1244
5000	64.0761
4975	63.3314
4950	63.7145
4925	63.9622
4900	63.6444
4875	63.8066
4850	63.6361
4825	63.8149
4800	63.7233
4775	63.9907
4750	63.7783
4725	63.9487
4700	64.2552
4675	63.7873
4650	63.7252
4625	63.9073
4600	63.9202
4575	63.8032
4550	63.7151
4525	63.5798
4500	63.7397
4475	63.7445
4450	64.0208
4425	64.384
4400	62.352
4375	64.409
4350	63.6556
4325	63.2595
4300	63.5619
4275	63.5837
4250	63.7227
4225	63.5788
4200	63.4169
4175	63.7062
4150	63.3118
4125	63.3943
4100	63.5049
4075	63.6563
4050	63.4052
4025	63.3877
4000	63.3953
3975	63.3419
3950	63.1795
3925	63.1399
3900	63.2066
3875	63.2375
3850	63.1093
3825	63.0343
3800	63.1515
3775	62.9187
3750	62.9487
3725	62.9365
3700	62.8861
3675	62.84
3650	62.6197
3625	62.6842
3600	62.5616
3575	62.4565
3550	62.3422
3525	62.3121
3500	62.0373
3475	62.2558
3450	62.2113
3425	62.0965
3400	62.0365
3375	61.7857
3350	61.7398
3325	61.5512
3300	61.5838
3275	61.3652
3250	61.411
3225	61.0857
3200	61.2441
3175	61.2489
3150	60.9955
3125	61.0383
3100	60.856
3075	60.8911
3050	60.8021
3025	60.662
3000	60.3939
2975	60.2255
2950	60.1792
2925	59.9105
2900	59.9536
2875	59.8512
2850	59.7028
2825	59.6699
2800	59.524
2775	59.5642
2750	59.2227
2725	59.2568
2700	59.0834
2675	58.8901
2650	58.6637
2625	58.4815
2600	58.4973
2575	58.2789
2550	58.0893
2525	58.0514
2500	57.9532
2475	57.717
2450	57.5647
2425	57.4388
2400	57.3099
2375	57.1328
2350	56.91
2325	56.8188
2300	56.7021
2275	56.4707
2250	56.2994
2225	56.0127
2200	55.8702
2175	55.87
2150	55.6886
2125	55.3527
2100	55.3193
2075	55.2353
2050	54.8196
2025	54.6645
2000	54.6193
1975	54.3411
1950	54.145
1925	53.9383
1900	53.8818
1875	53.6056
1850	53.4226
1825	53.2495
1800	53.0302
1775	52.923
1750	52.5499
1725	52.3459
1700	52.2166
1675	52.0233
1650	51.8172
1625	51.6757
1600	51.3584
1575	51.1735
1550	51.0079
1525	50.8076
1500	50.6954
1475	50.4263
1450	50.1339
1425	49.9537
1400	49.7468
1375	49.5668
1350	49.4971
1325	49.1603
1300	49.0472
1275	48.6971
1250	48.5098
1225	48.339
1200	48.1045
1175	47.9057
1150	47.6452
1125	47.3749
1100	47.1464
1075	46.8108
1050	46.8018
1025	46.7085
1000	46.2704
975	 45.8194
950	 45.4426
925	 45.3531
900	 45.3963
875	 44.932
850	 44.3675
825	 44.0231
800	 43.8164
775	 43.4018
750	 42.9469
725	 42.5294
700	 41.8361
675	 41.3677
650	 40.781
625	 40.4129
600	 39.9127
575	 39.1207
550	 38.465
525	 37.8515
500	 36.1323
475	 34.7791
450	 33.9782
425	 31.1704
400	 28.8512
375	 47.3678
370	 67.1411