File: Bakgrunnsmateriale/MATLAB/FTIR/ftir_data/subBb/Mapping_36/C-4040-8_t09.asc
PE IR       SPECTRUM    SPECTRUM    ASCII       PEDS        1.60
  -1
C-C52E~1.ASC
17/05/02
11:32:51.00
17/05/02
11:33:18.00
tln
$C-4040-8_t0009$<tbV0>[2.5,-8.0,8.0,0.0,22,1,0]
27.028
64

2002,4.07
MIRTGS : RIGHTBACK : INTERNAL 2
MIR : ON : INTERNAL 2
OPTKBR

0.200000
8
8.000000
FILLER
RATIO
SPECTRUM
UNLOCKED 256

DOUBLE
64
COMBINED
1
0
0

0.002000
RATIO

1
0
TRUE
51149
0
LEFT NOT FITTED RIGHT NOT FITTED 0
NONE
NONE
15600
12
4.427000
51148
TRUE
1 0 8 72 0 0 0 0

15798

#HDR
-1
-1
#GR
µM
%T
2.38419e-05
0.0
1.282000
0.002000
12874
8
77.9326
23.9148
#DATA
1.282000	 71.1286
1.368000	 64.7407
1.454000	 61.8775
1.540000	 64.9218
1.626000	 63.1391
1.712000	 63.6301
1.798000	 64.1126
1.884000	 64.8215
1.970000	 63.8128
2.056000	 63.6751
2.142000	 63.812
2.228000	 63.3663
2.314000	 62.9051
2.400000	 63.1025
2.486000	 62.6267
2.572000	 62.3962
2.658000	 62.3774
2.744000	 61.9349
2.830000	 61.2347
2.916000	 61.076
3.002000	 60.6145
3.088000	 59.8977
3.174000	 59.7575
3.260000	 59.3728
3.346000	 58.7376
3.432000	 57.9021
3.518000	 57.7274
3.604000	 57.3646
3.690000	 56.8587
3.776000	 56.2871
3.862000	 55.9093
3.948000	 55.4579
4.034000	 55.0454
4.120000	 54.5687
4.206000	 54.227
4.292000	 53.7664
4.378000	 53.4072
4.464000	 53.0353
4.550000	 52.4778
4.636000	 52.1644
4.722000	 51.6486
4.808000	 51.4147
4.894000	 51.0088
4.980000	 50.7168
5.066000	 50.3849
5.152000	 49.9805
5.238000	 49.7221
5.324000	 49.4084
5.410000	 49.0742
5.496000	 48.8302
5.582000	 48.5934
5.668000	 48.3081
5.754000	 47.9005
5.840000	 47.6516
5.926000	 47.4509
6.012000	 47.172
6.098000	 46.9164
6.184000	 46.6927
6.270000	 46.3418
6.356000	 46.1187
6.442000	 45.9706
6.528000	 45.6111
6.614000	 45.5043
6.700000	 45.227
6.786000	 44.9795
6.872000	 44.9374
6.958000	 44.7426
7.044000	 44.5041
7.130000	 44.3404
7.216000	 44.1842
7.302000	 44.0128
7.388000	 43.7333
7.474000	 43.6822
7.560000	 43.4171
7.646000	 43.2451
7.732000	 43.0663
7.818000	 42.8364
7.904000	 42.7952
7.990000	 42.5504
8.076000	 42.5319
8.161999	 42.3548
8.248000	 42.1663
8.334000	 42.029
8.420000	 41.901
8.506000	 41.6614
8.592000	 41.5267
8.678000	 41.4617
8.763999	 41.2721
8.850000	 41.2483
8.936000	 41.1546
9.022000	 41.0505
9.108000	 40.8623
9.193999	 40.8759
9.280000	 40.7792
9.366000	 40.5371
9.452000	 40.4405
9.538000	 40.4626
9.624000	 40.2228
9.710000	 40.148
9.795999	 39.9773
9.882000	 39.8696
9.968000	 39.6989
10.054	39.5333
10.14	39.4513
10.226	39.4745
10.312	39.3418
10.398	39.139
10.484	38.9034
10.57	39.0063
10.656	38.9901
10.742	39.1088
10.828	38.7035
10.914	38.5555
11	38.673
11.086	38.514
11.172	37.93
11.258	37.8762
11.344	38.417
11.43	38.8626
11.516	37.887
11.602	37.4893
11.688	37.562
11.774	37.6486
11.86	37.4722
11.946	37.5995
12.032	37.1001
12.118	36.8906
12.204	36.9215
12.29	36.7755
12.376	36.7806
12.462	36.7568
12.548	36.6664
12.634	36.6987
12.72	36.4764
12.806	36.2241
12.892	36.2478
12.978	36.3358
13.064	36.1036
13.15	35.8883
13.236	35.7213
13.322	35.7376
13.408	35.7869
13.494	35.4878
13.58	35.1446
13.666	34.9962
13.752	34.8453
13.838	34.7847
13.924	34.7572
14.01	34.6867
14.096	34.5903
14.182	34.3327
14.268	34.1117
14.354	34.1803
14.44	34.2604
14.526	34.0529
14.612	33.8962
14.698	33.9593
14.784	34.0387
14.87	34.0935
14.956	34.1093
15.042	33.9861
15.128	33.7278
15.214	33.4423
15.3	33.2645
15.386	33.2644
15.472	33.2926
15.558	33.1739
15.644	32.973
15.73	32.7837
15.816	32.5982
15.902	32.491
15.988	32.5114
16.074	32.533
16.16	32.4245
16.246	32.1917
16.332	31.9876
16.418	31.9686
16.504	32.0389
16.59	31.9467
16.676	31.6505
16.762	31.3571
16.848	31.27
16.934	31.3995
17.02	31.5295
17.106	31.4256
17.192	31.1232
17.278	30.8888
17.364	30.8467
17.45	30.8453
17.536	30.7439
17.622	30.5949
17.708	30.4827
17.794	30.4115
17.88	30.3916
17.966	30.4222
18.052	30.3912
18.138	30.189
18.224	29.8925
18.31	29.6944
18.396	29.6762
18.482	29.7413
18.568	29.7546
18.654	29.6682
18.74	29.5099
18.826	29.3264
18.912	29.1643
18.998	29.0614
19.084	29.0318
19.17	29.0633
19.256	29.1236
19.342	29.1638
19.428	29.1248
19.514	28.9598
19.6	28.6685
19.686	28.3112
19.772	27.9929
19.858	27.8107
19.944	27.7973
20.03	27.896
20.116	28.0066
20.202	28.0628
20.288	28.0685
20.374	28.0497
20.46	27.98
20.546	27.7751
20.632	27.3798
20.718	26.8584
20.804	26.3835
20.89	26.1198
20.976	26.1079
21.062	26.2583
21.148	26.4377
21.234	26.567
21.32	26.6383
21.406	26.6627
21.492	26.6302
21.578	26.5231
21.664	26.3496
21.75	26.1603
21.836	26.0108
21.922	25.9156
22.008	25.8369
22.094	25.729
22.18	25.6006
22.266	25.5349
22.352	25.6335
22.438	25.9212
22.524	26.3102
22.61	26.6335
22.696	26.7542
22.782	26.6598
22.868	26.4636
22.954	26.3375
23.04	26.3949
23.126	26.6335
23.212	26.9434
23.298	27.1822
23.384	27.2211
23.47	26.9994
23.556	26.531
23.642	25.8973
23.728	25.2313
23.814	24.6916
23.9	24.4123
23.986	24.4656
24.072	24.8393
24.158	25.4216
24.244	26.036
24.33	26.486
24.416	26.6291
24.502	26.3973
24.588	25.853
24.674	25.1557
24.76	24.4839
24.846	24.0298
24.932	23.9225
25.018	24.1716
25.104	24.7296
25.19	25.4578
25.276	26.1949
25.362	26.8212
25.448	27.1927
25.534	27.2122
25.62	26.8675
25.706	26.2141
25.792	25.3783
25.878	24.5586
25.964	24.0398
26.05	24.0604
26.136	24.8138
26.222	26.5292
26.308	29.4294
26.394	33.6444
26.48	39.1156
26.566	45.5592
26.652	52.4626
26.738	59.2765
26.824	65.5932
26.91	71.2408
26.996	76.5166
27.028	77.9326