File: Bakgrunnsmateriale/MATLAB/FTIR/ftir_data/subBb/Mapping_36/C-4040-8_t14_cm-1.asc
PE IR       SPECTRUM    SPECTRUM    ASCII       PEDS        1.60
  -1
C-1A6F~1.ASC
17/05/02
12:03:16.00
17/05/02
12:03:16.00
tln
$C-4040-8_t0014$<tbV0>[7.5,-3.0,8.0,0.0,22,1,0]
370
64

2002,4.07
MIRTGS : RIGHTBACK : INTERNAL 2
MIR : ON : INTERNAL 2
OPTKBR

0.200000
8
8.000000
FILLER
RATIO
SPECTRUM
UNLOCKED 256

DOUBLE
64
COMBINED
1
0
0

1.000000
RATIO

1
0
TRUE
51149
0
LEFT NOT FITTED RIGHT NOT FITTED 0
NONE
NONE
15600
12
4.427000
51148
TRUE
1 0 8 72 0 0 0 0

15798

#HDR
-1
-1
#GR
CM-1
%T
2.38419e-05
0.0
7800
-1.000000
7431
8
93.4188
37.7473
#DATA
7800	56.9192
7775	73.2663
7750	63.4623
7725	65.915
7700	67.5933
7675	63.0515
7650	67.7671
7625	63.806
7600	66.3943
7575	67.0146
7550	64.4876
7525	66.9469
7500	65.1323
7475	62.9563
7450	67.9105
7425	65.6606
7400	65.219
7375	67.9546
7350	66.0823
7325	68.0863
7300	66.9858
7275	64.9491
7250	63.4659
7225	66.0374
7200	64.8347
7175	63.6222
7150	66.0363
7125	65.6891
7100	62.5893
7075	66.2976
7050	62.9576
7025	64.6243
7000	63.5658
6975	63.6723
6950	61.9292
6925	63.7732
6900	63.3068
6875	63.5866
6850	63.6291
6825	64.9793
6800	65.9264
6775	61.6653
6750	63.4316
6725	63.4052
6700	64.4367
6675	63.6322
6650	64.9055
6625	64.7735
6600	65.0632
6575	64.6133
6550	64.805
6525	65.08
6500	64.9386
6475	65.9832
6450	64.9076
6425	63.62
6400	66.0929
6375	63.6277
6350	64.7662
6325	65.2642
6300	65.3966
6275	63.587
6250	65.06
6225	65.4075
6200	66.703
6175	65.2025
6150	64.9878
6125	65.7086
6100	64.7068
6075	65.76
6050	64.6682
6025	64.3271
6000	65.2978
5975	65.4288
5950	65.5315
5925	64.5803
5900	65.2037
5875	65.1026
5850	65.026
5825	65.216
5800	64.1416
5775	64.8265
5750	64.9898
5725	65.7402
5700	64.9179
5675	65.2812
5650	64.4671
5625	65.1594
5600	64.4048
5575	64.3391
5550	65.3571
5525	64.8434
5500	64.834
5475	65.0548
5450	64.962
5425	65.3489
5400	64.9249
5375	64.7057
5350	62.9256
5325	65.2199
5300	66.1649
5275	62.8205
5250	67.3087
5225	65.7782
5200	64.6323
5175	64.6237
5150	64.3939
5125	64.8276
5100	64.8857
5075	64.821
5050	64.7236
5025	64.233
5000	65.0302
4975	64.8503
4950	65.138
4925	65.0484
4900	65.1704
4875	64.6417
4850	64.8606
4825	64.8266
4800	64.6974
4775	64.9797
4750	64.9257
4725	64.8526
4700	65.0572
4675	64.7548
4650	65.0877
4625	65.2274
4600	65.1803
4575	64.9287
4550	65.3167
4525	64.7096
4500	65.3311
4475	65.4474
4450	65.2349
4425	64.6317
4400	65.2878
4375	60.5253
4350	65.507
4325	65.4401
4300	65.2795
4275	65.3449
4250	64.9941
4225	65.2003
4200	65.098
4175	64.7531
4150	65.0275
4125	64.8983
4100	65.0756
4075	65.129
4050	65.2109
4025	65.0785
4000	64.9051
3975	65.0061
3950	65.2577
3925	65.1752
3900	65.0589
3875	65.2202
3850	65.1428
3825	65.176
3800	65.0796
3775	65.2253
3750	65.2634
3725	65.1368
3700	65.1122
3675	65.2029
3650	65.0937
3625	65.1373
3600	65.0772
3575	65.1059
3550	65.2125
3525	65.1389
3500	65.0244
3475	65.2958
3450	65.1957
3425	64.8517
3400	65.075
3375	65.0749
3350	65.1852
3325	65.121
3300	65.0988
3275	65.1094
3250	65.0259
3225	65.0522
3200	65.1668
3175	65.1947
3150	65.0169
3125	65.1206
3100	65.2283
3075	65.2109
3050	65.109
3025	65.1768
3000	65.0343
2975	65.1268
2950	64.9392
2925	64.6902
2900	64.9468
2875	65.0284
2850	64.9327
2825	65.1614
2800	65.2184
2775	65.1776
2750	65.1914
2725	65.1882
2700	65.1731
2675	65.0816
2650	65.1832
2625	65.2095
2600	65.3535
2575	65.2457
2550	65.3015
2525	65.1582
2500	65.3136
2475	65.1864
2450	65.1359
2425	65.2775
2400	65.2558
2375	65.1862
2350	65.2178
2325	65.2305
2300	65.2199
2275	65.2363
2250	65.314
2225	65.2437
2200	65.2271
2175	65.2703
2150	65.2337
2125	65.2241
2100	65.2298
2075	65.2879
2050	65.2093
2025	65.2882
2000	65.2639
1975	65.2989
1950	65.2916
1925	65.3111
1900	65.2966
1875	65.2801
1850	65.2006
1825	65.1635
1800	65.217
1775	65.2866
1750	65.1035
1725	65.0439
1700	65.0888
1675	65.1736
1650	65.0211
1625	65.1118
1600	65.162
1575	65.1242
1550	65.0722
1525	65.1276
1500	65.1665
1475	65.0376
1450	64.9557
1425	65.0901
1400	65.1091
1375	64.9198
1350	65.0597
1325	64.948
1300	65.0393
1275	64.9735
1250	64.8938
1225	65.0094
1200	64.872
1175	64.8639
1150	64.839
1125	64.7481
1100	64.7908
1075	64.5925
1050	64.5603
1025	64.7234
1000	64.6596
975	 64.6597
950	 64.585
925	 64.6314
900	 64.3212
875	 64.5808
850	 64.3722
825	 63.862
800	 64.0033
775	 64.0047
750	 63.5992
725	 63.6264
700	 63.3898
675	 62.8584
650	 62.6177
625	 63.1813
600	 62.0844
575	 61.7543
550	 62.0948
525	 61.6232
500	 61.3885
475	 59.6653
450	 60.2601
425	 57.4375
400	 54.3946
375	 50.0955
370	 52.5917