File: Bakgrunnsmateriale/MATLAB/FTIR/ftir_data/subBb/Mapping_36/C-4040-8_t17_cm-1.asc
PE IR       SPECTRUM    SPECTRUM    ASCII       PEDS        1.60
  -1
C-1AEF~1.ASC
17/05/02
12:17:20.00
17/05/02
12:17:20.00
tln
$C-4040-8_t0017$<tbV0>[-7.5,-3.0,8.0,0.0,22,1,0]
370
64

2002,4.07
MIRTGS : RIGHTBACK : INTERNAL 2
MIR : ON : INTERNAL 2
OPTKBR

0.200000
8
8.000000
FILLER
RATIO
SPECTRUM
UNLOCKED 256

DOUBLE
64
COMBINED
1
0
0

1.000000
RATIO

1
0
TRUE
51149
0
LEFT NOT FITTED RIGHT NOT FITTED 0
NONE
NONE
15600
12
4.427000
51148
TRUE
1 0 8 72 0 0 0 0

15798

#HDR
-1
-1
#GR
CM-1
%T
2.38419e-05
0.0
7800
-1.000000
7431
8
85.7463
46.2511
#DATA
7800	73.4895
7775	61.2606
7750	67.0016
7725	66.2298
7700	67.9496
7675	68.5205
7650	73.1927
7625	69.0011
7600	67.3553
7575	67.5665
7550	65.667
7525	69.2988
7500	65.8574
7475	60.9947
7450	67.6577
7425	66.8239
7400	65.7148
7375	67.0209
7350	68.6799
7325	67.0089
7300	65.2266
7275	65.0624
7250	64.3998
7225	64.9733
7200	62.7636
7175	68.3143
7150	62.8448
7125	66.3456
7100	62.6665
7075	64.1381
7050	62.384
7025	62.8369
7000	64.1031
6975	64.2625
6950	63.1112
6925	64.6746
6900	63.996
6875	65.3032
6850	63.7761
6825	66.0208
6800	64.5358
6775	61.2157
6750	62.6836
6725	63.8714
6700	63.7862
6675	62.3462
6650	63.91
6625	64.224
6600	65.1536
6575	62.8214
6550	65.1716
6525	65.6
6500	65.3898
6475	65.5305
6450	64.4124
6425	63.4104
6400	66.5559
6375	65.4697
6350	66.2598
6325	65.2323
6300	65.1846
6275	64.2543
6250	64.6956
6225	64.5317
6200	65.2884
6175	65.1057
6150	65.2796
6125	66.2494
6100	65.2045
6075	65.0911
6050	64.8958
6025	65.0245
6000	65.1665
5975	65.2897
5950	64.9073
5925	65.1093
5900	65.0838
5875	65.0475
5850	65.2366
5825	64.4956
5800	64.7418
5775	65.0665
5750	64.8022
5725	65.3041
5700	64.88
5675	64.9163
5650	65.0013
5625	65.5345
5600	64.7835
5575	64.6685
5550	65.0338
5525	65.6346
5500	64.5555
5475	64.6098
5450	65.4413
5425	65.276
5400	64.9512
5375	64.787
5350	63.7969
5325	62.9619
5300	65.4259
5275	65.931
5250	66.8477
5225	65.0071
5200	64.8883
5175	65.1946
5150	64.6987
5125	64.9117
5100	64.7404
5075	64.9493
5050	65.1721
5025	65.0648
5000	65.4186
4975	65.0251
4950	64.9521
4925	64.6941
4900	65.0794
4875	65.2111
4850	64.6875
4825	65.1285
4800	64.8308
4775	65.3826
4750	64.7555
4725	65.3165
4700	65.4757
4675	64.9841
4650	65.0004
4625	65.2187
4600	65.1064
4575	65.0465
4550	64.7188
4525	64.6697
4500	64.7836
4475	64.5758
4450	64.709
4425	64.2043
4400	62.1395
4375	63.6584
4350	64.6482
4325	64.5798
4300	64.7839
4275	64.8764
4250	64.7758
4225	64.9883
4200	64.7354
4175	64.898
4150	64.6636
4125	65.0305
4100	65.1645
4075	65.0724
4050	65.2686
4025	65.5179
4000	65.2273
3975	65.4392
3950	65.0676
3925	65.1222
3900	65.1244
3875	65.2291
3850	65.3062
3825	65.324
3800	64.8953
3775	65.2173
3750	65.2982
3725	65.0725
3700	65.2226
3675	65.182
3650	65.2661
3625	65.2902
3600	65.4092
3575	65.3495
3550	65.4112
3525	65.1408
3500	64.8958
3475	65.2698
3450	65.1427
3425	65.3535
3400	65.2227
3375	65.1417
3350	65.2778
3325	65.1823
3300	65.0926
3275	65.2047
3250	64.8892
3225	64.9778
3200	65.1282
3175	65.101
3150	65.2271
3125	65.1282
3100	65.1266
3075	65.2131
3050	65.3218
3025	65.2722
3000	65.165
2975	64.9592
2950	65.0097
2925	64.8903
2900	65.1454
2875	65.1326
2850	64.8614
2825	65.3016
2800	65.2517
2775	65.2406
2750	65.2538
2725	65.3071
2700	65.3095
2675	65.1976
2650	65.2005
2625	65.3375
2600	65.3837
2575	65.238
2550	65.3272
2525	65.2968
2500	65.239
2475	65.3647
2450	65.2532
2425	65.312
2400	65.3416
2375	65.4728
2350	65.3761
2325	65.1906
2300	65.2426
2275	65.3297
2250	65.2611
2225	65.275
2200	65.3639
2175	65.2326
2150	65.4674
2125	65.235
2100	65.2792
2075	65.3442
2050	65.2725
2025	65.214
2000	65.2951
1975	65.2524
1950	65.2609
1925	65.3013
1900	65.3392
1875	65.2449
1850	65.3412
1825	65.2612
1800	65.2114
1775	65.3317
1750	65.2271
1725	65.1492
1700	65.152
1675	65.1736
1650	65.2056
1625	65.2319
1600	65.1599
1575	65.1565
1550	64.9748
1525	65.1373
1500	65.1632
1475	65.102
1450	64.9531
1425	65.0466
1400	65.1055
1375	65.0669
1350	64.9906
1325	65.002
1300	64.9992
1275	64.9605
1250	64.8179
1225	64.9813
1200	64.978
1175	65.045
1150	64.7902
1125	64.7648
1100	64.9144
1075	64.5756
1050	64.761
1025	64.7004
1000	64.6828
975	 64.6825
950	 64.5173
925	 64.2791
900	 64.4037
875	 64.7252
850	 64.0313
825	 64.0118
800	 63.8917
775	 64.0754
750	 63.7198
725	 63.7001
700	 63.2801
675	 63.0058
650	 62.8871
625	 63.105
600	 62.2868
575	 62.2032
550	 61.9962
525	 61.151
500	 60.8911
475	 59.2956
450	 57.8127
425	 56.6307
400	 54.1764
375	 60.7175
370	 60.1023