File: Bakgrunnsmateriale/MATLAB/FTIR/ftir_data/subBb/Mapping_36/C-4040-8_t18_cm-1.asc
PE IR       SPECTRUM    SPECTRUM    ASCII       PEDS        1.60
  -1
C-1A65~1.ASC
17/05/02
12:22:01.00
17/05/02
12:22:01.00
tln
$C-4040-8_t0018$<tbV0>[-12.5,-3.0,8.0,0.0,22,1,0]
370
64

2002,4.07
MIRTGS : RIGHTBACK : INTERNAL 2
MIR : ON : INTERNAL 2
OPTKBR

0.200000
8
8.000000
FILLER
RATIO
SPECTRUM
UNLOCKED 256

DOUBLE
64
COMBINED
1
0
0

1.000000
RATIO

1
0
TRUE
51149
0
LEFT NOT FITTED RIGHT NOT FITTED 0
NONE
NONE
15600
12
4.427000
51148
TRUE
1 0 8 72 0 0 0 0

15798

#HDR
-1
-1
#GR
CM-1
%T
2.38419e-05
0.0
7800
-1.000000
7431
8
108.584
28.278
#DATA
7800	62.1854
7775	69.1732
7750	63.2507
7725	69.0918
7700	70.3097
7675	69.1705
7650	67.0521
7625	68.6472
7600	68.4145
7575	69.372
7550	65.4679
7525	68.9753
7500	65.2226
7475	63.4597
7450	63.8646
7425	65.5026
7400	66.6006
7375	64.5533
7350	64.8366
7325	65.4505
7300	65.4055
7275	66.0294
7250	64.173
7225	66.0579
7200	64.5885
7175	64.7869
7150	67.0562
7125	64.9193
7100	62.3584
7075	61.8481
7050	62.9427
7025	66.5919
7000	63.5258
6975	64.843
6950	63.3136
6925	65.1292
6900	65.1
6875	65.8365
6850	61.4415
6825	64.9364
6800	64.1166
6775	61.5542
6750	66.1549
6725	65.4166
6700	63.5538
6675	62.7412
6650	61.9174
6625	63.8585
6600	64.3426
6575	63.6025
6550	66.8103
6525	64.6053
6500	65.2716
6475	65.2985
6450	65.6367
6425	64.0194
6400	66.177
6375	64.5633
6350	65.3386
6325	64.525
6300	65.2566
6275	63.9209
6250	65.1735
6225	65.6404
6200	65.5091
6175	64.226
6150	65.6316
6125	66.3461
6100	65.2981
6075	64.8855
6050	65.3702
6025	65.3902
6000	65.5403
5975	64.7801
5950	64.8834
5925	64.5466
5900	65.6028
5875	64.0692
5850	64.8647
5825	64.9639
5800	64.6976
5775	65.1957
5750	65.0004
5725	65.2966
5700	64.9563
5675	64.5755
5650	64.7199
5625	66.0383
5600	65.1172
5575	65.5516
5550	64.8878
5525	65.0258
5500	65.4991
5475	65.8359
5450	64.832
5425	64.0957
5400	65.1519
5375	64.6153
5350	64.2861
5325	63.7041
5300	66.3379
5275	66.4701
5250	65.7488
5225	64.8841
5200	65.1242
5175	65.3089
5150	64.799
5125	64.7802
5100	65.7466
5075	64.9012
5050	65.0476
5025	64.7108
5000	65.3668
4975	64.9058
4950	65.2675
4925	64.9091
4900	64.9907
4875	64.7312
4850	64.6134
4825	64.8799
4800	64.9537
4775	65.05
4750	65.3538
4725	65.1139
4700	65.1136
4675	64.9428
4650	65.4693
4625	65.1415
4600	65.0141
4575	64.7619
4550	64.6231
4525	64.0899
4500	64.3455
4475	64.3756
4450	64.2746
4425	62.7377
4400	62.4428
4375	62.204
4350	64.4988
4325	64.2528
4300	64.3668
4275	64.3697
4250	64.4762
4225	64.7976
4200	64.8635
4175	65.2471
4150	65.1958
4125	65.1105
4100	65.4011
4075	65.2492
4050	65.3063
4025	65.096
4000	65.188
3975	65.1688
3950	65.062
3925	65.1433
3900	65.1141
3875	65.0942
3850	65.1281
3825	65.1752
3800	64.979
3775	65.2523
3750	65.4472
3725	65.1857
3700	65.1473
3675	65.2702
3650	65.298
3625	65.2877
3600	65.0741
3575	65.2601
3550	65.2287
3525	65.1057
3500	65.1762
3475	65.2205
3450	65.2231
3425	65.3416
3400	65.1445
3375	65.1241
3350	65.0923
3325	65.0773
3300	65.2339
3275	65.0908
3250	65.1129
3225	65.1137
3200	65.2357
3175	65.2332
3150	65.1826
3125	65.3549
3100	65.2157
3075	65.2165
3050	65.1197
3025	65.3239
3000	64.9755
2975	65.1208
2950	64.9545
2925	64.8143
2900	65.0739
2875	65.0441
2850	64.801
2825	65.2349
2800	65.2386
2775	65.2351
2750	65.1796
2725	65.1852
2700	65.2729
2675	65.1856
2650	65.2534
2625	65.2343
2600	65.264
2575	65.2642
2550	65.2472
2525	65.3508
2500	65.2551
2475	65.2934
2450	65.2443
2425	65.3254
2400	65.107
2375	65.2983
2350	65.2248
2325	65.2326
2300	65.2509
2275	65.3436
2250	65.1116
2225	65.2645
2200	65.1401
2175	65.2851
2150	65.2144
2125	65.1465
2100	65.1771
2075	65.299
2050	65.29
2025	65.3476
2000	65.2399
1975	65.3136
1950	65.3232
1925	65.3843
1900	65.2891
1875	65.2902
1850	65.3765
1825	65.2356
1800	65.2692
1775	65.2549
1750	65.2605
1725	65.1588
1700	65.1696
1675	65.0562
1650	65.1319
1625	65.2153
1600	65.1971
1575	65.1601
1550	65.1197
1525	65.1462
1500	65.1585
1475	65.1124
1450	65.0202
1425	65.1501
1400	65.1086
1375	65.0373
1350	65.0304
1325	65.0512
1300	65.0671
1275	65.0841
1250	64.9814
1225	65.0778
1200	65.0001
1175	65.0315
1150	64.8459
1125	64.8101
1100	64.7415
1075	64.7661
1050	64.8098
1025	64.7119
1000	64.8865
975	 64.7871
950	 64.6788
925	 64.5686
900	 64.685
875	 64.463
850	 64.3203
825	 64.4151
800	 64.31
775	 64.3405
750	 64.015
725	 63.8037
700	 63.4026
675	 63.4703
650	 63.4659
625	 63.524
600	 62.7981
575	 62.4639
550	 62.4334
525	 61.9926
500	 61.3679
475	 60.6668
450	 60.5032
425	 56.9659
400	 64.7957
375	 42.7327
370	 28.278