File: Bakgrunnsmateriale/MATLAB/FTIR/ftir_data/subBb/Mapping_36/C-4040-8_t35.asc
PE IR       SPECTRUM    SPECTRUM    ASCII       PEDS        1.60
  -1
C-B13E~1.ASC
17/05/02
13:49:26.00
17/05/02
13:49:52.00
tln
$C-4040-8_t0035$<tbV0>[-7.5,12.0,8.0,0.0,22,1,0]
27.028
64

2002,4.07
MIRTGS : RIGHTBACK : INTERNAL 2
MIR : ON : INTERNAL 2
OPTKBR

0.200000
8
8.000000
FILLER
RATIO
SPECTRUM
UNLOCKED 256

DOUBLE
64
COMBINED
1
0
0

0.002000
RATIO

1
0
TRUE
51149
0
LEFT NOT FITTED RIGHT NOT FITTED 0
NONE
NONE
15600
12
4.427000
51148
TRUE
1 0 8 72 0 0 0 0

15798

#HDR
-1
-1
#GR
µM
%T
2.38419e-05
0.0
1.282000
0.002000
12874
8
80.9255
37.6758
#DATA
1.282000	 65.5983
1.368000	 64.4635
1.454000	 65.4603
1.540000	 66.0121
1.626000	 65.0435
1.712000	 65.0558
1.798000	 64.0789
1.884000	 65.7798
1.970000	 64.7019
2.056000	 64.1415
2.142000	 64.6085
2.228000	 64.6131
2.314000	 64.7583
2.400000	 64.6419
2.486000	 64.7134
2.572000	 65.0244
2.658000	 64.8064
2.744000	 65.1075
2.830000	 64.8878
2.916000	 65.1796
3.002000	 64.8929
3.088000	 64.9666
3.174000	 65.0233
3.260000	 65.0024
3.346000	 64.9668
3.432000	 64.7567
3.518000	 64.8509
3.604000	 65.1109
3.690000	 65.0196
3.776000	 64.9773
3.862000	 64.969
3.948000	 64.9949
4.034000	 65.0462
4.120000	 65.1164
4.206000	 64.9189
4.292000	 65.1562
4.378000	 65.0806
4.464000	 65.0381
4.550000	 65.0051
4.636000	 64.9552
4.722000	 65.0021
4.808000	 64.9667
4.894000	 65.0419
4.980000	 65.0222
5.066000	 65.0753
5.152000	 65.0615
5.238000	 65.1484
5.324000	 64.9924
5.410000	 65.061
5.496000	 64.9521
5.582000	 64.9692
5.668000	 65.0215
5.754000	 64.8202
5.840000	 64.9938
5.926000	 64.8937
6.012000	 64.9228
6.098000	 64.8613
6.184000	 64.841
6.270000	 64.7854
6.356000	 64.7299
6.442000	 64.7999
6.528000	 64.7524
6.614000	 64.7467
6.700000	 64.7823
6.786000	 64.6608
6.872000	 64.8244
6.958000	 64.7557
7.044000	 64.6431
7.130000	 64.7203
7.216000	 64.6816
7.302000	 64.7538
7.388000	 64.6714
7.474000	 64.6563
7.560000	 64.6942
7.646000	 64.7208
7.732000	 64.7463
7.818000	 64.7173
7.904000	 64.7365
7.990000	 64.6523
8.076000	 64.6642
8.161999	 64.6795
8.248000	 64.5311
8.334000	 64.5936
8.420000	 64.4633
8.506000	 64.5086
8.592000	 64.4053
8.678000	 64.526
8.763999	 64.3613
8.850000	 64.5056
8.936000	 64.411
9.022000	 64.5454
9.108000	 64.4865
9.193999	 64.4107
9.280000	 64.2701
9.366000	 64.3938
9.452000	 64.3681
9.538000	 64.3674
9.624000	 64.2879
9.710000	 64.1935
9.795999	 64.2936
9.882000	 64.3588
9.968000	 64.3518
10.054	64.249
10.14	64.3536
10.226	64.1626
10.312	64.2864
10.398	64.673
10.484	64.5242
10.57	63.9879
10.656	64.196
10.742	63.6243
10.828	64.305
10.914	63.6925
11	63.5908
11.086	63.7946
11.172	64.0604
11.258	64.0924
11.344	64.254
11.43	64.1714
11.516	63.6471
11.602	63.9831
11.688	64.0137
11.774	63.8999
11.86	63.7353
11.946	63.8156
12.032	63.6537
12.118	63.7494
12.204	63.6989
12.29	63.7402
12.376	63.6469
12.462	63.4494
12.548	63.4961
12.634	63.6031
12.72	63.4963
12.806	63.4738
12.892	63.6105
12.978	63.3401
13.064	63.0618
13.15	63.1494
13.236	63.1308
13.322	63.0052
13.408	62.937
13.494	63.0262
13.58	63.1568
13.666	63.0708
13.752	62.9039
13.838	62.8102
13.924	62.896
14.01	62.9086
14.096	62.7376
14.182	62.6097
14.268	62.3831
14.354	62.1163
14.44	62.087
14.526	62.2258
14.612	62.4152
14.698	62.5444
14.784	62.4745
14.87	62.3225
14.956	62.2524
15.042	62.2557
15.128	62.3198
15.214	62.4109
15.3	62.3569
15.386	62.1088
15.472	61.8307
15.558	61.7316
15.644	61.9191
15.73	62.2041
15.816	62.267
15.902	62.0748
15.988	61.8715
16.074	61.8494
16.16	61.9717
16.246	62.0561
16.332	62.0427
16.418	62.0396
16.504	62.0627
16.59	62.0025
16.676	61.83
16.762	61.6286
16.848	61.5046
16.934	61.4846
17.02	61.4913
17.106	61.4599
17.192	61.394
17.278	61.3634
17.364	61.3995
17.45	61.4108
17.536	61.3424
17.622	61.2581
17.708	61.1873
17.794	61.0709
17.88	60.9026
17.966	60.7656
18.052	60.6981
18.138	60.644
18.224	60.5393
18.31	60.3987
18.396	60.3049
18.482	60.3038
18.568	60.3391
18.654	60.3234
18.74	60.2582
18.826	60.2268
18.912	60.264
18.998	60.3022
19.084	60.264
19.17	60.1551
19.256	60.0525
19.342	60.0209
19.428	60.0367
19.514	60.0136
19.6	59.8946
19.686	59.7204
19.772	59.5861
19.858	59.5454
19.944	59.5645
20.03	59.5706
20.116	59.5255
20.202	59.4435
20.288	59.3653
20.374	59.3347
20.46	59.3869
20.546	59.5227
20.632	59.6721
20.718	59.699
20.804	59.4751
20.89	58.9854
20.976	58.3692
21.062	57.851
21.148	57.6024
21.234	57.655
21.32	57.9153
21.406	58.2479
21.492	58.5557
21.578	58.7908
21.664	58.9381
21.75	58.9951
21.836	58.9762
21.922	58.9189
22.008	58.8619
22.094	58.8229
22.18	58.8043
22.266	58.8124
22.352	58.8723
22.438	59.0011
22.524	59.1856
22.61	59.3584
22.696	59.4263
22.782	59.3144
22.868	58.9905
22.954	58.4808
23.04	57.8557
23.126	57.2114
23.212	56.6786
23.298	56.3769
23.384	56.3876
23.47	56.7071
23.556	57.2363
23.642	57.8292
23.728	58.3501
23.814	58.7443
23.9	59.0367
23.986	59.2927
24.072	59.5701
24.158	59.8601
24.244	60.1017
24.33	60.2047
24.416	60.0796
24.502	59.6666
24.588	58.942
24.674	57.9191
24.76	56.6458
24.846	55.2354
24.932	53.8653
25.018	52.7242
25.104	51.9423
25.19	51.5782
25.276	51.5661
25.362	51.7023
25.448	51.7129
25.534	51.3576
25.62	50.4868
25.706	49.1006
25.792	47.3288
25.878	45.3615
25.964	43.3755
26.05	41.4928
26.136	39.8187
26.222	38.5002
26.308	37.7572
26.394	37.8314
26.48	38.9425
26.566	41.1164
26.652	44.0583
26.738	47.1283
26.824	49.4938
26.91	50.3347
26.996	48.8746
27.028	48.1382