File: Bakgrunnsmateriale/MATLAB/FTIR/ftir_data/subBb/Mapping_36/C-4040-8_t04.asc
PE IR       SPECTRUM    SPECTRUM    ASCII       PEDS        1.60
  -1
C-B52A~1.ASC
17/05/02
11:08:49.00
17/05/02
11:09:15.00
tln
$C-4040-8_t0004$<tbV0>[-2.5,-13.0,8.0,0.0,22,1,0]
27.028
64

2002,4.07
MIRTGS : RIGHTBACK : INTERNAL 2
MIR : ON : INTERNAL 2
OPTKBR

0.200000
8
8.000000
FILLER
RATIO
SPECTRUM
UNLOCKED 256

DOUBLE
64
COMBINED
1
0
0

0.002000
RATIO

1
0
TRUE
51149
0
LEFT NOT FITTED RIGHT NOT FITTED 0
NONE
NONE
15600
12
4.427000
51148
TRUE
1 0 8 72 0 0 0 0

15798

#HDR
-1
-1
#GR
µM
%T
2.38419e-05
0.0
1.282000
0.002000
12874
8
85.3717
37.1178
#DATA
1.282000	 69.6496
1.368000	 63.0731
1.454000	 65.1893
1.540000	 64.2943
1.626000	 63.309
1.712000	 64.3667
1.798000	 64.0109
1.884000	 64.8599
1.970000	 63.9385
2.056000	 64.3349
2.142000	 64.1909
2.228000	 64.6167
2.314000	 64.0602
2.400000	 63.946
2.486000	 63.8993
2.572000	 63.9864
2.658000	 63.8328
2.744000	 63.5188
2.830000	 63.1903
2.916000	 63.1943
3.002000	 62.7605
3.088000	 62.5241
3.174000	 62.5803
3.260000	 62.3478
3.346000	 61.9436
3.432000	 61.3162
3.518000	 61.4459
3.604000	 61.3199
3.690000	 61.1856
3.776000	 60.873
3.862000	 60.6535
3.948000	 60.4847
4.034000	 60.2873
4.120000	 60.1285
4.206000	 59.8959
4.292000	 59.5928
4.378000	 59.3687
4.464000	 59.1675
4.550000	 58.9863
4.636000	 58.8091
4.722000	 58.6849
4.808000	 58.2171
4.894000	 58.2909
4.980000	 58.1783
5.066000	 57.8103
5.152000	 57.7443
5.238000	 57.5861
5.324000	 57.4512
5.410000	 57.2375
5.496000	 57.1293
5.582000	 57.0049
5.668000	 56.8333
5.754000	 56.4383
5.840000	 56.4766
5.926000	 56.4389
6.012000	 56.3559
6.098000	 56.1737
6.184000	 56.1542
6.270000	 55.934
6.356000	 55.6217
6.442000	 55.5637
6.528000	 55.4718
6.614000	 55.425
6.700000	 55.3497
6.786000	 55.161
6.872000	 55.1006
6.958000	 54.9373
7.044000	 55.0292
7.130000	 54.6634
7.216000	 54.6201
7.302000	 54.4759
7.388000	 54.5758
7.474000	 54.4851
7.560000	 54.2926
7.646000	 54.0998
7.732000	 54.1693
7.818000	 53.9348
7.904000	 53.975
7.990000	 53.9298
8.076000	 53.7679
8.161999	 53.6621
8.248000	 53.6285
8.334000	 53.5234
8.420000	 53.4354
8.506000	 53.3689
8.592000	 53.3188
8.678000	 53.218
8.763999	 53.1277
8.850000	 53.0822
8.936000	 52.9709
9.022000	 52.7993
9.108000	 52.9544
9.193999	 53.0354
9.280000	 52.8116
9.366000	 52.7473
9.452000	 52.6206
9.538000	 52.6067
9.624000	 52.5842
9.710000	 52.4216
9.795999	 52.1733
9.882000	 52.1135
9.968000	 52.0071
10.054	51.9957
10.14	51.9362
10.226	51.8455
10.312	52.0552
10.398	51.981
10.484	51.7952
10.57	51.5766
10.656	51.6746
10.742	51.9543
10.828	51.7954
10.914	51.901
11	51.6967
11.086	51.2194
11.172	51.1325
11.258	51.5699
11.344	51.4714
11.43	50.8005
11.516	50.7312
11.602	50.5918
11.688	50.4232
11.774	50.5706
11.86	50.0626
11.946	50.5512
12.032	50.3952
12.118	50.2167
12.204	50.7306
12.29	50.9125
12.376	50.52
12.462	50.436
12.548	50.4921
12.634	50.4417
12.72	50.0793
12.806	50.021
12.892	50.1481
12.978	50.2566
13.064	50.1191
13.15	49.8618
13.236	49.6053
13.322	49.5129
13.408	49.8075
13.494	49.8568
13.58	49.6489
13.666	49.5363
13.752	49.3592
13.838	49.1683
13.924	49.0599
14.01	49.1307
14.096	49.2473
14.182	49.1003
14.268	48.9229
14.354	48.8989
14.44	48.9011
14.526	48.8209
14.612	48.7215
14.698	48.6792
14.784	48.6831
14.87	48.7394
14.956	48.8464
15.042	48.8874
15.128	48.7114
15.214	48.4271
15.3	48.2183
15.386	48.1383
15.472	48.1696
15.558	48.1259
15.644	47.9673
15.73	47.8696
15.816	47.7643
15.902	47.5583
15.988	47.422
16.074	47.4725
16.16	47.5974
16.246	47.596
16.332	47.4099
16.418	47.2812
16.504	47.4266
16.59	47.6557
16.676	47.6558
16.762	47.4302
16.848	47.1812
16.934	47.0071
17.02	46.8966
17.106	46.8494
17.192	46.9025
17.278	47.0733
17.364	47.2447
17.45	47.1955
17.536	46.8947
17.622	46.6063
17.708	46.5488
17.794	46.6324
17.88	46.6425
17.966	46.5308
18.052	46.3802
18.138	46.2217
18.224	46.017
18.31	45.7891
18.396	45.6499
18.482	45.6652
18.568	45.7602
18.654	45.8092
18.74	45.7734
18.826	45.7283
18.912	45.7719
18.998	45.9269
19.084	46.1272
19.17	46.2663
19.256	46.248
19.342	46.0316
19.428	45.6741
19.514	45.3173
19.6	45.0965
19.686	45.0346
19.772	45.0465
19.858	45.0502
19.944	45.042
20.03	45.0437
20.116	45.0257
20.202	44.9345
20.288	44.7658
20.374	44.5736
20.46	44.4084
20.546	44.2669
20.632	44.1142
20.718	43.9405
20.804	43.782
20.89	43.6888
20.976	43.6707
21.062	43.684
21.148	43.6618
21.234	43.5633
21.32	43.4074
21.406	43.2689
21.492	43.2343
21.578	43.3345
21.664	43.5062
21.75	43.6144
21.836	43.5419
21.922	43.2802
22.008	42.9596
22.094	42.7637
22.18	42.8102
22.266	43.0866
22.352	43.4558
22.438	43.7667
22.524	43.9449
22.61	44.0056
22.696	44.0067
22.782	43.978
22.868	43.8952
22.954	43.7094
23.04	43.4072
23.126	43.032
23.212	42.6627
23.298	42.356
23.384	42.0677
23.47	41.6772
23.556	41.0767
23.642	40.2482
23.728	39.341
23.814	38.6131
23.9	38.2982
23.986	38.4972
24.072	39.1022
24.158	39.8493
24.244	40.4415
24.33	40.645
24.416	40.375
24.502	39.6966
24.588	38.7811
24.674	37.8622
24.76	37.2339
24.846	37.2005
24.932	38.0429
25.018	39.9136
25.104	42.8131
25.19	46.4972
25.276	50.5416
25.362	54.4591
25.448	57.8225
25.534	60.4298
25.62	62.3253
25.706	63.7635
25.792	65.006
25.878	66.1913
25.964	67.345
26.05	68.3647
26.136	69.0574
26.222	69.159
26.308	68.4776
26.394	67.0873
26.48	65.4033
26.566	64.2185
26.652	64.4917
26.738	66.7871
26.824	71.0994
26.91	76.8054
26.996	83.461
27.028	85.3717