File: Bakgrunnsmateriale/MATLAB/FTIR/ftir_data/subBb/Mapping_36/C-4040-8_e38.asc
PE IR       SPECTRUM    SPECTRUM    ASCII       PEDS        1.60
  -1
C-A13C~1.ASC
17/05/02
11:52:50.00
17/05/02
11:53:17.00
tln
$C-4040-8_e0038$<ebV0>[-23.3,12.1,10.0,0.0,22,1,0]
27.028
64

2002,4.07
MIRTGS : RIGHTBACK : INTERNAL 2
MIR : ON : INTERNAL 2
OPTKBR

0.200000
8
8.000000
FILLER
SINGLE
SPECTRUM
UNLOCKED 256

DOUBLE

COMBINED
1
0
0

0.002000
BACKG

1
0
TRUE
51149
0
LEFT NOT FITTED RIGHT NOT FITTED 0
NONE
NONE
15600
12
4.427000
51148
TRUE
1 0 8 72 0 0 0 0

15798

#HDR
-1
-1
#GR
µM
EGY
2.38419e-05
0.0
1.282000
0.002000
12874
8
2.449655
0.008630
#DATA
1.282000	 0.033617
1.368000	 0.108919
1.454000	 0.166357
1.540000	 0.218011
1.626000	 0.306624
1.712000	 0.393112
1.798000	 0.462558
1.884000	 0.582071
1.970000	 0.719484
2.056000	 0.832013
2.142000	 0.907891
2.228000	 1.012069
2.314000	 1.102577
2.400000	 1.213917
2.486000	 1.361847
2.572000	 1.438823
2.658000	 1.555240
2.744000	 1.577007
2.830000	 1.622063
2.916000	 1.583084
3.002000	 1.674294
3.088000	 1.774082
3.174000	 1.809233
3.260000	 1.924487
3.346000	 2.025475
3.432000	 1.878547
3.518000	 2.052548
3.604000	 2.222211
3.690000	 2.250328
3.776000	 2.221565
3.862000	 2.232446
3.948000	 2.303417
4.034000	 2.320610
4.120000	 2.275918
4.206000	 2.245314
4.292000	 2.279927
4.378000	 2.354630
4.464000	 2.374323
4.550000	 2.353027
4.636000	 2.328465
4.722000	 2.332132
4.808000	 2.340507
4.894000	 2.410051
4.980000	 2.445850
5.066000	 2.435666
5.152000	 2.406713
5.238000	 2.375959
5.324000	 2.366350
5.410000	 2.383922
5.496000	 2.410737
5.582000	 2.416112
5.668000	 2.402412
5.754000	 2.325446
5.840000	 2.292767
5.926000	 2.242768
6.012000	 2.206177
6.098000	 2.147403
6.184000	 2.039227
6.270000	 2.002207
6.356000	 1.973195
6.442000	 1.941723
6.528000	 2.073382
6.614000	 2.081958
6.700000	 1.669925
6.786000	 1.968469
6.872000	 1.787035
6.958000	 1.857805
7.044000	 1.851148
7.130000	 1.718784
7.216000	 1.779119
7.302000	 1.809490
7.388000	 1.807816
7.474000	 1.813580
7.560000	 1.844205
7.646000	 1.845383
7.732000	 1.847465
7.818000	 1.835491
7.904000	 1.723678
7.990000	 1.795078
8.076000	 1.825980
8.161999	 1.809142
8.248000	 1.755320
8.334000	 1.740665
8.420000	 1.726375
8.506000	 1.691504
8.592000	 1.640511
8.678000	 1.606927
8.763999	 1.585970
8.850000	 1.545607
8.936000	 1.490264
9.022000	 1.438071
9.108000	 1.420851
9.193999	 1.422099
9.280000	 1.422884
9.366000	 1.430461
9.452000	 1.392249
9.538000	 1.296986
9.624000	 1.374644
9.710000	 1.366936
9.795999	 1.353670
9.882000	 1.371117
9.968000	 1.390395
10.054	1.390518
10.14	1.378669
10.226	1.365137
10.312	1.341506
10.398	1.312701
10.484	1.286472
10.57	1.262588
10.656	1.251609
10.742	1.236861
10.828	1.219614
10.914	1.195989
11	1.167452
11.086	1.152449
11.172	1.144423
11.258	1.119316
11.344	1.057104
11.43	1.022365
11.516	1.048604
11.602	1.080280
11.688	1.090699
11.774	1.080680
11.86	1.068369
11.946	1.037028
12.032	0.943524
12.118	0.848519
12.204	0.876937
12.29	0.933267
12.376	0.946997
12.462	0.942604
12.548	0.943910
12.634	0.955708
12.72	0.968126
12.806	0.973252
12.892	0.971704
12.978	0.967330
13.064	0.962404
13.15	0.960007
13.236	0.955927
13.322	0.948782
13.408	0.940749
13.494	0.930540
13.58	0.919584
13.666	0.907374
13.752	0.894530
13.838	0.882308
13.924	0.869708
14.01	0.857507
14.096	0.845112
14.182	0.830464
14.268	0.813771
14.354	0.791388
14.44	0.759948
14.526	0.733539
14.612	0.728297
14.698	0.732601
14.784	0.730787
14.87	0.723159
14.956	0.713951
15.042	0.705399
15.128	0.697242
15.214	0.688403
15.3	0.678584
15.386	0.668069
15.472	0.657889
15.558	0.648622
15.644	0.639483
15.73	0.630050
15.816	0.620804
15.902	0.611461
15.988	0.601891
16.074	0.592862
16.16	0.583965
16.246	0.572834
16.332	0.557478
16.418	0.540010
16.504	0.527069
16.59	0.522514
16.676	0.522558
16.762	0.521343
16.848	0.517693
16.934	0.513702
17.02	0.510665
17.106	0.508046
17.192	0.504967
17.278	0.501659
17.364	0.498783
17.45	0.496351
17.536	0.493471
17.622	0.489708
17.708	0.485000
17.794	0.479864
17.88	0.474845
17.966	0.470118
18.052	0.465603
18.138	0.461170
18.224	0.456919
18.31	0.452875
18.396	0.448653
18.482	0.444015
18.568	0.439168
18.654	0.434267
18.74	0.429256
18.826	0.423956
18.912	0.418307
18.998	0.412384
19.084	0.406453
19.17	0.400481
19.256	0.394495
19.342	0.388646
19.428	0.383078
19.514	0.377759
19.6	0.372426
19.686	0.366959
19.772	0.361246
19.858	0.355207
19.944	0.348821
20.03	0.342145
20.116	0.335264
20.202	0.328256
20.288	0.321198
20.374	0.313994
20.46	0.306665
20.546	0.299186
20.632	0.291727
20.718	0.284560
20.804	0.277600
20.89	0.270991
20.976	0.264584
21.062	0.258450
21.148	0.252535
21.234	0.246906
21.32	0.241381
21.406	0.235826
21.492	0.229948
21.578	0.223700
21.664	0.216950
21.75	0.209906
21.836	0.202659
21.922	0.195520
22.008	0.188744
22.094	0.182669
22.18	0.177411
22.266	0.172914
22.352	0.168971
22.438	0.165180
22.524	0.161267
22.61	0.157037
22.696	0.152571
22.782	0.148021
22.868	0.143571
22.954	0.139128
23.04	0.134549
23.126	0.129639
23.212	0.124250
23.298	0.118503
23.384	0.112608
23.47	0.106822
23.556	0.101440
23.642	0.096583
23.728	0.092186
23.814	0.088180
23.9	0.084464
23.986	0.080921
24.072	0.077410
24.158	0.073837
24.244	0.070139
24.33	0.066132
24.416	0.061947
24.502	0.057655
24.588	0.053427
24.674	0.049537
24.76	0.046088
24.846	0.043090
24.932	0.040458
25.018	0.038000
25.104	0.035618
25.19	0.033278
25.276	0.031026
25.362	0.028898
25.448	0.027004
25.534	0.025371
25.62	0.023982
25.706	0.022805
25.792	0.021703
25.878	0.020625
25.964	0.019473
26.05	0.018256
26.136	0.016880
26.222	0.015468
26.308	0.014090
26.394	0.012850
26.48	0.011782
26.566	0.010958
26.652	0.010397
26.738	0.010013
26.824	0.009696
26.91	0.009336
26.996	0.008806
27.028	0.008630