File: Bakgrunnsmateriale/MATLAB/FTIR/ftir_data/subBb/Mapping_36/C-4040-8_t20_cm-1.asc
PE IR       SPECTRUM    SPECTRUM    ASCII       PEDS        1.60
  -1
C-9A61~1.ASC
17/05/02
12:32:00.00
17/05/02
12:32:00.00
tln
$C-4040-8_t0020$<tbV0>[7.5,2.0,8.0,0.0,22,1,0]
370
64

2002,4.07
MIRTGS : RIGHTBACK : INTERNAL 2
MIR : ON : INTERNAL 2
OPTKBR

0.200000
8
8.000000
FILLER
RATIO
SPECTRUM
UNLOCKED 256

DOUBLE
64
COMBINED
1
0
0

1.000000
RATIO

1
0
TRUE
51149
0
LEFT NOT FITTED RIGHT NOT FITTED 0
NONE
NONE
15600
12
4.427000
51148
TRUE
1 0 8 72 0 0 0 0

15798

#HDR
-1
-1
#GR
CM-1
%T
2.38419e-05
0.0
7800
-1.000000
7431
8
106.724
45.7311
#DATA
7800	68.0326
7775	70.6619
7750	64.7899
7725	66.5064
7700	71.4958
7675	65.0049
7650	60.6254
7625	64.5443
7600	64.0921
7575	66.2912
7550	64.4962
7525	63.5287
7500	66.8719
7475	62.0143
7450	69.1089
7425	65.6235
7400	65.74
7375	66.2232
7350	66.1984
7325	68.7072
7300	64.0982
7275	68.8852
7250	64.0983
7225	65.7628
7200	64.8649
7175	65.6382
7150	64.62
7125	64.3431
7100	65.4994
7075	63.73
7050	62.3199
7025	69.6173
7000	64.5307
6975	62.4282
6950	63.6179
6925	65.1327
6900	64.3839
6875	65.6677
6850	64.2349
6825	65.1509
6800	62.6428
6775	63.1265
6750	63.7434
6725	64.3595
6700	64.5067
6675	62.8968
6650	64.0086
6625	65.4061
6600	64.8879
6575	64.7225
6550	65.8555
6525	63.0242
6500	65.151
6475	64.647
6450	63.5277
6425	64.1668
6400	64.6065
6375	64.2594
6350	64.1061
6325	63.6901
6300	64.8666
6275	63.0146
6250	63.4617
6225	64.9732
6200	65.2048
6175	64.9784
6150	64.3207
6125	64.4141
6100	64.2347
6075	64.6957
6050	64.7914
6025	64.0341
6000	65.7784
5975	65.2528
5950	64.8821
5925	64.6654
5900	64.7948
5875	65.9985
5850	65.358
5825	64.299
5800	65.1022
5775	64.8784
5750	64.8724
5725	65.2153
5700	64.7827
5675	64.6485
5650	64.6379
5625	66.5618
5600	64.932
5575	65.2612
5550	64.2606
5525	65.334
5500	65.0237
5475	65.3866
5450	64.8028
5425	64.3237
5400	64.8441
5375	64.2879
5350	64.1221
5325	62.8589
5300	65.579
5275	64.0889
5250	66.5541
5225	64.6959
5200	64.9216
5175	65.1945
5150	64.9288
5125	65.3484
5100	65.1095
5075	64.6287
5050	64.5977
5025	64.7715
5000	64.6556
4975	64.5957
4950	64.6317
4925	64.5844
4900	64.7268
4875	64.4115
4850	64.6805
4825	65.0327
4800	64.7196
4775	65.5283
4750	65.1342
4725	64.7452
4700	64.9687
4675	65.3707
4650	65.2432
4625	64.776
4600	64.9321
4575	64.4847
4550	64.3907
4525	64.0988
4500	63.8183
4475	63.8883
4450	63.6361
4425	63.4063
4400	63.4722
4375	63.0642
4350	64.4518
4325	63.413
4300	63.5793
4275	64.2035
4250	64.0014
4225	64.7359
4200	64.637
4175	64.8531
4150	65.2446
4125	64.9915
4100	65.3531
4075	65.1026
4050	65.4662
4025	65.3885
4000	65.176
3975	65.2995
3950	64.86
3925	65.1323
3900	64.8072
3875	64.9033
3850	64.9222
3825	65.0493
3800	64.9408
3775	64.9943
3750	65.2496
3725	64.9368
3700	65.1989
3675	65.1293
3650	65.1033
3625	65.2586
3600	65.0896
3575	65.2174
3550	65.2963
3525	64.9594
3500	64.963
3475	64.9846
3450	65.4068
3425	64.9873
3400	64.9203
3375	64.9186
3350	64.9202
3325	65.2211
3300	65.157
3275	65.0849
3250	64.9911
3225	65.2462
3200	65.1829
3175	65.1507
3150	65.0611
3125	65.2064
3100	65.082
3075	65.2575
3050	65.1367
3025	65.0178
3000	65.1797
2975	64.9315
2950	64.9471
2925	64.5876
2900	64.9734
2875	65.1323
2850	64.727
2825	65.1217
2800	65.0952
2775	65.0547
2750	65.1873
2725	65.1634
2700	65.1594
2675	65.0645
2650	65.2083
2625	65.2152
2600	65.1962
2575	65.1392
2550	65.1431
2525	65.1412
2500	65.0842
2475	65.2112
2450	65.1264
2425	65.2342
2400	65.0662
2375	65.1776
2350	65.1706
2325	65.2434
2300	65.3125
2275	65.2334
2250	65.2891
2225	65.2602
2200	65.191
2175	65.1428
2150	65.279
2125	65.1087
2100	65.1907
2075	65.1076
2050	65.2779
2025	65.1394
2000	65.0733
1975	65.2142
1950	65.1757
1925	65.1783
1900	65.267
1875	65.2584
1850	65.2205
1825	65.1825
1800	65.1435
1775	65.2241
1750	65.0395
1725	64.9527
1700	65.0677
1675	65.0344
1650	65.0213
1625	65.0932
1600	65.0625
1575	64.9646
1550	64.8673
1525	65.0695
1500	65.0138
1475	65.0778
1450	64.8362
1425	64.915
1400	64.969
1375	64.977
1350	65.0138
1325	64.8786
1300	64.852
1275	64.7849
1250	64.8309
1225	64.8554
1200	64.7762
1175	64.7412
1150	64.6375
1125	64.582
1100	64.5107
1075	64.4739
1050	64.5502
1025	64.3988
1000	64.4403
975	 64.491
950	 64.2735
925	 64.1902
900	 63.8158
875	 64.8103
850	 64.3061
825	 63.831
800	 63.6147
775	 63.7154
750	 63.2893
725	 63.0036
700	 63.0081
675	 62.4466
650	 62.5806
625	 62.3149
600	 61.6722
575	 61.017
550	 61.3275
525	 60.2775
500	 59.6562
475	 59.1846
450	 58.2989
425	 54.8351
400	 58.2195
375	 57.9218
370	 45.7311