File: Bakgrunnsmateriale/MATLAB/FTIR/ftir_data/subBb/Mapping_36/C-4040-8_t23_cm-1.asc
PE IR       SPECTRUM    SPECTRUM    ASCII       PEDS        1.60
  -1
C-9AE1~1.ASC
17/05/02
12:46:03.00
17/05/02
12:46:03.00
tln
$C-4040-8_t0023$<tbV0>[-7.5,2.0,8.0,0.0,22,1,0]
370
64

2002,4.07
MIRTGS : RIGHTBACK : INTERNAL 2
MIR : ON : INTERNAL 2
OPTKBR

0.200000
8
8.000000
FILLER
RATIO
SPECTRUM
UNLOCKED 256

DOUBLE
64
COMBINED
1
0
0

1.000000
RATIO

1
0
TRUE
51149
0
LEFT NOT FITTED RIGHT NOT FITTED 0
NONE
NONE
15600
12
4.427000
51148
TRUE
1 0 8 72 0 0 0 0

15798

#HDR
-1
-1
#GR
CM-1
%T
2.38419e-05
0.0
7800
-1.000000
7431
8
93.3986
44.291
#DATA
7800	68.4168
7775	65.5222
7750	63.7277
7725	61.817
7700	66.3841
7675	69.3185
7650	67.8822
7625	72.2408
7600	64.7869
7575	66.9371
7550	62.8352
7525	68.3459
7500	62.0397
7475	61.0582
7450	65.8077
7425	63.7686
7400	65.3449
7375	66.2093
7350	66.9746
7325	65.0099
7300	70.497
7275	66.1555
7250	65.5232
7225	65.1722
7200	67.8306
7175	63.7719
7150	64.4993
7125	63.6201
7100	65.4398
7075	62.6118
7050	63.1605
7025	69.5024
7000	62.6989
6975	64.2628
6950	64.0585
6925	65.8552
6900	66.1827
6875	67.5524
6850	63.5985
6825	64.8702
6800	65.7712
6775	62.7921
6750	62.8715
6725	61.2348
6700	65.0868
6675	62.8899
6650	61.9888
6625	66.6571
6600	64.6326
6575	63.7094
6550	65.466
6525	64.3079
6500	65.6227
6475	65.2712
6450	64.1787
6425	64.3259
6400	66.1328
6375	65.0282
6350	63.89
6325	63.7527
6300	63.6641
6275	62.5377
6250	64.9174
6225	65.4653
6200	64.7294
6175	64.8121
6150	64.4618
6125	65.9017
6100	64.4844
6075	64.871
6050	64.8658
6025	64.8309
6000	65.8179
5975	65.273
5950	64.8533
5925	65.2059
5900	64.8579
5875	64.3707
5850	65.928
5825	64.1712
5800	65.0095
5775	64.5616
5750	64.9343
5725	64.5327
5700	65.0953
5675	64.0898
5650	64.5866
5625	65.725
5600	66.1826
5575	65.3146
5550	65.0675
5525	65.4596
5500	66.2597
5475	65.6512
5450	65.0375
5425	64.6282
5400	65.4605
5375	65.4272
5350	65.1623
5325	64.1616
5300	63.9849
5275	62.3147
5250	66.9056
5225	65.6822
5200	65.3949
5175	64.7513
5150	65.1693
5125	65.1867
5100	65.4132
5075	65.1782
5050	64.9012
5025	65.4649
5000	65.875
4975	65.0558
4950	64.9821
4925	65.1427
4900	65.2205
4875	65.1707
4850	65.0749
4825	64.9462
4800	65.0105
4775	65.5562
4750	65.0719
4725	65.2494
4700	65.6354
4675	65.421
4650	65.588
4625	65.4276
4600	65.0164
4575	64.6052
4550	64.9008
4525	64.7496
4500	64.5502
4475	64.5348
4450	64.5711
4425	63.3396
4400	63.6446
4375	65.752
4350	64.8301
4325	64.4407
4300	64.5038
4275	64.5671
4250	64.8853
4225	64.9254
4200	64.8154
4175	64.981
4150	65.2227
4125	65.0416
4100	65.487
4075	65.1935
4050	65.485
4025	65.2052
4000	65.379
3975	65.2455
3950	65.1713
3925	65.2573
3900	65.0285
3875	65.1388
3850	65.3419
3825	65.3973
3800	65.21
3775	65.2724
3750	65.3784
3725	65.1768
3700	65.2308
3675	65.432
3650	65.3546
3625	65.3221
3600	65.4405
3575	65.3003
3550	65.2923
3525	65.031
3500	64.8689
3475	65.4032
3450	65.4297
3425	65.2724
3400	65.0918
3375	65.2895
3350	65.1033
3325	65.1751
3300	65.205
3275	65.3018
3250	65.315
3225	65.1075
3200	65.277
3175	65.3456
3150	65.109
3125	65.3991
3100	65.3638
3075	65.3683
3050	65.473
3025	65.2784
3000	65.2965
2975	65.2085
2950	64.9458
2925	64.9129
2900	65.1293
2875	65.201
2850	64.9484
2825	65.2469
2800	65.2724
2775	65.2625
2750	65.2335
2725	65.438
2700	65.2896
2675	65.276
2650	65.3265
2625	65.4319
2600	65.2193
2575	65.3082
2550	65.3434
2525	65.3271
2500	65.4226
2475	65.3428
2450	65.324
2425	65.354
2400	65.2373
2375	65.3199
2350	65.2922
2325	65.3519
2300	65.4119
2275	65.462
2250	65.3437
2225	65.2964
2200	65.2497
2175	65.3517
2150	65.2711
2125	65.2979
2100	65.2643
2075	65.3749
2050	65.3754
2025	65.3668
2000	65.2936
1975	65.3564
1950	65.3178
1925	65.2933
1900	65.3224
1875	65.3121
1850	65.3465
1825	65.2738
1800	65.3078
1775	65.3939
1750	65.2227
1725	65.1363
1700	65.2458
1675	65.1883
1650	65.1731
1625	65.2176
1600	65.2618
1575	65.1484
1550	65.0143
1525	65.1466
1500	65.3069
1475	65.0628
1450	65.0393
1425	65.1638
1400	65.1631
1375	65.1219
1350	65.2004
1325	65.128
1300	65.1299
1275	64.9973
1250	65.0204
1225	65.0736
1200	64.8989
1175	64.9904
1150	64.9952
1125	64.8444
1100	64.8257
1075	64.9765
1050	64.8273
1025	64.7954
1000	64.797
975	 64.7271
950	 64.9213
925	 64.2149
900	 63.9801
875	 64.8668
850	 64.5253
825	 64.413
800	 64.1819
775	 64.3127
750	 63.9386
725	 64.0287
700	 63.6345
675	 63.0908
650	 63.09
625	 63.6015
600	 62.745
575	 62.8753
550	 62.4206
525	 62.1758
500	 62.3608
475	 61.3899
450	 59.5817
425	 57.5308
400	 57.3235
375	 54.7026
370	 44.291