File: Bakgrunnsmateriale/MATLAB/FTIR/ftir_data/subBb/Mapping_36/C-4040-8_t31_cm-1.asc
PE IR       SPECTRUM    SPECTRUM    ASCII       PEDS        1.60
  -1
C-1BE4~1.ASC
17/05/02
13:30:41.00
17/05/02
13:30:41.00
tln
$C-4040-8_t0031$<tbV0>[12.5,12.0,8.0,0.0,22,1,0]
370
64

2002,4.07
MIRTGS : RIGHTBACK : INTERNAL 2
MIR : ON : INTERNAL 2
OPTKBR

0.200000
8
8.000000
FILLER
RATIO
SPECTRUM
UNLOCKED 256

DOUBLE
64
COMBINED
1
0
0

1.000000
RATIO

1
0
TRUE
51149
0
LEFT NOT FITTED RIGHT NOT FITTED 0
NONE
NONE
15600
12
4.427000
51148
TRUE
1 0 8 72 0 0 0 0

15798

#HDR
-1
-1
#GR
CM-1
%T
2.38419e-05
0.0
7800
-1.000000
7431
8
107.606
55.6235
#DATA
7800	71.5626
7775	65.23
7750	68.2708
7725	65.5335
7700	67.5912
7675	69.192
7650	73.5228
7625	69.8097
7600	64.0144
7575	67.3829
7550	68.8049
7525	63.9936
7500	66.458
7475	65.9496
7450	62.2868
7425	67.0969
7400	65.5449
7375	63.6606
7350	66.3143
7325	65.7444
7300	63.7922
7275	66.5733
7250	67.9038
7225	63.6845
7200	62.6534
7175	64.4437
7150	65.6
7125	64.0186
7100	64.1712
7075	64.2721
7050	63.3002
7025	69.2446
7000	64.0316
6975	62.9947
6950	63.9862
6925	64.822
6900	64.6446
6875	64.7473
6850	63.3699
6825	65.4434
6800	65.3491
6775	65.4349
6750	65.0919
6725	62.9427
6700	65.5885
6675	64.8537
6650	62.9991
6625	64.4675
6600	63.9679
6575	64.1429
6550	64.4168
6525	64.145
6500	64.3717
6475	63.4048
6450	65.2625
6425	64.4101
6400	64.8622
6375	64.3582
6350	65.8963
6325	64.5161
6300	64.6222
6275	65.2611
6250	63.4418
6225	64.3212
6200	64.7881
6175	64.1361
6150	65.1734
6125	65.6539
6100	65.1272
6075	63.813
6050	65.4726
6025	64.8131
6000	65.6685
5975	64.953
5950	64.8929
5925	65.4655
5900	65.281
5875	65.5426
5850	65.2432
5825	65.2727
5800	64.4254
5775	65.4474
5750	65.7288
5725	64.7001
5700	64.3718
5675	65.1858
5650	65.5287
5625	65.7093
5600	65.6146
5575	65.5599
5550	64.9066
5525	64.7621
5500	64.9451
5475	65.2783
5450	64.861
5425	64.8621
5400	65.101
5375	65.0477
5350	64.0192
5325	62.7241
5300	63.5051
5275	61.1667
5250	66.0363
5225	65.5833
5200	64.681
5175	65.0237
5150	64.8082
5125	64.962
5100	64.8984
5075	64.61
5050	64.6664
5025	64.7438
5000	65.0015
4975	64.5951
4950	64.8162
4925	64.7966
4900	64.536
4875	64.3514
4850	64.9935
4825	65.0359
4800	64.6897
4775	65.3103
4750	65.3106
4725	65.2458
4700	65.1641
4675	65.2438
4650	65.0858
4625	64.9764
4600	64.8947
4575	64.7829
4550	64.365
4525	64.2324
4500	63.8452
4475	64.1263
4450	63.6447
4425	64.5467
4400	62.636
4375	65.3343
4350	63.1814
4325	63.8025
4300	63.9076
4275	64.1218
4250	64.3344
4225	64.4108
4200	64.4728
4175	65.0183
4150	65.1786
4125	65.3043
4100	65.3114
4075	65.1525
4050	65.3092
4025	65.1579
4000	64.9279
3975	64.9914
3950	65.1028
3925	65.0784
3900	65.197
3875	64.8801
3850	64.9871
3825	65.1384
3800	65.1463
3775	65.2617
3750	65.0482
3725	65.0806
3700	65.2241
3675	65.1911
3650	65.2975
3625	65.2305
3600	65.1607
3575	65.1801
3550	65.3604
3525	65.1272
3500	64.9846
3475	64.8945
3450	65.36
3425	65.2767
3400	65.1767
3375	65.0592
3350	65.1367
3325	65.2682
3300	65.1195
3275	65.2103
3250	65.1484
3225	65.2622
3200	65.0602
3175	65.3469
3150	65.1393
3125	65.2325
3100	65.1652
3075	65.1034
3050	65.1614
3025	65.1199
3000	65.1867
2975	64.9844
2950	64.9736
2925	64.8001
2900	64.9789
2875	65.0814
2850	65.1105
2825	65.1556
2800	65.2461
2775	65.2687
2750	65.236
2725	65.1459
2700	65.2931
2675	65.2558
2650	65.2719
2625	65.4197
2600	65.3668
2575	65.3261
2550	65.2176
2525	65.3124
2500	65.3103
2475	65.3336
2450	65.2411
2425	65.4283
2400	65.391
2375	65.3711
2350	65.3123
2325	65.3069
2300	65.4202
2275	65.2981
2250	65.4163
2225	65.3667
2200	65.406
2175	65.3697
2150	65.493
2125	65.347
2100	65.3152
2075	65.3283
2050	65.387
2025	65.3139
2000	65.3392
1975	65.3807
1950	65.3906
1925	65.2925
1900	65.4434
1875	65.3109
1850	65.4092
1825	65.416
1800	65.4239
1775	65.4148
1750	65.3219
1725	65.0134
1700	65.2459
1675	65.2179
1650	65.1608
1625	65.3204
1600	65.1439
1575	65.0476
1550	65.1905
1525	65.0887
1500	65.1044
1475	65.1352
1450	65.2057
1425	65.3135
1400	65.2136
1375	65.2378
1350	65.1764
1325	65.3616
1300	65.2259
1275	65.1097
1250	65.0206
1225	65.1668
1200	65.1481
1175	65.0034
1150	64.8702
1125	65.0253
1100	64.9751
1075	64.8382
1050	65.1333
1025	64.9067
1000	65.0074
975	 64.9535
950	 64.733
925	 65.2246
900	 64.3339
875	 64.3239
850	 64.9076
825	 65.1561
800	 64.6614
775	 64.6444
750	 64.0435
725	 64.2481
700	 64.0028
675	 63.8954
650	 63.8627
625	 63.6373
600	 63.8529
575	 63.4085
550	 63.2547
525	 62.7791
500	 62.9339
475	 61.7954
450	 63.0081
425	 62.1245
400	 59.1937
375	 71.2419
370	 81.6535