File: Bakgrunnsmateriale/MATLAB/FTIR/ftir_data/subBb/Mapping_36/C-4040-8_t16.asc
PE IR       SPECTRUM    SPECTRUM    ASCII       PEDS        1.60
  -1
C-B922~1.ASC
17/05/02
12:12:38.00
17/05/02
12:13:05.00
tln
$C-4040-8_t0016$<tbV0>[-2.5,-3.0,8.0,0.0,22,1,0]
27.028
64

2002,4.07
MIRTGS : RIGHTBACK : INTERNAL 2
MIR : ON : INTERNAL 2
OPTKBR

0.200000
8
8.000000
FILLER
RATIO
SPECTRUM
UNLOCKED 256

DOUBLE
64
COMBINED
1
0
0

0.002000
RATIO

1
0
TRUE
51149
0
LEFT NOT FITTED RIGHT NOT FITTED 0
NONE
NONE
15600
12
4.427000
51148
TRUE
1 0 8 72 0 0 0 0

15798

#HDR
-1
-1
#GR
µM
%T
2.38419e-05
0.0
1.282000
0.002000
12874
8
83.3306
38.0306
#DATA
1.282000	 75.0494
1.368000	 62.9107
1.454000	 64.1222
1.540000	 65.8278
1.626000	 64.8933
1.712000	 64.2182
1.798000	 64.3433
1.884000	 67.3358
1.970000	 63.989
2.056000	 64.2877
2.142000	 64.1706
2.228000	 63.5217
2.314000	 64.2782
2.400000	 63.8384
2.486000	 63.8522
2.572000	 63.8948
2.658000	 63.4672
2.744000	 63.4552
2.830000	 62.9089
2.916000	 62.8777
3.002000	 62.5419
3.088000	 62.4851
3.174000	 62.1594
3.260000	 61.9913
3.346000	 61.7297
3.432000	 61.1523
3.518000	 61.064
3.604000	 60.9983
3.690000	 60.6756
3.776000	 60.4853
3.862000	 60.288
3.948000	 60.0155
4.034000	 59.8359
4.120000	 59.6794
4.206000	 59.3691
4.292000	 59.0767
4.378000	 58.9039
4.464000	 58.7646
4.550000	 58.5492
4.636000	 58.4105
4.722000	 58.1093
4.808000	 57.8814
4.894000	 57.7371
4.980000	 57.5762
5.066000	 57.3913
5.152000	 57.324
5.238000	 57.0892
5.324000	 56.9501
5.410000	 56.7647
5.496000	 56.626
5.582000	 56.4118
5.668000	 56.2532
5.754000	 55.9569
5.840000	 55.913
5.926000	 55.8194
6.012000	 55.74
6.098000	 55.4812
6.184000	 55.466
6.270000	 55.2051
6.356000	 55.1578
6.442000	 55.0594
6.528000	 54.9711
6.614000	 54.9098
6.700000	 54.8641
6.786000	 54.6392
6.872000	 54.6565
6.958000	 54.5093
7.044000	 54.3049
7.130000	 54.2885
7.216000	 54.1512
7.302000	 54.1086
7.388000	 54.0378
7.474000	 53.862
7.560000	 53.7781
7.646000	 53.7152
7.732000	 53.5399
7.818000	 53.5744
7.904000	 53.531
7.990000	 53.3079
8.076000	 53.2877
8.161999	 53.1804
8.248000	 53.0908
8.334000	 52.9786
8.420000	 52.9379
8.506000	 52.9662
8.592000	 52.8251
8.678000	 52.6705
8.763999	 52.6973
8.850000	 52.4701
8.936000	 52.3721
9.022000	 52.5007
9.108000	 52.3223
9.193999	 52.3002
9.280000	 52.1039
9.366000	 52.1619
9.452000	 51.9771
9.538000	 52.0095
9.624000	 52.1316
9.710000	 51.9187
9.795999	 51.7901
9.882000	 51.815
9.968000	 51.7104
10.054	51.6785
10.14	51.7816
10.226	51.6358
10.312	51.5862
10.398	51.3561
10.484	50.9911
10.57	51.5039
10.656	51.6246
10.742	50.9425
10.828	50.3855
10.914	50.924
11	50.7803
11.086	50.5883
11.172	50.387
11.258	50.7143
11.344	50.6491
11.43	50.4686
11.516	50.8899
11.602	50.7613
11.688	50.2502
11.774	50.3434
11.86	50.3538
11.946	49.9363
12.032	49.8817
12.118	50.2668
12.204	50.2319
12.29	50.1536
12.376	50.1271
12.462	50.3437
12.548	50.1538
12.634	49.831
12.72	49.7418
12.806	49.7089
12.892	49.7812
12.978	49.8732
13.064	49.7906
13.15	49.6081
13.236	49.4705
13.322	49.4974
13.408	49.5169
13.494	49.352
13.58	49.0734
13.666	49.0259
13.752	49.2504
13.838	49.2289
13.924	48.9546
14.01	48.7633
14.096	48.673
14.182	48.7105
14.268	48.7227
14.354	48.6483
14.44	48.5832
14.526	48.459
14.612	48.2858
14.698	48.1289
14.784	48.0273
14.87	48.0257
14.956	48.1498
15.042	48.3878
15.128	48.4355
15.214	48.1043
15.3	47.7329
15.386	47.6465
15.472	47.751
15.558	47.7892
15.644	47.7041
15.73	47.6217
15.816	47.5934
15.902	47.5345
15.988	47.4086
16.074	47.3292
16.16	47.3386
16.246	47.277
16.332	47.0975
16.418	46.9653
16.504	46.9102
16.59	46.8245
16.676	46.7423
16.762	46.7236
16.848	46.7076
16.934	46.6286
17.02	46.5362
17.106	46.5482
17.192	46.6452
17.278	46.6478
17.364	46.4883
17.45	46.3291
17.536	46.3246
17.622	46.4451
17.708	46.5537
17.794	46.5184
17.88	46.3032
17.966	45.9992
18.052	45.7379
18.138	45.578
18.224	45.4891
18.31	45.4419
18.396	45.4623
18.482	45.5613
18.568	45.683
18.654	45.7562
18.74	45.7461
18.826	45.6537
18.912	45.5122
18.998	45.3701
19.084	45.2672
19.17	45.2229
19.256	45.2286
19.342	45.2389
19.428	45.2116
19.514	45.1497
19.6	45.094
19.686	45.0718
19.772	45.0667
19.858	45.0352
19.944	44.9505
20.03	44.8265
20.116	44.7018
20.202	44.5944
20.288	44.48
20.374	44.3169
20.46	44.0899
20.546	43.8299
20.632	43.5905
20.718	43.3984
20.804	43.2302
20.89	43.0453
20.976	42.856
21.062	42.7414
21.148	42.7735
21.234	42.9328
21.32	43.108
21.406	43.1833
21.492	43.1294
21.578	43.0064
21.664	42.8978
21.75	42.8383
21.836	42.7921
21.922	42.696
22.008	42.5189
22.094	42.2883
22.18	42.0701
22.266	41.9274
22.352	41.8887
22.438	41.9425
22.524	42.0407
22.61	42.1115
22.696	42.074
22.782	41.8689
22.868	41.4903
22.954	41.0042
23.04	40.5202
23.126	40.1619
23.212	40.0113
23.298	40.0853
23.384	40.3188
23.47	40.6049
23.556	40.8356
23.642	40.9237
23.728	40.8285
23.814	40.5494
23.9	40.1045
23.986	39.5332
24.072	38.9134
24.158	38.3722
24.244	38.0595
24.33	38.1115
24.416	38.5861
24.502	39.3852
24.588	40.2861
24.674	41.0526
24.76	41.5179
24.846	41.6828
24.932	41.7676
25.018	42.1242
25.104	43.0561
25.19	44.6363
25.276	46.6198
25.362	48.5272
25.448	49.8087
25.534	50.1039
25.62	49.3409
25.706	47.7367
25.792	45.6902
25.878	43.6925
25.964	42.2838
26.05	41.9443
26.136	42.9441
26.222	45.2421
26.308	48.4191
26.394	51.7805
26.48	54.5256
26.566	55.9767
26.652	55.8332
26.738	54.2386
26.824	51.7064
26.91	48.9145
26.996	46.5739
27.028	46.0431