File: Bakgrunnsmateriale/MATLAB/FTIR/ftir_data/subBb/Mapping_36/C-4040-8_t26.asc
PE IR       SPECTRUM    SPECTRUM    ASCII       PEDS        1.60
  -1
C-BD22~1.ASC
17/05/02
13:06:38.00
17/05/02
13:07:04.00
tln
$C-4040-8_t0026$<tbV0>[7.5,7.0,8.0,0.0,22,1,0]
27.028
64

2002,4.07
MIRTGS : RIGHTBACK : INTERNAL 2
MIR : ON : INTERNAL 2
OPTKBR

0.200000
8
8.000000
FILLER
RATIO
SPECTRUM
UNLOCKED 256

DOUBLE
64
COMBINED
1
0
0

0.002000
RATIO

1
0
TRUE
51149
0
LEFT NOT FITTED RIGHT NOT FITTED 0
NONE
NONE
15600
12
4.427000
51148
TRUE
1 0 8 72 0 0 0 0

15798

#HDR
-1
-1
#GR
µM
%T
2.38419e-05
0.0
1.282000
0.002000
12874
8
78.617
36.0933
#DATA
1.282000	 71.9859
1.368000	 67.5192
1.454000	 66.1784
1.540000	 65.0525
1.626000	 64.255
1.712000	 65.0235
1.798000	 65.0863
1.884000	 61.4813
1.970000	 64.8858
2.056000	 64.8275
2.142000	 65.3334
2.228000	 64.4355
2.314000	 64.7185
2.400000	 64.9616
2.486000	 64.9866
2.572000	 65.0164
2.658000	 65.0899
2.744000	 65.3014
2.830000	 65.1922
2.916000	 65.0935
3.002000	 65.1061
3.088000	 65.1468
3.174000	 65.1468
3.260000	 65.0834
3.346000	 65.3231
3.432000	 64.9023
3.518000	 65.0735
3.604000	 65.2802
3.690000	 65.3861
3.776000	 65.2115
3.862000	 65.2265
3.948000	 65.2658
4.034000	 65.2363
4.120000	 65.2094
4.206000	 65.2688
4.292000	 65.1449
4.378000	 65.3939
4.464000	 65.2843
4.550000	 65.3744
4.636000	 65.2188
4.722000	 65.2346
4.808000	 65.2402
4.894000	 65.3208
4.980000	 65.3984
5.066000	 65.328
5.152000	 65.353
5.238000	 65.3916
5.324000	 65.3428
5.410000	 65.3575
5.496000	 65.334
5.582000	 65.3647
5.668000	 65.2671
5.754000	 65.0928
5.840000	 65.2185
5.926000	 65.1196
6.012000	 65.265
6.098000	 65.2483
6.184000	 65.1315
6.270000	 65.1912
6.356000	 65.1787
6.442000	 65.1927
6.528000	 65.1696
6.614000	 65.1952
6.700000	 65.373
6.786000	 65.0731
6.872000	 65.1972
6.958000	 65.2117
7.044000	 65.0529
7.130000	 65.063
7.216000	 65.0685
7.302000	 65.1175
7.388000	 65.0815
7.474000	 64.9316
7.560000	 65.1574
7.646000	 65.094
7.732000	 65.0749
7.818000	 65.1253
7.904000	 65.0071
7.990000	 64.8917
8.076000	 65.0469
8.161999	 64.9344
8.248000	 64.9301
8.334000	 65.0148
8.420000	 64.8431
8.506000	 64.8385
8.592000	 64.7552
8.678000	 64.8962
8.763999	 64.6983
8.850000	 64.861
8.936000	 64.8689
9.022000	 64.7515
9.108000	 64.8805
9.193999	 65.0179
9.280000	 64.8779
9.366000	 64.8471
9.452000	 64.787
9.538000	 64.966
9.624000	 64.795
9.710000	 64.8068
9.795999	 64.8745
9.882000	 64.884
9.968000	 64.8628
10.054	64.6082
10.14	64.6775
10.226	64.8055
10.312	64.5178
10.398	64.5874
10.484	64.3914
10.57	64.3827
10.656	64.4974
10.742	64.5869
10.828	64.4229
10.914	64.4192
11	64.981
11.086	65.2375
11.172	64.2885
11.258	64.2953
11.344	64.5222
11.43	64.0897
11.516	64.0477
11.602	64.4682
11.688	64.6573
11.774	64.595
11.86	64.3646
11.946	64.2602
12.032	64.4066
12.118	64.4207
12.204	64.1535
12.29	64.2326
12.376	64.2145
12.462	64.1705
12.548	64.073
12.634	63.9316
12.72	63.8124
12.806	63.8047
12.892	63.8973
12.978	63.7217
13.064	63.5984
13.15	63.7486
13.236	63.7651
13.322	63.5538
13.408	63.4906
13.494	63.6497
13.58	63.7306
13.666	63.6904
13.752	63.6431
13.838	63.5165
13.924	63.4584
14.01	63.4488
14.096	63.3643
14.182	63.3089
14.268	63.1757
14.354	63.1481
14.44	63.325
14.526	63.377
14.612	63.1545
14.698	62.8662
14.784	62.7578
14.87	62.8312
14.956	62.9572
15.042	63.0936
15.128	63.2055
15.214	63.1655
15.3	62.9885
15.386	62.8712
15.472	62.7469
15.558	62.6134
15.644	62.7437
15.73	63.0251
15.816	63.0886
15.902	62.9133
15.988	62.7614
16.074	62.7831
16.16	62.8891
16.246	63.004
16.332	63.1587
16.418	63.3179
16.504	63.3492
16.59	63.1899
16.676	62.9502
16.762	62.7897
16.848	62.7543
16.934	62.764
17.02	62.732
17.106	62.66
17.192	62.583
17.278	62.4723
17.364	62.2757
17.45	62.0266
17.536	61.8286
17.622	61.7509
17.708	61.7772
17.794	61.8396
17.88	61.8824
17.966	61.8599
18.052	61.7609
18.138	61.6746
18.224	61.6985
18.31	61.7842
18.396	61.8019
18.482	61.7248
18.568	61.6385
18.654	61.5878
18.74	61.5357
18.826	61.4663
18.912	61.4259
18.998	61.4417
19.084	61.4611
19.17	61.404
19.256	61.2648
19.342	61.1304
19.428	61.1003
19.514	61.1969
19.6	61.3597
19.686	61.5037
19.772	61.5829
19.858	61.5929
19.944	61.5496
20.03	61.4807
20.116	61.4264
20.202	61.4106
20.288	61.4141
20.374	61.3798
20.46	61.2547
20.546	61.0231
20.632	60.7032
20.718	60.3246
20.804	59.9235
20.89	59.5556
20.976	59.3073
21.062	59.2589
21.148	59.4263
21.234	59.7389
21.32	60.0776
21.406	60.3393
21.492	60.4813
21.578	60.51
21.664	60.4541
21.75	60.3462
21.836	60.218
21.922	60.0973
22.008	59.9934
22.094	59.8967
22.18	59.8043
22.266	59.7413
22.352	59.7625
22.438	59.9072
22.524	60.1517
22.61	60.3806
22.696	60.4395
22.782	60.2444
22.868	59.8235
22.954	59.3035
23.04	58.8246
23.126	58.473
23.212	58.2779
23.298	58.2361
23.384	58.3359
23.47	58.5511
23.556	58.8138
23.642	59.021
23.728	59.1056
23.814	59.0877
23.9	59.0834
23.986	59.2556
24.072	59.664
24.158	60.1858
24.244	60.568
24.33	60.5327
24.416	59.924
24.502	58.819
24.588	57.4541
24.674	56.0899
24.76	54.9402
24.846	54.0543
24.932	53.369
25.018	52.8189
25.104	52.4415
25.19	52.4396
25.276	53.0859
25.362	54.5842
25.448	56.9645
25.534	59.9849
25.62	63.1492
25.706	65.8677
25.792	67.6626
25.878	68.2518
25.964	67.5683
26.05	65.7464
26.136	62.9937
26.222	59.4965
26.308	55.4191
26.394	50.9648
26.48	46.4168
26.566	42.184
26.652	38.7421
26.738	36.6088
26.824	36.1484
26.91	37.4492
26.996	40.3143
27.028	41.2659