File: Bakgrunnsmateriale/MATLAB/FTIR/ftir_data/subBb/Mapping_36/C-4040-8_t02_cm-1.asc
PE IR       SPECTRUM    SPECTRUM    ASCII       PEDS        1.60
  -1
C-9964~1.ASC
17/05/02
10:59:27.00
17/05/02
10:59:27.00
tln
$C-4040-8_t0002$<tbV0>[7.5,-13.0,8.0,0.0,22,1,0]
370
64

2002,4.07
MIRTGS : RIGHTBACK : INTERNAL 2
MIR : ON : INTERNAL 2
OPTKBR

0.200000
8
8.000000
FILLER
RATIO
SPECTRUM
UNLOCKED 256

DOUBLE
64
COMBINED
1
0
0

1.000000
RATIO

1
0
TRUE
51149
0
LEFT NOT FITTED RIGHT NOT FITTED 0
NONE
NONE
15600
12
4.427000
51148
TRUE
1 0 8 72 0 0 0 0

15798

#HDR
-1
-1
#GR
CM-1

2.38419e-05
0.0
7800
-1.000000
7431
8
71.0796
12.3695
#DATA
7800	64.4936
7775	61.2447
7750	66.2862
7725	58.0177
7700	68.5508
7675	64.6153
7650	62.667
7625	59.9964
7600	63.6097
7575	65.4066
7550	65.7459
7525	59.042
7500	59.7596
7475	63.3963
7450	64.0152
7425	61.5324
7400	66.6135
7375	59.2186
7350	61.0804
7325	64.7956
7300	61.4738
7275	65.5546
7250	64.3266
7225	63.716
7200	63.1388
7175	62.3848
7150	60.8978
7125	61.1041
7100	62.9385
7075	61.299
7050	62.8453
7025	63.3363
7000	64.6175
6975	62.1675
6950	63.9403
6925	64.7878
6900	62.7341
6875	64.6548
6850	63.236
6825	63.185
6800	63.7142
6775	61.7801
6750	61.2832
6725	64.4488
6700	65.079
6675	63.2511
6650	63.7785
6625	64.1244
6600	63.1348
6575	62.7056
6550	62.5123
6525	64.2583
6500	63.9775
6475	64.1994
6450	64.201
6425	62.5978
6400	63.7375
6375	64.5305
6350	64.219
6325	62.5138
6300	61.0466
6275	63.2762
6250	63.9029
6225	63.6641
6200	62.9622
6175	63.208
6150	63.2427
6125	63.244
6100	64.1789
6075	63.4425
6050	63.971
6025	63.6104
6000	63.0439
5975	64.3605
5950	63.011
5925	62.3528
5900	63.438
5875	63.688
5850	63.547
5825	63.4093
5800	64.0402
5775	64.0077
5750	62.8359
5725	63.1254
5700	63.2153
5675	63.0159
5650	63.7059
5625	63.4031
5600	63.7449
5575	63.2594
5550	63.9692
5525	63.3563
5500	64.2891
5475	63.3396
5450	63.8508
5425	63.1635
5400	62.7832
5375	63.8219
5350	63.0002
5325	63.8277
5300	62.1802
5275	63.135
5250	60.9626
5225	63.0344
5200	62.5302
5175	63.757
5150	62.5083
5125	63.4151
5100	63.051
5075	63.2479
5050	63.268
5025	63.3639
5000	63.7048
4975	63.4536
4950	63.3786
4925	63.0531
4900	63.1952
4875	62.8748
4850	62.9915
4825	63.2511
4800	63.2972
4775	63.2774
4750	63.0098
4725	62.7041
4700	63.5512
4675	63.1064
4650	62.8401
4625	63.1604
4600	62.8363
4575	62.7712
4550	62.986
4525	62.6976
4500	63.0234
4475	62.4976
4450	63.1738
4425	62.826
4400	63.2082
4375	64.0552
4350	62.9871
4325	62.2128
4300	61.868
4275	62.3437
4250	62.5996
4225	62.1087
4200	62.0638
4175	62.0147
4150	62.1146
4125	62.2249
4100	62.1128
4075	62.049
4050	61.8259
4025	61.8392
4000	61.8059
3975	61.8855
3950	61.7263
3925	61.3101
3900	61.3492
3875	61.5315
3850	61.1742
3825	60.849
3800	61.116
3775	60.9123
3750	60.9455
3725	60.7378
3700	60.5339
3675	60.6437
3650	60.4367
3625	60.13
3600	60.2794
3575	60.1042
3550	60.0276
3525	59.6886
3500	59.6197
3475	59.3906
3450	59.1259
3425	59.2496
3400	58.8763
3375	58.7061
3350	58.7525
3325	58.23
3300	58.0134
3275	57.9749
3250	57.937
3225	57.5945
3200	57.4847
3175	57.2577
3150	57.2509
3125	56.877
3100	56.5713
3075	56.5544
3050	56.2943
3025	56.0398
3000	55.9403
2975	55.6023
2950	55.2755
2925	54.9535
2900	54.7397
2875	54.6219
2850	54.4102
2825	54.2922
2800	54.1806
2775	53.8107
2750	53.5411
2725	53.2249
2700	52.9829
2675	52.6549
2650	52.3364
2625	52.15
2600	51.9182
2575	51.605
2550	51.3496
2525	51.0321
2500	50.7256
2475	50.5754
2450	50.136
2425	49.8984
2400	49.5901
2375	49.259
2350	48.9425
2325	48.7628
2300	48.4084
2275	47.9554
2250	47.767
2225	47.4654
2200	47.1105
2175	46.778
2150	46.618
2125	46.0753
2100	45.8608
2075	45.477
2050	45.1852
2025	44.7753
2000	44.5414
1975	44.1322
1950	43.8653
1925	43.543
1900	43.0752
1875	42.8746
1850	42.5049
1825	42.2978
1800	41.9653
1775	41.5692
1750	41.0791
1725	40.7304
1700	40.622
1675	40.2001
1650	39.935
1625	39.4626
1600	39.1419
1575	38.7099
1550	38.4882
1525	38.1004
1500	37.8348
1475	37.45
1450	37.054
1425	36.7079
1400	36.3485
1375	36.1049
1350	35.8281
1325	35.4683
1300	35.1264
1275	34.7924
1250	34.5075
1225	33.967
1200	33.7729
1175	33.4695
1150	33.1817
1125	32.7834
1100	32.4225
1075	32.2252
1050	31.775
1025	31.2797
1000	31.0449
975	 30.7623
950	 29.9436
925	 29.8157
900	 29.1497
875	 29.1366
850	 28.4323
825	 27.8747
800	 27.9108
775	 26.9501
750	 26.4857
725	 25.7486
700	 25.1165
675	 24.4163
650	 23.8314
625	 23.0868
600	 22.5177
575	 21.3808
550	 20.4419
525	 19.4504
500	 18.1101
475	 16.1836
450	 17.5441
425	 14.9775
400	 17.3997
375	 30.8066
370	 40.1771