File: Bakgrunnsmateriale/MATLAB/FTIR/ftir_data/subBb/Mapping_36/C-4040-8_e39.asc
PE IR       SPECTRUM    SPECTRUM    ASCII       PEDS        1.60
  -1
C-A138~1.ASC
17/05/02
12:56:27.00
17/05/02
12:56:53.00
tln
$C-4040-8_e0039$<ebV0>[-23.3,12.1,10.0,0.0,22,1,0]
27.028
64

2002,4.07
MIRTGS : RIGHTBACK : INTERNAL 2
MIR : ON : INTERNAL 2
OPTKBR

0.200000
8
8.000000
FILLER
SINGLE
SPECTRUM
UNLOCKED 256

DOUBLE

COMBINED
1
0
0

0.002000
BACKG

1
0
TRUE
51149
0
LEFT NOT FITTED RIGHT NOT FITTED 0
NONE
NONE
15600
12
4.427000
51148
TRUE
1 0 8 72 0 0 0 0

15798

#HDR
-1
-1
#GR
µM
EGY
2.38419e-05
0.0
1.282000
0.002000
12874
8
2.449373
0.006222
#DATA
1.282000	 0.030851
1.368000	 0.108903
1.454000	 0.166136
1.540000	 0.220191
1.626000	 0.309725
1.712000	 0.393093
1.798000	 0.462371
1.884000	 0.576318
1.970000	 0.720958
2.056000	 0.831885
2.142000	 0.909342
2.228000	 1.005463
2.314000	 1.092680
2.400000	 1.216547
2.486000	 1.367371
2.572000	 1.437557
2.658000	 1.556659
2.744000	 1.580202
2.830000	 1.622866
2.916000	 1.584785
3.002000	 1.674435
3.088000	 1.777712
3.174000	 1.809192
3.260000	 1.928131
3.346000	 2.027503
3.432000	 1.879712
3.518000	 2.052037
3.604000	 2.222800
3.690000	 2.250327
3.776000	 2.224071
3.862000	 2.233427
3.948000	 2.303871
4.034000	 2.323311
4.120000	 2.278040
4.206000	 2.247627
4.292000	 2.281071
4.378000	 2.353332
4.464000	 2.375508
4.550000	 2.352626
4.636000	 2.331931
4.722000	 2.332596
4.808000	 2.340518
4.894000	 2.408953
4.980000	 2.445042
5.066000	 2.434396
5.152000	 2.407974
5.238000	 2.375216
5.324000	 2.368003
5.410000	 2.383560
5.496000	 2.411804
5.582000	 2.417724
5.668000	 2.403726
5.754000	 2.327896
5.840000	 2.291618
5.926000	 2.245578
6.012000	 2.205637
6.098000	 2.147855
6.184000	 2.042119
6.270000	 2.003750
6.356000	 1.974903
6.442000	 1.941020
6.528000	 2.074709
6.614000	 2.082870
6.700000	 1.670709
6.786000	 1.969309
6.872000	 1.787221
6.958000	 1.857678
7.044000	 1.849052
7.130000	 1.719288
7.216000	 1.781368
7.302000	 1.809169
7.388000	 1.809379
7.474000	 1.814807
7.560000	 1.843637
7.646000	 1.847868
7.732000	 1.847316
7.818000	 1.835377
7.904000	 1.723072
7.990000	 1.794431
8.076000	 1.826773
8.161999	 1.810305
8.248000	 1.758319
8.334000	 1.738872
8.420000	 1.728079
8.506000	 1.694096
8.592000	 1.642848
8.678000	 1.607731
8.763999	 1.587237
8.850000	 1.543822
8.936000	 1.488513
9.022000	 1.439844
9.108000	 1.419692
9.193999	 1.421674
9.280000	 1.422001
9.366000	 1.431721
9.452000	 1.393317
9.538000	 1.298432
9.624000	 1.378419
9.710000	 1.368303
9.795999	 1.353460
9.882000	 1.368408
9.968000	 1.388369
10.054	1.392236
10.14	1.379381
10.226	1.361858
10.312	1.342115
10.398	1.314267
10.484	1.287520
10.57	1.267096
10.656	1.251941
10.742	1.233591
10.828	1.215668
10.914	1.195758
11	1.167439
11.086	1.153680
11.172	1.142685
11.258	1.115813
11.344	1.058310
11.43	1.025013
11.516	1.056714
11.602	1.085506
11.688	1.087104
11.774	1.077802
11.86	1.066685
11.946	1.031965
12.032	0.938701
12.118	0.843472
12.204	0.873376
12.29	0.932129
12.376	0.943877
12.462	0.940933
12.548	0.944176
12.634	0.956060
12.72	0.970040
12.806	0.975059
12.892	0.972799
12.978	0.970320
13.064	0.965978
13.15	0.960007
13.236	0.955483
13.322	0.950064
13.408	0.942614
13.494	0.932999
13.58	0.921127
13.666	0.908693
13.752	0.895653
13.838	0.882683
13.924	0.870000
14.01	0.856894
14.096	0.843565
14.182	0.829889
14.268	0.815233
14.354	0.793723
14.44	0.761741
14.526	0.733864
14.612	0.727403
14.698	0.731593
14.784	0.730293
14.87	0.723537
14.956	0.714577
15.042	0.704987
15.128	0.695508
15.214	0.686346
15.3	0.677429
15.386	0.668306
15.472	0.659240
15.558	0.650050
15.644	0.639543
15.73	0.628671
15.816	0.619549
15.902	0.611776
15.988	0.603414
16.074	0.594138
16.16	0.583773
16.246	0.570937
16.332	0.554405
16.418	0.536858
16.504	0.524090
16.59	0.519438
16.676	0.519889
16.762	0.519945
16.848	0.517256
16.934	0.512913
17.02	0.508728
17.106	0.505630
17.192	0.503395
17.278	0.501210
17.364	0.498835
17.45	0.496606
17.536	0.494129
17.622	0.490605
17.708	0.485993
17.794	0.481178
17.88	0.476781
17.966	0.472596
18.052	0.468297
18.138	0.463664
18.224	0.458798
18.31	0.453967
18.396	0.449218
18.482	0.444421
18.568	0.439625
18.654	0.434927
18.74	0.430250
18.826	0.425215
18.912	0.419491
18.998	0.413451
19.084	0.407646
19.17	0.402337
19.256	0.397134
19.342	0.391863
19.428	0.386419
19.514	0.380805
19.6	0.375022
19.686	0.369051
19.772	0.362758
19.858	0.356060
19.944	0.349067
20.03	0.341882
20.116	0.334767
20.202	0.327779
20.288	0.320848
20.374	0.313838
20.46	0.306597
20.546	0.299079
20.632	0.291514
20.718	0.284248
20.804	0.277525
20.89	0.271499
20.976	0.265867
21.062	0.260284
21.148	0.254451
21.234	0.248340
21.32	0.241997
21.406	0.235555
21.492	0.229081
21.578	0.222563
21.664	0.215962
21.75	0.209160
21.836	0.202210
21.922	0.195118
22.008	0.188212
22.094	0.181768
22.18	0.176094
22.266	0.171289
22.352	0.167059
22.438	0.163067
22.524	0.158952
22.61	0.154597
22.696	0.150114
22.782	0.145590
22.868	0.141121
22.954	0.136657
23.04	0.132045
23.126	0.127194
23.212	0.122098
23.298	0.116771
23.384	0.111263
23.47	0.105653
23.556	0.100070
23.642	0.094640
23.728	0.089440
23.814	0.084611
23.9	0.080199
23.986	0.076076
24.072	0.072236
24.158	0.068568
24.244	0.065005
24.33	0.061571
24.416	0.058229
24.502	0.054981
24.588	0.051871
24.674	0.048980
24.76	0.046339
24.846	0.043900
24.932	0.041565
25.018	0.039285
25.104	0.036937
25.19	0.034515
25.276	0.031994
25.362	0.029494
25.448	0.027132
25.534	0.024983
25.62	0.023124
25.706	0.021545
25.792	0.020109
25.878	0.018833
25.964	0.017640
26.05	0.016404
26.136	0.015202
26.222	0.013968
26.308	0.012809
26.394	0.011690
26.48	0.010655
26.566	0.009721
26.652	0.008883
26.738	0.008129
26.824	0.007474
26.91	0.006881
26.996	0.006365
27.028	0.006222