File: Bakgrunnsmateriale/MATLAB/FTIR/ftir_data/subBb/Mapping_36/C-4040-8_t32_cm-1.asc
PE IR       SPECTRUM    SPECTRUM    ASCII       PEDS        1.60
  -1
C-1B64~1.ASC
17/05/02
13:35:22.00
17/05/02
13:35:22.00
tln
$C-4040-8_t0032$<tbV0>[7.5,12.0,8.0,0.0,22,1,0]
370
64

2002,4.07
MIRTGS : RIGHTBACK : INTERNAL 2
MIR : ON : INTERNAL 2
OPTKBR

0.200000
8
8.000000
FILLER
RATIO
SPECTRUM
UNLOCKED 256

DOUBLE
64
COMBINED
1
0
0

1.000000
RATIO

1
0
TRUE
51149
0
LEFT NOT FITTED RIGHT NOT FITTED 0
NONE
NONE
15600
12
4.427000
51148
TRUE
1 0 8 72 0 0 0 0

15798

#HDR
-1
-1
#GR
CM-1
%T
2.38419e-05
0.0
7800
-1.000000
7431
8
92.847
50.8463
#DATA
7800	79.0763
7775	59.8751
7750	71.0968
7725	70.5893
7700	71.2863
7675	70.0742
7650	67.4645
7625	60.2048
7600	65.2724
7575	68.8821
7550	67.9622
7525	67.9766
7500	64.496
7475	66.2743
7450	63.7933
7425	67.9403
7400	66.5524
7375	61.8614
7350	66.416
7325	67.4709
7300	62.9761
7275	66.9095
7250	63.4438
7225	65.261
7200	66.7135
7175	64.3934
7150	65.4536
7125	62.4901
7100	64.2777
7075	65.5456
7050	65.5261
7025	63.8484
7000	64.3665
6975	62.6317
6950	64.3934
6925	64.8335
6900	65.04
6875	64.1102
6850	64.2232
6825	64.0771
6800	65.014
6775	63.5501
6750	64.3387
6725	61.2734
6700	65.4209
6675	64.7934
6650	64.9878
6625	65.2327
6600	65.5903
6575	65.1203
6550	64.9919
6525	63.5987
6500	65.3296
6475	63.9477
6450	65.788
6425	65.3194
6400	65.4056
6375	64.276
6350	66.0394
6325	65.6011
6300	65.316
6275	64.249
6250	64.6729
6225	65.0261
6200	64.5791
6175	64.4921
6150	65.2099
6125	64.8906
6100	65.4144
6075	64.1224
6050	65.6725
6025	64.4819
6000	65.2927
5975	65.4139
5950	63.7913
5925	65.4687
5900	65.2486
5875	64.5139
5850	64.6516
5825	65.4194
5800	64.2203
5775	64.2403
5750	64.7901
5725	64.749
5700	64.9708
5675	64.9803
5650	64.9489
5625	64.7462
5600	64.8537
5575	65.4919
5550	65.0249
5525	64.7735
5500	64.9358
5475	65.3625
5450	65.1739
5425	64.9452
5400	65.0104
5375	65.1344
5350	65.53
5325	63.5193
5300	63.2591
5275	65.4048
5250	65.0481
5225	64.6776
5200	64.5137
5175	64.5212
5150	64.6652
5125	64.9959
5100	64.914
5075	65.2451
5050	64.9758
5025	64.471
5000	64.7871
4975	64.795
4950	64.682
4925	65.106
4900	64.7508
4875	64.624
4850	64.9505
4825	65.0023
4800	65.1448
4775	65.2625
4750	65.3272
4725	64.8143
4700	64.9096
4675	65.1486
4650	64.9556
4625	64.7516
4600	64.8935
4575	64.6675
4550	63.9801
4525	64.4928
4500	64.2322
4475	64.2528
4450	64.0857
4425	63.641
4400	64.1158
4375	63.2055
4350	64.3777
4325	64.0509
4300	64.4847
4275	64.3777
4250	64.4709
4225	64.5909
4200	64.9354
4175	64.8725
4150	65.1513
4125	65.142
4100	65.3259
4075	64.9624
4050	65.5043
4025	65.0307
4000	65.1824
3975	65.0389
3950	65.2014
3925	65.0019
3900	64.9897
3875	65.0087
3850	64.9277
3825	64.989
3800	65.1629
3775	65.0136
3750	65.1705
3725	65.1904
3700	65.2506
3675	65.3575
3650	65.3666
3625	65.1546
3600	65.0225
3575	65.2168
3550	65.1686
3525	65.1917
3500	64.9727
3475	64.8721
3450	64.9859
3425	65.0864
3400	65.1668
3375	65.1583
3350	65.1269
3325	65.0373
3300	65.1321
3275	65.1732
3250	65.1499
3225	65.0924
3200	65.1457
3175	65.1646
3150	65.2863
3125	65.016
3100	65.1521
3075	65.0785
3050	65.0439
3025	65.2128
3000	65.1256
2975	65.1151
2950	64.9642
2925	64.7021
2900	65.0044
2875	64.9861
2850	64.9162
2825	65.2122
2800	65.2356
2775	65.2841
2750	65.1041
2725	65.2568
2700	65.1882
2675	65.1869
2650	65.0449
2625	65.3362
2600	65.2124
2575	65.1797
2550	65.3374
2525	65.2658
2500	65.2029
2475	65.2633
2450	65.2325
2425	65.2323
2400	65.2135
2375	65.3981
2350	65.1658
2325	65.1035
2300	65.4218
2275	65.2675
2250	65.3103
2225	65.2142
2200	65.2994
2175	65.3329
2150	65.213
2125	65.2765
2100	65.3027
2075	65.1586
2050	65.2079
2025	65.2448
2000	65.2843
1975	65.2862
1950	65.4082
1925	65.2442
1900	65.2804
1875	65.2982
1850	65.314
1825	65.3204
1800	65.3353
1775	65.2872
1750	65.1756
1725	65.0583
1700	65.1886
1675	65.2614
1650	65.2115
1625	65.2986
1600	65.0703
1575	65.129
1550	65.1529
1525	65.1606
1500	65.1244
1475	65.0316
1450	65.1682
1425	65.1461
1400	65.0986
1375	65.0448
1350	64.9795
1325	64.9989
1300	65.1042
1275	64.9301
1250	64.8971
1225	65.019
1200	64.9268
1175	64.9256
1150	64.9801
1125	64.9133
1100	65.0201
1075	64.8191
1050	65.0899
1025	64.7664
1000	64.819
975	 64.9925
950	 64.9036
925	 64.8666
900	 63.8297
875	 64.7492
850	 64.8103
825	 64.7837
800	 64.4242
775	 64.2865
750	 63.7441
725	 63.6701
700	 63.4855
675	 63.7024
650	 63.2257
625	 63.3093
600	 63.1344
575	 62.965
550	 62.5101
525	 61.9247
500	 61.6004
475	 60.8267
450	 59.9554
425	 59.6004
400	 52.7081
375	 84.4292
370	 91.3933