File: Bakgrunnsmateriale/MATLAB/FTIR/ftir_data/subBb/Mapping_36/C-4040-8_t21_cm-1.asc
PE IR       SPECTRUM    SPECTRUM    ASCII       PEDS        1.60
  -1
C-9AE4~1.ASC
17/05/02
12:36:41.00
17/05/02
12:36:41.00
tln
$C-4040-8_t0021$<tbV0>[2.5,2.0,8.0,0.0,22,1,0]
370
64

2002,4.07
MIRTGS : RIGHTBACK : INTERNAL 2
MIR : ON : INTERNAL 2
OPTKBR

0.200000
8
8.000000
FILLER
RATIO
SPECTRUM
UNLOCKED 256

DOUBLE
64
COMBINED
1
0
0

1.000000
RATIO

1
0
TRUE
51149
0
LEFT NOT FITTED RIGHT NOT FITTED 0
NONE
NONE
15600
12
4.427000
51148
TRUE
1 0 8 72 0 0 0 0

15798

#HDR
-1
-1
#GR
CM-1
%T
2.38419e-05
0.0
7800
-1.000000
7431
8
139.33
46.1224
#DATA
7800	63.7466
7775	71.4052
7750	67.9951
7725	73.1707
7700	71.0865
7675	70.3033
7650	62.9445
7625	67.3203
7600	66.9434
7575	63.8768
7550	62.7222
7525	68.2657
7500	67.5692
7475	63.3868
7450	63.876
7425	68.897
7400	66.0097
7375	67.8899
7350	68.1823
7325	68.8659
7300	65.1006
7275	62.8952
7250	68.1794
7225	64.9444
7200	65.24
7175	65.9444
7150	65.4556
7125	62.3041
7100	62.8135
7075	62.948
7050	62.6382
7025	63.6055
7000	63.553
6975	63.8057
6950	64.2786
6925	63.6652
6900	65.8067
6875	64.2653
6850	63.5896
6825	66.5643
6800	63.753
6775	62.5215
6750	64.4117
6725	62.5145
6700	63.5898
6675	64.0627
6650	64.2263
6625	66.7267
6600	65.2086
6575	63.5705
6550	66.8496
6525	63.9938
6500	66.7219
6475	64.7149
6450	64.4244
6425	64.6613
6400	66.0831
6375	65.2975
6350	64.7274
6325	65.2241
6300	65.4355
6275	63.938
6250	63.8272
6225	65.9318
6200	64.0889
6175	63.9086
6150	65.1944
6125	65.2448
6100	64.4129
6075	66.2178
6050	65.7202
6025	64.7769
6000	65.5936
5975	65.1647
5950	65.0223
5925	64.0337
5900	65.1825
5875	64.4935
5850	64.863
5825	65.4199
5800	64.7173
5775	64.9494
5750	65.3342
5725	65.5748
5700	64.5643
5675	64.9337
5650	65.2291
5625	65.404
5600	65.8339
5575	64.8601
5550	64.4236
5525	65.4358
5500	65.2284
5475	65.3323
5450	65.3003
5425	64.8863
5400	64.9315
5375	65.2488
5350	64.2782
5325	65.77
5300	64.8241
5275	64.1271
5250	69.4179
5225	65.608
5200	64.4093
5175	65.4705
5150	65.1304
5125	65.3902
5100	65.4352
5075	65.1903
5050	64.5465
5025	64.5102
5000	64.9187
4975	64.8081
4950	64.7708
4925	64.833
4900	64.9251
4875	64.9237
4850	64.9416
4825	65.3077
4800	64.8646
4775	65.3923
4750	65.5324
4725	65.282
4700	65.4949
4675	65.1347
4650	65.5106
4625	65.2211
4600	64.9295
4575	64.6037
4550	64.2343
4525	63.8148
4500	64.0004
4475	64.0909
4450	64.0595
4425	64.1098
4400	64.0845
4375	64.3934
4350	64.5226
4325	63.498
4300	64.2884
4275	64.305
4250	64.2523
4225	64.7668
4200	64.8819
4175	64.6858
4150	65.0886
4125	65.237
4100	65.6558
4075	65.1438
4050	65.637
4025	65.2898
4000	65.3979
3975	65.1636
3950	65.1701
3925	65.1774
3900	64.9096
3875	65.0924
3850	64.9473
3825	65.0502
3800	64.9564
3775	65.1406
3750	65.3229
3725	65.0573
3700	65.0933
3675	65.5066
3650	65.3046
3625	65.444
3600	65.2646
3575	65.4802
3550	65.3279
3525	65.2595
3500	65.2034
3475	65.1411
3450	65.3009
3425	65.0573
3400	64.9954
3375	65.0054
3350	65.121
3325	65.1734
3300	65.3364
3275	65.2628
3250	65.1466
3225	65.0007
3200	65.2231
3175	65.2411
3150	65.091
3125	65.2958
3100	65.3477
3075	65.1905
3050	65.3177
3025	65.1439
3000	65.2017
2975	65.1602
2950	64.9017
2925	64.8802
2900	65.0302
2875	65.1922
2850	65.015
2825	65.3458
2800	65.1859
2775	65.2553
2750	65.1665
2725	65.3177
2700	65.2441
2675	65.2016
2650	65.2742
2625	65.2173
2600	65.3725
2575	65.2935
2550	65.3664
2525	65.3188
2500	65.315
2475	65.3979
2450	65.2827
2425	65.435
2400	65.2871
2375	65.3057
2350	65.3636
2325	65.3317
2300	65.3398
2275	65.3621
2250	65.3229
2225	65.2872
2200	65.2396
2175	65.3112
2150	65.3031
2125	65.2254
2100	65.2932
2075	65.2612
2050	65.2912
2025	65.2754
2000	65.3185
1975	65.3461
1950	65.2787
1925	65.2917
1900	65.2309
1875	65.2682
1850	65.3152
1825	65.3392
1800	65.1882
1775	65.2718
1750	65.2091
1725	65.0762
1700	65.1331
1675	65.1503
1650	65.1256
1625	65.1469
1600	65.148
1575	65.1108
1550	65.109
1525	65.0872
1500	65.2477
1475	65.0232
1450	64.8623
1425	65.0234
1400	65.0138
1375	64.9846
1350	65.1046
1325	65.0257
1300	64.8846
1275	64.8735
1250	64.8921
1225	65.0823
1200	64.8556
1175	64.9238
1150	64.795
1125	64.6792
1100	64.8432
1075	64.6558
1050	64.9132
1025	64.7549
1000	64.7383
975	 64.5897
950	 64.9374
925	 64.7092
900	 64.3229
875	 64.4793
850	 63.8964
825	 64.0162
800	 63.9562
775	 63.8419
750	 63.7284
725	 63.3772
700	 62.9846
675	 62.6889
650	 62.6109
625	 62.9177
600	 61.8442
575	 61.639
550	 61.4744
525	 61.0163
500	 60.9257
475	 59.5538
450	 59.1789
425	 56.9659
400	 58.3166
375	 57.0634
370	 57.4448