File: Bakgrunnsmateriale/MATLAB/FTIR/ftir_data/subBb/Mapping_36/C-4040-8_t30_cm-1.asc
PE IR       SPECTRUM    SPECTRUM    ASCII       PEDS        1.60
  -1
C-1B61~1.ASC
17/05/02
13:25:23.00
17/05/02
13:25:23.00
tln
$C-4040-8_t0030$<tbV0>[-12.5,7.0,8.0,0.0,22,1,0]
370
64

2002,4.07
MIRTGS : RIGHTBACK : INTERNAL 2
MIR : ON : INTERNAL 2
OPTKBR

0.200000
8
8.000000
FILLER
RATIO
SPECTRUM
UNLOCKED 256

DOUBLE
64
COMBINED
1
0
0

1.000000
RATIO

1
0
TRUE
51149
0
LEFT NOT FITTED RIGHT NOT FITTED 0
NONE
NONE
15600
12
4.427000
51148
TRUE
1 0 8 72 0 0 0 0

15798

#HDR
-1
-1
#GR
CM-1
%T
2.38419e-05
0.0
7800
-1.000000
7431
8
85.0961
56.4327
#DATA
7800	84.9462
7775	72.6152
7750	75.1415
7725	73.5356
7700	68.8184
7675	67.8478
7650	69.2128
7625	68.9327
7600	63.6242
7575	69.6535
7550	65.9632
7525	65.9496
7500	64.8715
7475	65.0253
7450	66.5372
7425	67.9933
7400	67.8014
7375	66.255
7350	66.9247
7325	62.9963
7300	60.9926
7275	65.8112
7250	64.5607
7225	64.712
7200	66.6485
7175	64.6629
7150	64.8455
7125	63.8952
7100	63.1272
7075	60.5888
7050	63.6289
7025	64.1735
7000	64.299
6975	62.3451
6950	64.5681
6925	64.4775
6900	66.6319
6875	65.1818
6850	65.7902
6825	64.5576
6800	63.5812
6775	64.1531
6750	62.5453
6725	62.905
6700	63.3359
6675	64.0774
6650	65.1842
6625	63.2013
6600	63.6578
6575	65.2037
6550	64.5015
6525	63.1933
6500	64.7489
6475	65.0227
6450	65.2662
6425	63.9493
6400	66.2849
6375	65.9528
6350	64.6183
6325	64.314
6300	64.0656
6275	64.6967
6250	65.1215
6225	65.0856
6200	64.05
6175	64.3966
6150	64.5798
6125	64.8357
6100	65.1594
6075	64.1202
6050	65.4756
6025	64.5654
6000	64.5739
5975	65.506
5950	64.9168
5925	64.6262
5900	65.1981
5875	64.7665
5850	64.6724
5825	65.6116
5800	65.0374
5775	64.5672
5750	65.3041
5725	64.574
5700	64.6062
5675	65.0745
5650	64.4976
5625	65.1849
5600	65.5879
5575	65.3393
5550	65.2146
5525	64.709
5500	64.3818
5475	64.5083
5450	65.2186
5425	65.127
5400	65.6176
5375	65.7415
5350	65.3915
5325	64.013
5300	63.8932
5275	63.185
5250	65.6843
5225	64.2361
5200	64.6122
5175	65.0583
5150	65.3199
5125	65.3636
5100	65.5691
5075	64.8776
5050	64.44
5025	65.324
5000	64.6474
4975	64.928
4950	64.5883
4925	64.7947
4900	64.8186
4875	64.4989
4850	64.9114
4825	65.0649
4800	64.8887
4775	65.3145
4750	65.1286
4725	65.2035
4700	65.3027
4675	65.5447
4650	65.0249
4625	65.326
4600	64.959
4575	64.6616
4550	64.847
4525	63.9905
4500	64.3342
4475	64.3816
4450	63.5378
4425	63.7805
4400	62.9571
4375	67.3704
4350	63.9718
4325	64.1683
4300	64.6168
4275	64.8223
4250	64.7465
4225	64.7691
4200	64.8027
4175	64.8208
4150	65.3465
4125	65.418
4100	65.2315
4075	65.2022
4050	65.296
4025	65.0009
4000	65.0441
3975	64.9709
3950	65.169
3925	65.0931
3900	65.0145
3875	65.0953
3850	65.0297
3825	65.1336
3800	65.1172
3775	64.9287
3750	65.01
3725	65.1764
3700	65.18
3675	65.2521
3650	65.287
3625	65.1784
3600	65.1217
3575	65.1656
3550	65.0977
3525	64.9231
3500	64.8638
3475	65.2306
3450	65.0341
3425	65.0996
3400	65.0619
3375	65.1355
3350	64.9947
3325	65.0708
3300	65.0232
3275	65.0527
3250	65.1285
3225	65.1903
3200	64.9564
3175	65.352
3150	65.2115
3125	65.1023
3100	65.3377
3075	65.134
3050	65.0838
3025	65.1484
3000	65.2956
2975	65.0203
2950	64.9108
2925	64.6501
2900	65.0112
2875	65.0007
2850	64.8964
2825	65.136
2800	65.215
2775	65.2301
2750	65.0939
2725	65.3728
2700	65.2981
2675	65.2006
2650	65.0658
2625	65.357
2600	65.1956
2575	65.1961
2550	65.2356
2525	65.3542
2500	65.3384
2475	65.2946
2450	65.2447
2425	65.2192
2400	65.165
2375	65.1166
2350	65.1554
2325	65.2637
2300	65.3243
2275	65.2249
2250	65.4015
2225	65.119
2200	65.2243
2175	65.2839
2150	65.2743
2125	65.2643
2100	65.2595
2075	65.2492
2050	65.1506
2025	65.174
2000	65.3022
1975	65.3305
1950	65.281
1925	65.3349
1900	65.3135
1875	65.2409
1850	65.2632
1825	65.2993
1800	65.2873
1775	65.2869
1750	65.0193
1725	64.9929
1700	65.2839
1675	65.1928
1650	65.2179
1625	65.2336
1600	65.004
1575	64.9962
1550	65.0609
1525	65.113
1500	65.1285
1475	65.0687
1450	64.9322
1425	65.0696
1400	65.0203
1375	64.9724
1350	65.1184
1325	64.9526
1300	64.9758
1275	64.9387
1250	64.9032
1225	64.9266
1200	64.8162
1175	64.8111
1150	64.8653
1125	64.8115
1100	64.9014
1075	64.8294
1050	64.808
1025	64.6844
1000	64.6271
975	 64.9693
950	 64.5578
925	 64.6458
900	 63.8537
875	 64.7072
850	 64.3231
825	 64.5513
800	 64.2128
775	 64.1964
750	 63.7864
725	 63.7492
700	 63.276
675	 63.398
650	 62.9676
625	 63.0967
600	 62.8515
575	 62.301
550	 62.2092
525	 61.3565
500	 61.4543
475	 59.8681
450	 59.6817
425	 57.6628
400	 57.4438
375	 72.658
370	 56.4327