File: Bakgrunnsmateriale/MATLAB/FTIR/ftir_data/subBb/Mapping_36/C-4040-8_t13.asc
PE IR       SPECTRUM    SPECTRUM    ASCII       PEDS        1.60
  -1
C-A926~1.ASC
17/05/02
11:58:35.00
17/05/02
11:59:01.00
tln
$C-4040-8_t0013$<tbV0>[12.5,-3.0,8.0,0.0,22,1,0]
27.028
64

2002,4.07
MIRTGS : RIGHTBACK : INTERNAL 2
MIR : ON : INTERNAL 2
OPTKBR

0.200000
8
8.000000
FILLER
RATIO
SPECTRUM
UNLOCKED 256

DOUBLE
64
COMBINED
1
0
0

0.002000
RATIO

1
0
TRUE
51149
0
LEFT NOT FITTED RIGHT NOT FITTED 0
NONE
NONE
15600
12
4.427000
51148
TRUE
1 0 8 72 0 0 0 0

15798

#HDR
-1
-1
#GR
µM
%T
2.38419e-05
0.0
1.282000
0.002000
12874
8
91.2148
37.6785
#DATA
1.282000	 76.2345
1.368000	 62.9951
1.454000	 65.2652
1.540000	 65.7142
1.626000	 64.9374
1.712000	 64.9382
1.798000	 65.1059
1.884000	 63.1205
1.970000	 64.9095
2.056000	 64.4185
2.142000	 65.1718
2.228000	 64.0058
2.314000	 64.4345
2.400000	 64.7196
2.486000	 65.2534
2.572000	 65.0473
2.658000	 65.0792
2.744000	 65.2585
2.830000	 65.0656
2.916000	 65.2612
3.002000	 65.0412
3.088000	 65.246
3.174000	 65.0895
3.260000	 65.3092
3.346000	 65.1342
3.432000	 64.9475
3.518000	 64.9704
3.604000	 65.2288
3.690000	 65.3993
3.776000	 65.1942
3.862000	 65.2573
3.948000	 65.3128
4.034000	 65.2884
4.120000	 65.2839
4.206000	 65.2652
4.292000	 65.3713
4.378000	 65.2265
4.464000	 65.4008
4.550000	 65.4185
4.636000	 65.3694
4.722000	 65.3329
4.808000	 65.294
4.894000	 65.3231
4.980000	 65.3008
5.066000	 65.3426
5.152000	 65.3936
5.238000	 65.334
5.324000	 65.3521
5.410000	 65.3261
5.496000	 65.2479
5.582000	 65.2851
5.668000	 65.2609
5.754000	 65.0167
5.840000	 65.2255
5.926000	 65.2009
6.012000	 65.1483
6.098000	 65.1469
6.184000	 65.3564
6.270000	 65.0917
6.356000	 65.0193
6.442000	 64.9797
6.528000	 65.0332
6.614000	 65.2146
6.700000	 65.2235
6.786000	 65.0582
6.872000	 64.9227
6.958000	 65.0461
7.044000	 64.9132
7.130000	 65.0707
7.216000	 64.9794
7.302000	 64.8889
7.388000	 64.9897
7.474000	 65.0137
7.560000	 64.9639
7.646000	 65.0538
7.732000	 64.8628
7.818000	 64.8793
7.904000	 64.8618
7.990000	 64.9075
8.076000	 65.0123
8.161999	 64.9308
8.248000	 64.9964
8.334000	 64.8907
8.420000	 64.9205
8.506000	 64.9942
8.592000	 64.8043
8.678000	 64.7254
8.763999	 64.7664
8.850000	 64.6626
8.936000	 64.6629
9.022000	 64.7416
9.108000	 64.7573
9.193999	 64.7047
9.280000	 64.5395
9.366000	 64.7166
9.452000	 64.6794
9.538000	 64.7491
9.624000	 64.7632
9.710000	 64.5757
9.795999	 64.6155
9.882000	 64.6703
9.968000	 64.6754
10.054	64.8006
10.14	64.6999
10.226	64.5775
10.312	64.5705
10.398	64.6864
10.484	64.7821
10.57	64.7087
10.656	64.4125
10.742	64.3165
10.828	64.6169
10.914	64.7746
11	64.2942
11.086	64.4386
11.172	64.28
11.258	64.0735
11.344	64.3445
11.43	64.5213
11.516	64.6883
11.602	64.4146
11.688	63.7639
11.774	63.9281
11.86	64.0809
11.946	64.0803
12.032	64.0911
12.118	63.8839
12.204	63.9109
12.29	64.0826
12.376	63.7691
12.462	63.6478
12.548	63.8497
12.634	63.9648
12.72	63.8072
12.806	63.7869
12.892	63.7394
12.978	63.711
13.064	63.7188
13.15	63.6402
13.236	63.5297
13.322	63.4873
13.408	63.3488
13.494	63.3226
13.58	63.413
13.666	63.4545
13.752	63.4852
13.838	63.4952
13.924	63.5354
14.01	63.4242
14.096	63.2016
14.182	63.0517
14.268	63.0275
14.354	63.2346
14.44	63.2756
14.526	62.8462
14.612	62.3874
14.698	62.3646
14.784	62.5549
14.87	62.6933
14.956	62.8303
15.042	62.8398
15.128	62.5976
15.214	62.3501
15.3	62.3769
15.386	62.559
15.472	62.5842
15.558	62.388
15.644	62.1779
15.73	62.163
15.816	62.282
15.902	62.3803
15.988	62.4848
16.074	62.5059
16.16	62.2876
16.246	62.0383
16.332	62.0182
16.418	62.0977
16.504	62.0507
16.59	61.92
16.676	61.8876
16.762	61.9572
16.848	62.0164
16.934	62.0221
17.02	62.0009
17.106	62.0093
17.192	62.052
17.278	62.0595
17.364	61.9575
17.45	61.7371
17.536	61.4749
17.622	61.2556
17.708	61.1211
17.794	61.0891
17.88	61.1481
17.966	61.2417
18.052	61.3219
18.138	61.4017
18.224	61.4956
18.31	61.5694
18.396	61.5839
18.482	61.51
18.568	61.329
18.654	61.0755
18.74	60.8277
18.826	60.6389
18.912	60.5225
18.998	60.4889
19.084	60.5471
19.17	60.6826
19.256	60.8583
19.342	61.0482
19.428	61.2416
19.514	61.4128
19.6	61.5146
19.686	61.5154
19.772	61.4262
19.858	61.2604
19.944	61.0068
20.03	60.6673
20.116	60.3052
20.202	60.0119
20.288	59.839
20.374	59.774
20.46	59.7639
20.546	59.7425
20.632	59.6519
20.718	59.4677
20.804	59.2276
20.89	59.0297
20.976	58.9831
21.062	59.1246
21.148	59.3764
21.234	59.5936
21.32	59.665
21.406	59.5808
21.492	59.4036
21.578	59.1963
21.664	58.982
21.75	58.7667
21.836	58.5752
21.922	58.4534
22.008	58.4196
22.094	58.4263
22.18	58.3875
22.266	58.2386
22.352	57.9907
22.438	57.7193
22.524	57.5025
22.61	57.3786
22.696	57.3202
22.782	57.2766
22.868	57.2095
22.954	57.1089
23.04	56.9885
23.126	56.8821
23.212	56.8405
23.298	56.9276
23.384	57.172
23.47	57.537
23.556	57.9347
23.642	58.2412
23.728	58.3576
23.814	58.2478
23.9	57.9182
23.986	57.3892
24.072	56.6994
24.158	55.9153
24.244	55.1296
24.33	54.4703
24.416	54.0762
24.502	54.0117
24.588	54.2566
24.674	54.7415
24.76	55.3995
24.846	56.1891
24.932	57.2063
25.018	58.6453
25.104	60.6172
25.19	62.9788
25.276	65.2775
25.362	66.8435
25.448	67.0793
25.534	65.7671
25.62	63.1472
25.706	59.8394
25.792	56.5761
25.878	54.0536
25.964	52.8948
26.05	53.5625
26.136	56.1822
26.222	60.3661
26.308	65.1754
26.394	69.3557
26.48	71.7153
26.566	71.4186
26.652	68.3165
26.738	62.8118
26.824	55.681
26.91	47.7927
26.996	39.8141
27.028	37.6785