File: Bakgrunnsmateriale/MATLAB/FTIR/ftir_data/subBb/Mapping_36/C-4040-8_t29_cm-1.asc
PE IR       SPECTRUM    SPECTRUM    ASCII       PEDS        1.60
  -1
C-9AE0~1.ASC
17/05/02
13:20:42.00
17/05/02
13:20:42.00
tln
$C-4040-8_t0029$<tbV0>[-7.5,7.0,8.0,0.0,22,1,0]
370
64

2002,4.07
MIRTGS : RIGHTBACK : INTERNAL 2
MIR : ON : INTERNAL 2
OPTKBR

0.200000
8
8.000000
FILLER
RATIO
SPECTRUM
UNLOCKED 256

DOUBLE
64
COMBINED
1
0
0

1.000000
RATIO

1
0
TRUE
51149
0
LEFT NOT FITTED RIGHT NOT FITTED 0
NONE
NONE
15600
12
4.427000
51148
TRUE
1 0 8 72 0 0 0 0

15798

#HDR
-1
-1
#GR
CM-1
%T
2.38419e-05
0.0
7800
-1.000000
7431
8
88.975
51.8646
#DATA
7800	74.499
7775	72.9193
7750	67.5343
7725	69.112
7700	67.3779
7675	67.2945
7650	63.0952
7625	68.4417
7600	66.6114
7575	72.2737
7550	63.7734
7525	66.8872
7500	67.5634
7475	59.5482
7450	63.7047
7425	64.7298
7400	62.9347
7375	65.2291
7350	65.5294
7325	61.7291
7300	62.3383
7275	63.8086
7250	63.9731
7225	67.2865
7200	62.5122
7175	62.6106
7150	62.6268
7125	59.9519
7100	62.9881
7075	64.0094
7050	63.6651
7025	62.7529
7000	64.5206
6975	62.1478
6950	63.5606
6925	62.6223
6900	64.0124
6875	63.5125
6850	64.9654
6825	63.1803
6800	63.554
6775	64.8365
6750	63.434
6725	62.498
6700	64.0016
6675	62.6773
6650	63.9541
6625	63.5008
6600	64.4042
6575	63.8608
6550	64.3254
6525	63.8632
6500	64.1233
6475	63.4293
6450	65.4877
6425	62.7659
6400	64.2791
6375	62.5799
6350	63.8813
6325	63.855
6300	62.67
6275	64.3702
6250	63.6273
6225	63.0267
6200	64.0035
6175	64.86
6150	63.8049
6125	63.4591
6100	64.4676
6075	63.7008
6050	65.2874
6025	63.6548
6000	64.4657
5975	63.5308
5950	63.4522
5925	63.963
5900	64.3046
5875	63.8464
5850	63.8596
5825	64.8863
5800	63.3934
5775	63.8772
5750	64.1578
5725	63.6836
5700	64.0841
5675	64.2058
5650	64.742
5625	64.2165
5600	64.8337
5575	64.2436
5550	64.3923
5525	64.4693
5500	63.4421
5475	63.3167
5450	64.0372
5425	64.768
5400	64.3942
5375	64.791
5350	64.9184
5325	63.7094
5300	62.4766
5275	62.4238
5250	64.2526
5225	63.4346
5200	63.4844
5175	63.9755
5150	64.3337
5125	64.2994
5100	64.3709
5075	64.1834
5050	63.8922
5025	64.088
5000	64.1155
4975	64.4375
4950	63.8141
4925	63.9553
4900	63.6794
4875	63.652
4850	63.4983
4825	63.9509
4800	63.9569
4775	63.9779
4750	64.0663
4725	63.9128
4700	63.7322
4675	63.9411
4650	64.0939
4625	63.7491
4600	63.7521
4575	63.9311
4550	63.8127
4525	63.5886
4500	63.2995
4475	63.4026
4450	62.97
4425	63.2686
4400	61.7612
4375	66.1136
4350	63.812
4325	63.8302
4300	63.5295
4275	63.7443
4250	63.6383
4225	63.6577
4200	63.5065
4175	64.2025
4150	64.2358
4125	63.861
4100	64.2682
4075	64.2223
4050	64.1588
4025	63.8645
4000	64.315
3975	64.1344
3950	64.2437
3925	64.268
3900	64.1122
3875	63.9862
3850	64.084
3825	64.0521
3800	64.0421
3775	63.866
3750	64.0187
3725	64.1337
3700	64.0296
3675	64.1105
3650	63.9994
3625	64.0671
3600	64.0777
3575	64.0272
3550	64.0696
3525	63.9717
3500	64.0292
3475	63.6263
3450	63.9367
3425	63.9003
3400	63.9627
3375	63.9754
3350	63.951
3325	63.8721
3300	63.8908
3275	63.9309
3250	63.9348
3225	64.097
3200	63.9138
3175	64.1314
3150	64.008
3125	63.9712
3100	63.9675
3075	63.9569
3050	63.9741
3025	63.9032
3000	64.0252
2975	63.9269
2950	63.8864
2925	63.5346
2900	63.857
2875	63.8504
2850	63.782
2825	63.8964
2800	63.9613
2775	64.0941
2750	63.943
2725	64.039
2700	63.9222
2675	63.9278
2650	63.9291
2625	64.0354
2600	63.9597
2575	63.9726
2550	64.0304
2525	63.93
2500	64.1109
2475	63.9665
2450	64.0903
2425	64.032
2400	63.9625
2375	63.93
2350	63.8963
2325	63.8966
2300	64.0274
2275	64.0275
2250	64.0158
2225	63.9912
2200	64.0593
2175	63.9724
2150	64.0519
2125	63.9822
2100	63.99
2075	64.0249
2050	63.9566
2025	63.9397
2000	63.9553
1975	63.9933
1950	63.992
1925	63.9676
1900	63.9926
1875	63.9365
1850	63.9781
1825	64.0205
1800	64.0847
1775	64.012
1750	63.9157
1725	63.8005
1700	63.917
1675	63.8552
1650	63.9843
1625	63.8919
1600	63.812
1575	63.7181
1550	63.7813
1525	63.8677
1500	63.8596
1475	63.8928
1450	63.7678
1425	63.8145
1400	63.874
1375	63.673
1350	63.7298
1325	63.6892
1300	63.7782
1275	63.6967
1250	63.6924
1225	63.668
1200	63.9158
1175	63.714
1150	63.4585
1125	63.6652
1100	63.2935
1075	63.5899
1050	63.2071
1025	63.167
1000	63.2792
975	 63.5216
950	 63.1594
925	 63.4949
900	 63.1897
875	 62.9154
850	 62.8618
825	 63.4063
800	 62.8572
775	 62.8407
750	 62.6354
725	 62.5478
700	 62.3011
675	 62.0252
650	 61.7666
625	 61.722
600	 61.4446
575	 61.2845
550	 61.213
525	 60.307
500	 60.069
475	 58.8335
450	 58.537
425	 57.6047
400	 53.5424
375	 54.2868
370	 51.8646