File: Bakgrunnsmateriale/MATLAB/FTIR/ftir_data/subBb/Mapping_36/C-4040-8_t31.asc
PE IR       SPECTRUM    SPECTRUM    ASCII       PEDS        1.60
  -1
C-A13E~1.ASC
17/05/02
13:30:41.00
17/05/02
13:31:07.00
tln
$C-4040-8_t0031$<tbV0>[12.5,12.0,8.0,0.0,22,1,0]
27.028
64

2002,4.07
MIRTGS : RIGHTBACK : INTERNAL 2
MIR : ON : INTERNAL 2
OPTKBR

0.200000
8
8.000000
FILLER
RATIO
SPECTRUM
UNLOCKED 256

DOUBLE
64
COMBINED
1
0
0

0.002000
RATIO

1
0
TRUE
51149
0
LEFT NOT FITTED RIGHT NOT FITTED 0
NONE
NONE
15600
12
4.427000
51148
TRUE
1 0 8 72 0 0 0 0

15798

#HDR
-1
-1
#GR
µM
%T
2.38419e-05
0.0
1.282000
0.002000
12874
8
106.629
55.581
#DATA
1.282000	 71.5626
1.368000	 65.1799
1.454000	 64.6258
1.540000	 65.454
1.626000	 65.1689
1.712000	 64.9961
1.798000	 65.6323
1.884000	 62.798
1.970000	 64.6118
2.056000	 64.635
2.142000	 65.418
2.228000	 64.09
2.314000	 64.0783
2.400000	 65.0201
2.486000	 65.1583
2.572000	 65.1032
2.658000	 65.1985
2.744000	 65.3846
2.830000	 65.18
2.916000	 65.259
3.002000	 65.2317
3.088000	 65.1507
3.174000	 65.1289
3.260000	 65.1656
3.346000	 65.0235
3.432000	 64.8761
3.518000	 65.115
3.604000	 65.2665
3.690000	 65.2706
3.776000	 65.2643
3.862000	 65.3462
3.948000	 65.3315
4.034000	 65.3073
4.120000	 65.3802
4.206000	 65.3087
4.292000	 65.3531
4.378000	 65.3789
4.464000	 65.4086
4.550000	 65.4325
4.636000	 65.2648
4.722000	 65.2727
4.808000	 65.3526
4.894000	 65.4242
4.980000	 65.3843
5.066000	 65.3869
5.152000	 65.3141
5.238000	 65.3729
5.324000	 65.3279
5.410000	 65.4341
5.496000	 65.4457
5.582000	 65.3148
5.668000	 65.3854
5.754000	 65.1053
5.840000	 65.3912
5.926000	 65.2692
6.012000	 65.2152
6.098000	 65.2358
6.184000	 65.2447
6.270000	 65.1462
6.356000	 65.0235
6.442000	 65.1868
6.528000	 65.0198
6.614000	 65.2034
6.700000	 65.1246
6.786000	 65.1532
6.872000	 65.2986
6.958000	 65.2582
7.044000	 65.2713
7.130000	 65.2267
7.216000	 65.0876
7.302000	 65.204
7.388000	 65.2012
7.474000	 65.2164
7.560000	 65.3463
7.646000	 65.2177
7.732000	 65.2732
7.818000	 65.1771
7.904000	 65.1068
7.990000	 65.0457
8.076000	 65.2222
8.161999	 65.1705
8.248000	 65.0724
8.334000	 65.1479
8.420000	 64.9552
8.506000	 65.0131
8.592000	 64.9706
8.678000	 64.942
8.763999	 64.8936
8.850000	 64.9531
8.936000	 65.118
9.022000	 64.8886
9.108000	 64.9486
9.193999	 64.9636
9.280000	 64.8462
9.366000	 64.9827
9.452000	 64.9478
9.538000	 65.1478
9.624000	 65.0882
9.710000	 64.9669
9.795999	 64.9895
9.882000	 64.9979
9.968000	 64.9857
10.054	64.9299
10.14	64.8974
10.226	64.9415
10.312	64.9131
10.398	64.9007
10.484	64.7545
10.57	64.7302
10.656	64.8294
10.742	64.9961
10.828	65.1351
10.914	64.6482
11	64.7163
11.086	64.5184
11.172	64.1204
11.258	64.7238
11.344	64.4961
11.43	64.3239
11.516	64.4437
11.602	64.6848
11.688	64.7935
11.774	64.9105
11.86	64.803
11.946	64.7799
12.032	64.8919
12.118	65.1484
12.204	65.1223
12.29	64.8012
12.376	64.5891
12.462	64.66
12.548	64.6503
12.634	64.645
12.72	64.5351
12.806	64.4931
12.892	64.6278
12.978	64.5998
13.064	64.3131
13.15	64.1405
13.236	64.0382
13.322	64.0329
13.408	64.142
13.494	64.2686
13.58	64.3948
13.666	64.3995
13.752	64.3059
13.838	64.1963
13.924	64.2272
14.01	64.2973
14.096	64.2696
14.182	64.1828
14.268	64.021
14.354	64.0353
14.44	64.1274
14.526	63.9988
14.612	63.8805
14.698	63.9157
14.784	63.9096
14.87	63.8758
14.956	63.8322
15.042	63.757
15.128	63.8309
15.214	64.0156
15.3	64.0294
15.386	63.8592
15.472	63.6371
15.558	63.5521
15.644	63.7444
15.73	63.9396
15.816	63.8738
15.902	63.7195
15.988	63.6434
16.074	63.6113
16.16	63.6222
16.246	63.6977
16.332	63.8001
16.418	63.8789
16.504	63.9005
16.59	63.8833
16.676	63.8458
16.762	63.7197
16.848	63.5571
16.934	63.5238
17.02	63.5695
17.106	63.5208
17.192	63.4135
17.278	63.4017
17.364	63.4282
17.45	63.2891
17.536	62.9832
17.622	62.7195
17.708	62.6317
17.794	62.6789
17.88	62.7802
17.966	62.912
18.052	63.071
18.138	63.2147
18.224	63.2602
18.31	63.1835
18.396	63.1056
18.482	63.1665
18.568	63.3242
18.654	63.3824
18.74	63.2411
18.826	63.0203
18.912	62.8807
18.998	62.8231
19.084	62.7272
19.17	62.5396
19.256	62.3556
19.342	62.3125
19.428	62.4253
19.514	62.58
19.6	62.671
19.686	62.7118
19.772	62.7776
19.858	62.8825
19.944	62.9506
20.03	62.9019
20.116	62.74
20.202	62.53
20.288	62.3348
20.374	62.1931
20.46	62.1458
20.546	62.233
20.632	62.4341
20.718	62.6287
20.804	62.6555
20.89	62.4397
20.976	62.0762
21.062	61.7716
21.148	61.6887
21.234	61.8359
21.32	62.0975
21.406	62.3361
21.492	62.4884
21.578	62.5663
21.664	62.614
21.75	62.6731
21.836	62.7605
21.922	62.8689
22.008	62.9689
22.094	63.0253
22.18	63.0246
22.266	62.9875
22.352	62.9565
22.438	62.9431
22.524	62.8976
22.61	62.708
22.696	62.2741
22.782	61.6027
22.868	60.8337
22.954	60.1898
23.04	59.846
23.126	59.859
23.212	60.1745
23.298	60.6798
23.384	61.2498
23.47	61.7949
23.556	62.254
23.642	62.5894
23.728	62.808
23.814	62.9428
23.9	63.0266
23.986	63.0806
24.072	63.1125
24.158	63.1066
24.244	63.0645
24.33	63.0207
24.416	63.0098
24.502	63.0053
24.588	62.9058
24.674	62.5757
24.76	61.8957
24.846	60.9052
24.932	59.8419
25.018	59.0807
25.104	59.0032
25.19	59.8991
25.276	61.8035
25.362	64.4604
25.448	67.2578
25.534	69.4955
25.62	70.5831
25.706	70.1377
25.792	68.1828
25.878	65.138
25.964	61.6966
26.05	58.5922
26.136	56.4115
26.222	55.583
26.308	56.2634
26.394	58.349
26.48	61.6611
26.566	65.8682
26.652	70.4668
26.738	74.8563
26.824	78.464
26.91	80.7823
26.996	81.6188
27.028	81.6535