File: Bakgrunnsmateriale/MATLAB/FTIR/ftir_data/subBb/Mapping_36/C-4040-8_t23.asc
PE IR       SPECTRUM    SPECTRUM    ASCII       PEDS        1.60
  -1
C-AD26~1.ASC
17/05/02
12:46:03.00
17/05/02
12:46:30.00
tln
$C-4040-8_t0023$<tbV0>[-7.5,2.0,8.0,0.0,22,1,0]
27.028
64

2002,4.07
MIRTGS : RIGHTBACK : INTERNAL 2
MIR : ON : INTERNAL 2
OPTKBR

0.200000
8
8.000000
FILLER
RATIO
SPECTRUM
UNLOCKED 256

DOUBLE
64
COMBINED
1
0
0

0.002000
RATIO

1
0
TRUE
51149
0
LEFT NOT FITTED RIGHT NOT FITTED 0
NONE
NONE
15600
12
4.427000
51148
TRUE
1 0 8 72 0 0 0 0

15798

#HDR
-1
-1
#GR
µM
%T
2.38419e-05
0.0
1.282000
0.002000
12874
8
93.369
44.291
#DATA
1.282000	 68.4168
1.368000	 63.8781
1.454000	 68.0701
1.540000	 64.8762
1.626000	 64.4507
1.712000	 65.2937
1.798000	 65.092
1.884000	 64.5795
1.970000	 65.1812
2.056000	 64.752
2.142000	 65.4981
2.228000	 64.232
2.314000	 64.4827
2.400000	 64.8751
2.486000	 65.2244
2.572000	 65.1952
2.658000	 65.1367
2.744000	 65.4783
2.830000	 65.1892
2.916000	 65.3398
3.002000	 65.0561
3.088000	 65.2581
3.174000	 65.1047
3.260000	 65.3715
3.346000	 65.2279
3.432000	 64.8988
3.518000	 65.0714
3.604000	 65.2617
3.690000	 65.2431
3.776000	 65.3253
3.862000	 65.3264
3.948000	 65.3666
4.034000	 65.3071
4.120000	 65.3979
4.206000	 65.3142
4.292000	 65.3798
4.378000	 65.2635
4.464000	 65.4211
4.550000	 65.2316
4.636000	 65.4687
4.722000	 65.2769
4.808000	 65.319
4.894000	 65.3149
4.980000	 65.3419
5.066000	 65.3523
5.152000	 65.4558
5.238000	 65.3403
5.324000	 65.3216
5.410000	 65.339
5.496000	 65.273
5.582000	 65.3617
5.668000	 65.3621
5.754000	 65.2018
5.840000	 65.2849
5.926000	 65.3344
6.012000	 65.2434
6.098000	 65.2653
6.184000	 65.3198
6.270000	 65.261
6.356000	 65.1313
6.442000	 65.0011
6.528000	 65.1554
6.614000	 65.22
6.700000	 65.126
6.786000	 65.0483
6.872000	 65.0953
6.958000	 65.1212
7.044000	 65.0967
7.130000	 65.1352
7.216000	 65.0865
7.302000	 65.119
7.388000	 65.2209
7.474000	 65.1632
7.560000	 65.1236
7.646000	 65.2052
7.732000	 65.1312
7.818000	 64.9427
7.904000	 65.0778
7.990000	 65.0237
8.076000	 65.1154
8.161999	 65.0736
8.248000	 64.9809
8.334000	 64.8985
8.420000	 64.9431
8.506000	 64.9876
8.592000	 64.9794
8.678000	 64.9762
8.763999	 64.9092
8.850000	 64.8319
8.936000	 64.8422
9.022000	 64.8312
9.108000	 64.8389
9.193999	 64.9272
9.280000	 64.9707
9.366000	 65.036
9.452000	 64.8124
9.538000	 64.9434
9.624000	 65.1114
9.710000	 64.8151
9.795999	 64.6485
9.882000	 64.7456
9.968000	 64.7621
10.054	64.8417
10.14	64.5871
10.226	64.6549
10.312	64.8222
10.398	64.9456
10.484	64.8191
10.57	65.0344
10.656	64.648
10.742	64.4162
10.828	64.1886
10.914	64.2324
11	63.972
11.086	63.8842
11.172	64.3382
11.258	64.38
11.344	64.4956
11.43	64.8721
11.516	64.9439
11.602	64.7804
11.688	64.4693
11.774	64.5531
11.86	64.5186
11.946	64.3212
12.032	64.4655
12.118	64.4261
12.204	64.0608
12.29	64.0323
12.376	64.1408
12.462	64.1872
12.548	64.2029
12.634	64.3308
12.72	64.3763
12.806	64.3771
12.892	64.333
12.978	64.1868
13.064	64.139
13.15	63.8823
13.236	63.861
13.322	63.9442
13.408	63.8905
13.494	63.9446
13.58	64.063
13.666	64.1336
13.752	64.073
13.838	63.9859
13.924	63.8763
14.01	63.6552
14.096	63.5684
14.182	63.6709
14.268	63.652
14.354	63.581
14.44	63.5664
14.526	63.5257
14.612	63.3769
14.698	63.1775
14.784	63.0857
14.87	63.1285
14.956	63.1875
15.042	63.1994
15.128	63.1837
15.214	63.2226
15.3	63.2095
15.386	63.0883
15.472	63.0537
15.558	63.1275
15.644	63.1934
15.73	63.1717
15.816	63.1246
15.902	63.2886
15.988	63.5754
16.074	63.6098
16.16	63.3773
16.246	63.1116
16.332	62.9036
16.418	62.7878
16.504	62.7782
16.59	62.7823
16.676	62.7402
16.762	62.7431
16.848	62.8762
16.934	63.0421
17.02	63.0733
17.106	62.9823
17.192	62.9311
17.278	62.9632
17.364	62.9268
17.45	62.7008
17.536	62.4047
17.622	62.3045
17.708	62.5088
17.794	62.8123
17.88	62.9102
17.966	62.7527
18.052	62.5479
18.138	62.4446
18.224	62.4036
18.31	62.3976
18.396	62.4982
18.482	62.6774
18.568	62.7385
18.654	62.5657
18.74	62.2854
18.826	62.1025
18.912	62.0829
18.998	62.1425
19.084	62.1979
19.17	62.2722
19.256	62.4275
19.342	62.6484
19.428	62.8415
19.514	62.9284
19.6	62.902
19.686	62.8096
19.772	62.7046
19.858	62.6008
19.944	62.4717
20.03	62.2923
20.116	62.0733
20.202	61.8482
20.288	61.6452
20.374	61.4858
20.46	61.3814
20.546	61.326
20.632	61.2948
20.718	61.2653
20.804	61.24
20.89	61.2449
20.976	61.3035
21.062	61.4002
21.148	61.46
21.234	61.39
21.32	61.1413
21.406	60.7454
21.492	60.285
21.578	59.8386
21.664	59.4646
21.75	59.211
21.836	59.1181
21.922	59.1894
22.008	59.3622
22.094	59.5265
22.18	59.5912
22.266	59.554
22.352	59.5123
22.438	59.5902
22.524	59.8357
22.61	60.1628
22.696	60.3897
22.782	60.3604
22.868	60.0329
22.954	59.5098
23.04	58.9544
23.126	58.5092
23.212	58.2155
23.298	58.0301
23.384	57.8689
23.47	57.6796
23.556	57.4593
23.642	57.2197
23.728	56.9984
23.814	56.8386
23.9	56.7742
23.986	56.8288
24.072	57.0127
24.158	57.2817
24.244	57.5644
24.33	57.7946
24.416	57.9344
24.502	57.998
24.588	58.0191
24.674	58.0058
24.76	57.9251
24.846	57.7208
24.932	57.4461
25.018	57.3291
25.104	57.7048
25.19	58.9251
25.276	61.124
25.362	64.0899
25.448	67.214
25.534	69.7186
25.62	70.8795
25.706	70.2747
25.792	67.9645
25.878	64.4479
25.964	60.5343
26.05	57.0412
26.136	54.5309
26.222	53.2745
26.308	53.169
26.394	53.8109
26.48	54.6689
26.566	55.1693
26.652	54.8562
26.738	53.5151
26.824	51.2301
26.91	48.3353
26.996	45.1666
27.028	44.291