File: Bakgrunnsmateriale/MATLAB/FTIR/ftir_data/subBb/Mapping_36/C-4040-8_t22.asc
PE IR       SPECTRUM    SPECTRUM    ASCII       PEDS        1.60
  -1
C-AD22~1.ASC
17/05/02
12:41:22.00
17/05/02
12:41:48.00
tln
$C-4040-8_t0022$<tbV0>[-2.5,2.0,8.0,0.0,22,1,0]
27.028
64

2002,4.07
MIRTGS : RIGHTBACK : INTERNAL 2
MIR : ON : INTERNAL 2
OPTKBR

0.200000
8
8.000000
FILLER
RATIO
SPECTRUM
UNLOCKED 256

DOUBLE
64
COMBINED
1
0
0

0.002000
RATIO

1
0
TRUE
51149
0
LEFT NOT FITTED RIGHT NOT FITTED 0
NONE
NONE
15600
12
4.427000
51148
TRUE
1 0 8 72 0 0 0 0

15798

#HDR
-1
-1
#GR
µM
%T
2.38419e-05
0.0
1.282000
0.002000
12874
8
83.2162
47.4951
#DATA
1.282000	 73.2663
1.368000	 63.6728
1.454000	 65.4141
1.540000	 65.7964
1.626000	 65.9745
1.712000	 64.6133
1.798000	 64.8879
1.884000	 64.2399
1.970000	 64.8551
2.056000	 64.5669
2.142000	 65.1281
2.228000	 64.7133
2.314000	 64.942
2.400000	 65.2193
2.486000	 65.3233
2.572000	 65.1406
2.658000	 65.2853
2.744000	 65.3628
2.830000	 65.1724
2.916000	 65.1765
3.002000	 65.2811
3.088000	 65.3681
3.174000	 65.1779
3.260000	 65.1731
3.346000	 65.2566
3.432000	 64.9637
3.518000	 65.1511
3.604000	 65.223
3.690000	 65.3368
3.776000	 65.3188
3.862000	 65.27
3.948000	 65.342
4.034000	 65.3247
4.120000	 65.312
4.206000	 65.3137
4.292000	 65.3209
4.378000	 65.3117
4.464000	 65.4067
4.550000	 65.2456
4.636000	 65.3811
4.722000	 65.3332
4.808000	 65.2865
4.894000	 65.3115
4.980000	 65.2353
5.066000	 65.3947
5.152000	 65.3154
5.238000	 65.2804
5.324000	 65.3306
5.410000	 65.29
5.496000	 65.1511
5.582000	 65.2886
5.668000	 65.2957
5.754000	 65.0929
5.840000	 65.2052
5.926000	 65.2023
6.012000	 65.2262
6.098000	 65.2376
6.184000	 65.2326
6.270000	 65.1477
6.356000	 65.0163
6.442000	 65.036
6.528000	 65.1023
6.614000	 65.1896
6.700000	 65.2583
6.786000	 65.0077
6.872000	 65.0098
6.958000	 65.1774
7.044000	 65.1246
7.130000	 65.0201
7.216000	 65.0606
7.302000	 65.0601
7.388000	 65.0135
7.474000	 65.0696
7.560000	 64.9675
7.646000	 65.0568
7.732000	 65.1581
7.818000	 64.9776
7.904000	 64.9477
7.990000	 64.9625
8.076000	 64.9589
8.161999	 64.9476
8.248000	 64.9327
8.334000	 64.8667
8.420000	 64.9749
8.506000	 65.1037
8.592000	 64.995
8.678000	 64.8152
8.763999	 64.9002
8.850000	 64.7405
8.936000	 64.7546
9.022000	 64.7767
9.108000	 64.9282
9.193999	 64.9432
9.280000	 64.8254
9.366000	 64.9614
9.452000	 64.7954
9.538000	 64.9019
9.624000	 64.9429
9.710000	 64.8686
9.795999	 64.7665
9.882000	 64.6387
9.968000	 64.7624
10.054	64.8074
10.14	64.7379
10.226	64.8531
10.312	64.8159
10.398	65.0378
10.484	64.886
10.57	65.0497
10.656	64.6068
10.742	64.2599
10.828	64.8114
10.914	64.949
11	64.9123
11.086	64.8612
11.172	64.9209
11.258	64.1362
11.344	64.326
11.43	64.6335
11.516	64.7641
11.602	64.8862
11.688	64.2564
11.774	64.2822
11.86	64.4725
11.946	64.4459
12.032	64.4307
12.118	64.5761
12.204	64.1779
12.29	63.8872
12.376	63.7832
12.462	64.0517
12.548	64.4116
12.634	64.6401
12.72	64.4915
12.806	64.1888
12.892	64.0503
12.978	64.0769
13.064	64.161
13.15	64.2633
13.236	64.2053
13.322	63.9859
13.408	63.8801
13.494	63.8781
13.58	63.7543
13.666	63.7905
13.752	63.9354
13.838	63.9214
13.924	63.6828
14.01	63.4622
14.096	63.4872
14.182	63.6261
14.268	63.6029
14.354	63.4969
14.44	63.485
14.526	63.4246
14.612	63.1664
14.698	62.9642
14.784	62.9526
14.87	62.9911
14.956	62.9927
15.042	62.9682
15.128	62.9701
15.214	63.0596
15.3	63.1818
15.386	63.2545
15.472	63.2368
15.558	63.1005
15.644	62.936
15.73	62.848
15.816	62.8278
15.902	62.8944
15.988	63.03
16.074	63.0345
16.16	62.8487
16.246	62.7101
16.332	62.7596
16.418	62.8546
16.504	62.8053
16.59	62.6056
16.676	62.4438
16.762	62.4341
16.848	62.4587
16.934	62.368
17.02	62.1898
17.106	62.0717
17.192	62.1001
17.278	62.1938
17.364	62.2161
17.45	62.1615
17.536	62.1235
17.622	62.1561
17.708	62.245
17.794	62.3396
17.88	62.3887
17.966	62.3749
18.052	62.321
18.138	62.2568
18.224	62.2274
18.31	62.2829
18.396	62.397
18.482	62.4418
18.568	62.2947
18.654	61.9572
18.74	61.5614
18.826	61.274
18.912	61.1954
18.998	61.3026
19.084	61.4717
19.17	61.5876
19.256	61.6229
19.342	61.6247
19.428	61.6506
19.514	61.7167
19.6	61.7819
19.686	61.7994
19.772	61.7704
19.858	61.7014
19.944	61.557
20.03	61.309
20.116	61.0093
20.202	60.7541
20.288	60.6064
20.374	60.5697
20.46	60.6032
20.546	60.6503
20.632	60.6574
20.718	60.599
20.804	60.4911
20.89	60.3824
20.976	60.3197
21.062	60.3218
21.148	60.3817
21.234	60.4751
21.32	60.5443
21.406	60.4976
21.492	60.2577
21.578	59.8271
21.664	59.3195
21.75	58.9128
21.836	58.7555
21.922	58.8878
22.008	59.2326
22.094	59.655
22.18	60.029
22.266	60.2781
22.352	60.3904
22.438	60.4128
22.524	60.3963
22.61	60.353
22.696	60.2282
22.782	59.9466
22.868	59.4864
22.954	58.9237
23.04	58.3927
23.126	58.0359
23.212	57.9177
23.298	58.0069
23.384	58.197
23.47	58.3743
23.556	58.4525
23.642	58.3913
23.728	58.1615
23.814	57.735
23.9	57.0852
23.986	56.2105
24.072	55.1828
24.158	54.183
24.244	53.4588
24.33	53.2706
24.416	53.7842
24.502	54.9397
24.588	56.4558
24.674	57.945
24.76	59.0139
24.846	59.4294
24.932	59.1908
25.018	58.5156
25.104	57.6896
25.19	56.926
25.276	56.267
25.362	55.6262
25.448	54.836
25.534	53.8365
25.62	52.7546
25.706	51.805
25.792	51.1523
25.878	50.93
25.964	51.3814
26.05	52.8242
26.136	55.4404
26.222	59.0253
26.308	62.9242
26.394	66.2225
26.48	68.1317
26.566	68.1967
26.652	66.5206
26.738	63.3683
26.824	59.1225
26.91	54.1103
26.996	48.8877
27.028	47.4951