File: Bakgrunnsmateriale/MATLAB/FTIR/ftir_data/subBb/Mapping_36/C-4040-8_t35_cm-1.asc
PE IR       SPECTRUM    SPECTRUM    ASCII       PEDS        1.60
  -1
C-1BEE~1.ASC
17/05/02
13:49:26.00
17/05/02
13:49:26.00
tln
$C-4040-8_t0035$<tbV0>[-7.5,12.0,8.0,0.0,22,1,0]
370
64

2002,4.07
MIRTGS : RIGHTBACK : INTERNAL 2
MIR : ON : INTERNAL 2
OPTKBR

0.200000
8
8.000000
FILLER
RATIO
SPECTRUM
UNLOCKED 256

DOUBLE
64
COMBINED
1
0
0

1.000000
RATIO

1
0
TRUE
51149
0
LEFT NOT FITTED RIGHT NOT FITTED 0
NONE
NONE
15600
12
4.427000
51148
TRUE
1 0 8 72 0 0 0 0

15798

#HDR
-1
-1
#GR
CM-1
%T
2.38419e-05
0.0
7800
-1.000000
7431
8
81.6374
37.7282
#DATA
7800	65.5983
7775	63.8208
7750	80.0145
7725	66.5008
7700	61.9763
7675	69.8658
7650	66.2799
7625	72.5504
7600	65.5782
7575	73.3152
7550	68.1557
7525	67.5375
7500	65.1496
7475	64.4594
7450	67.1368
7425	67.9876
7400	61.6279
7375	63.4665
7350	65.0437
7325	63.9522
7300	64.3222
7275	66.7126
7250	65.4947
7225	66.8343
7200	62.9949
7175	64.6226
7150	66.4332
7125	63.7689
7100	64.1047
7075	64.3259
7050	63.6582
7025	63.9085
7000	65.1266
6975	63.6474
6950	64.5683
6925	64.5806
6900	65.3966
6875	66.0089
6850	65.1006
6825	64.5579
6800	63.8668
6775	63.9237
6750	63.9943
6725	62.2975
6700	66.8592
6675	63.2798
6650	63.8614
6625	67.2299
6600	66.084
6575	63.6237
6550	65.697
6525	63.9095
6500	66.2529
6475	63.0277
6450	64.2812
6425	64.6439
6400	65.0848
6375	63.9723
6350	66.0353
6325	66.252
6300	64.8385
6275	65.7446
6250	64.3774
6225	64.8696
6200	65.4076
6175	64.6127
6150	65.0445
6125	64.407
6100	64.8408
6075	64.2708
6050	64.9702
6025	64.9154
6000	64.6033
5975	63.7527
5950	64.8941
5925	65.3783
5900	64.3934
5875	64.6338
5850	65.2886
5825	64.7586
5800	64.6011
5775	64.9337
5750	65.5853
5725	64.3574
5700	65.4265
5675	65.2376
5650	64.7736
5625	64.959
5600	65.8417
5575	65.1977
5550	65.0444
5525	64.6023
5500	64.4112
5475	64.6521
5450	65.2397
5425	65.3308
5400	64.1599
5375	65.4355
5350	65.2318
5325	63.47
5300	61.317
5275	63.0419
5250	65.6185
5225	63.5238
5200	64.7784
5175	64.6451
5150	64.3221
5125	64.4322
5100	64.4542
5075	64.6464
5050	64.6401
5025	64.4298
5000	64.6994
4975	64.5414
4950	64.4036
4925	64.7676
4900	64.1696
4875	64.3901
4850	64.7646
4825	64.6504
4800	64.3448
4775	64.9708
4750	64.6017
4725	64.8829
4700	64.4297
4675	64.7035
4650	64.8526
4625	64.581
4600	64.5583
4575	65.0838
4550	64.717
4525	64.6728
4500	64.504
4475	64.8083
4450	65.079
4425	65.0286
4400	65.0287
4375	63.5152
4350	65.7066
4325	64.6921
4300	65.2322
4275	64.8792
4250	64.8432
4225	64.9592
4200	65.0627
4175	64.782
4150	65.1172
4125	64.8514
4100	65.1266
4075	64.7583
4050	65.0568
4025	64.7216
4000	64.9799
3975	64.8828
3950	65.2472
3925	64.952
3900	64.9266
3875	64.9345
3850	65.0527
3825	64.929
3800	65.1638
3775	64.8323
3750	64.8213
3725	65.0594
3700	65.0487
3675	64.9418
3650	65.1852
3625	64.9825
3600	64.8251
3575	65.0902
3550	64.9463
3525	64.9692
3500	64.7539
3475	64.6674
3450	65.0451
3425	65.2999
3400	65.0391
3375	65.063
3350	65.12
3325	64.8426
3300	64.8293
3275	64.8644
3250	64.9626
3225	64.9877
3200	64.8673
3175	64.9821
3150	65.021
3125	64.8275
3100	64.9796
3075	64.908
3050	64.9139
3025	64.9442
3000	65.0541
2975	64.8808
2950	64.8478
2925	64.6493
2900	64.8356
2875	64.8294
2850	64.8146
2825	65.0271
2800	65.0391
2775	65.1052
2750	64.9902
2725	64.9833
2700	65.0676
2675	65.0024
2650	64.9817
2625	65.0279
2600	65.0994
2575	65.0053
2550	65.0889
2525	64.9939
2500	65.0946
2475	65.0762
2450	65.1088
2425	65.131
2400	64.9865
2375	64.9794
2350	64.9144
2325	65.0738
2300	65.1685
2275	64.9805
2250	65.1477
2225	64.9862
2200	65.0394
2175	65.0368
2150	64.9591
2125	65.0128
2100	64.9831
2075	64.9966
2050	65.0018
2025	64.9585
2000	64.9731
1975	65.0692
1950	65.1049
1925	65.0412
1900	65.0142
1875	65.038
1850	65.0536
1825	64.9205
1800	65.053
1775	64.9922
1750	64.9379
1725	64.7913
1700	64.9643
1675	64.8901
1650	64.8365
1625	64.8892
1600	64.8237
1575	64.726
1550	64.7661
1525	64.7551
1500	64.7355
1475	64.6507
1450	64.7482
1425	64.7703
1400	64.6842
1375	64.6725
1350	64.7147
1325	64.7088
1300	64.8206
1275	64.692
1250	64.6181
1225	64.6789
1200	64.5937
1175	64.4917
1150	64.5137
1125	64.4974
1100	64.5307
1075	64.3112
1050	64.3836
1025	64.2018
1000	64.3239
975	 64.221
950	 64.2364
925	 64.2554
900	 63.8157
875	 64.1812
850	 63.917
825	 63.7523
800	 63.4391
775	 63.6049
750	 62.9905
725	 62.841
700	 62.3199
675	 62.4174
650	 62.1135
625	 61.8557
600	 61.852
575	 61.4112
550	 60.5984
525	 60.2915
500	 59.5736
475	 57.8959
450	 58.8036
425	 57.0589
400	 52.9358
375	 44.5865
370	 48.1382