File: Bakgrunnsmateriale/MATLAB/FTIR/ftir_data/subBb/Mapping_36/C-4040-8_t06_cm-1.asc
PE IR       SPECTRUM    SPECTRUM    ASCII       PEDS        1.60
  -1
C-996E~1.ASC
17/05/02
11:18:12.00
17/05/02
11:18:12.00
tln
$C-4040-8_t0006$<tbV0>[-12.5,-13.0,8.0,0.0,22,1,0]
370
64

2002,4.07
MIRTGS : RIGHTBACK : INTERNAL 2
MIR : ON : INTERNAL 2
OPTKBR

0.200000
8
8.000000
FILLER
RATIO
SPECTRUM
UNLOCKED 256

DOUBLE
64
COMBINED
1
0
0

1.000000
RATIO

1
0
TRUE
51149
0
LEFT NOT FITTED RIGHT NOT FITTED 0
NONE
NONE
15600
12
4.427000
51148
TRUE
1 0 8 72 0 0 0 0

15798

#HDR
-1
-1
#GR
CM-1
%T
2.38419e-05
0.0
7800
-1.000000
7431
8
74.1389
24.3071
#DATA
7800	70.3139
7775	54.0382
7750	68.9638
7725	68.8945
7700	61.7931
7675	70.5291
7650	69.7953
7625	70.2483
7600	64.1453
7575	69.8677
7550	64.9749
7525	60.2788
7500	64.5392
7475	64.7784
7450	64.3095
7425	65.7792
7400	63.652
7375	62.8418
7350	60.0343
7325	65.4108
7300	60.9135
7275	65.3701
7250	66.8538
7225	66.2635
7200	64.4501
7175	64.9317
7150	63.9588
7125	63.7505
7100	66.1536
7075	63.6947
7050	64.5401
7025	64.4858
7000	66.4489
6975	67.6677
6950	63.2082
6925	65.603
6900	65.0213
6875	63.1579
6850	65.2867
6825	65.9417
6800	63.1075
6775	61.7865
6750	63.5295
6725	63.3939
6700	66.5215
6675	63.529
6650	64.7017
6625	64.5794
6600	64.8398
6575	64.9868
6550	65.2029
6525	64.0745
6500	65.7948
6475	65.8179
6450	65.5072
6425	64.3861
6400	65.333
6375	64.0487
6350	64.0754
6325	64.61
6300	63.4237
6275	65.0815
6250	65.6105
6225	64.0404
6200	64.9027
6175	65.271
6150	63.6136
6125	64.3296
6100	64.6245
6075	64.3373
6050	63.9945
6025	65.0764
6000	63.7886
5975	65.1864
5950	63.6561
5925	64.5935
5900	64.3626
5875	64.9353
5850	64.7379
5825	64.7519
5800	65.328
5775	64.7114
5750	65.4876
5725	64.9173
5700	63.515
5675	64.0377
5650	64.6205
5625	64.4017
5600	65.1478
5575	63.8598
5550	64.7738
5525	65.019
5500	64.9856
5475	64.5242
5450	65.0187
5425	64.3871
5400	63.7127
5375	63.7687
5350	64.8727
5325	65.1549
5300	64.4068
5275	63.5001
5250	66.3882
5225	62.7114
5200	65.306
5175	65.4561
5150	64.6379
5125	64.2113
5100	64.5492
5075	64.3434
5050	64.982
5025	64.7949
5000	64.8824
4975	64.6395
4950	64.9409
4925	64.507
4900	64.8659
4875	64.549
4850	64.0732
4825	64.4198
4800	64.4556
4775	64.4947
4750	64.3823
4725	64.1517
4700	64.7063
4675	64.5516
4650	64.5655
4625	64.485
4600	64.7042
4575	64.9606
4550	65.0726
4525	64.351
4500	64.9976
4475	65.0188
4450	64.8052
4425	65.0357
4400	69.6921
4375	64.3698
4350	65.4616
4325	64.8845
4300	64.5863
4275	64.8171
4250	64.5763
4225	64.4189
4200	64.0555
4175	64.3916
4150	64.0047
4125	64.1622
4100	64.3628
4075	64.062
4050	64.2877
4025	64.0983
4000	64.1892
3975	64.1611
3950	64.1037
3925	64.086
3900	64.2671
3875	64.1114
3850	64.0227
3825	64.2809
3800	64.0492
3775	63.9877
3750	63.9419
3725	63.9119
3700	63.9252
3675	63.8761
3650	64.0817
3625	63.7505
3600	63.8814
3575	63.7894
3550	63.7176
3525	63.6853
3500	63.7416
3475	63.6036
3450	63.4202
3425	63.5566
3400	63.4373
3375	63.3581
3350	63.2721
3325	62.9731
3300	63.21
3275	62.9772
3250	63.1031
3225	62.8287
3200	62.968
3175	62.8919
3150	62.8724
3125	62.6913
3100	62.5867
3075	62.6799
3050	62.5468
3025	62.5962
3000	62.5885
2975	62.3941
2950	62.1258
2925	62.0022
2900	62.1073
2875	61.9711
2850	61.8762
2825	61.9112
2800	61.8575
2775	61.862
2750	61.6784
2725	61.6907
2700	61.7169
2675	61.4606
2650	61.2372
2625	61.3124
2600	61.2448
2575	61.0868
2550	61.1347
2525	60.9881
2500	60.8458
2475	60.7924
2450	60.7284
2425	60.555
2400	60.4915
2375	60.3739
2350	60.3427
2325	60.2293
2300	60.0079
2275	59.9389
2250	59.8684
2225	59.7107
2200	59.5195
2175	59.501
2150	59.3884
2125	59.2786
2100	59.2136
2075	58.9946
2050	59.0371
2025	58.7775
2000	58.6979
1975	58.6008
1950	58.5404
1925	58.4586
1900	58.2506
1875	58.1685
1850	57.9485
1825	57.898
1800	57.8141
1775	57.6539
1750	57.4142
1725	57.1105
1700	57.3513
1675	57.1095
1650	56.9112
1625	56.8762
1600	56.6088
1575	56.5778
1550	56.3306
1525	56.1487
1500	56.0385
1475	55.8491
1450	55.9788
1425	55.6429
1400	55.5322
1375	55.5111
1350	55.4127
1325	55.2378
1300	54.9817
1275	54.8024
1250	54.609
1225	54.5467
1200	54.4329
1175	54.2622
1150	54.2165
1125	53.9114
1100	53.9249
1075	53.6037
1050	53.3053
1025	53.2805
1000	53.1166
975	 52.8195
950	 52.5317
925	 52.3162
900	 52.6141
875	 51.7006
850	 52.0855
825	 51.3231
800	 51.4772
775	 50.826
750	 51.0044
725	 50.4745
700	 49.469
675	 49.6769
650	 48.7656
625	 49.1151
600	 48.4646
575	 47.299
550	 46.9947
525	 46.3949
500	 45.0956
475	 44.8355
450	 43.1417
425	 41.2767
400	 36.4976
375	 61.4247
370	 69.6568