File: Bakgrunnsmateriale/MATLAB/FTIR/ftir_data/subBb/Mapping_36/C-4040-8_t19_cm-1.asc
PE IR       SPECTRUM    SPECTRUM    ASCII       PEDS        1.60
  -1
C-1AE0~1.ASC
17/05/02
12:27:19.00
17/05/02
12:27:19.00
tln
$C-4040-8_t0019$<tbV0>[12.5,2.0,8.0,0.0,22,1,0]
370
64

2002,4.07
MIRTGS : RIGHTBACK : INTERNAL 2
MIR : ON : INTERNAL 2
OPTKBR

0.200000
8
8.000000
FILLER
RATIO
SPECTRUM
UNLOCKED 256

DOUBLE
64
COMBINED
1
0
0

1.000000
RATIO

1
0
TRUE
51149
0
LEFT NOT FITTED RIGHT NOT FITTED 0
NONE
NONE
15600
12
4.427000
51148
TRUE
1 0 8 72 0 0 0 0

15798

#HDR
-1
-1
#GR
CM-1
%T
2.38419e-05
0.0
7800
-1.000000
7431
8
75.1986
43.0543
#DATA
7800	69.0795
7775	61.6421
7750	63.6121
7725	70.6767
7700	69.0433
7675	74.3039
7650	67.2
7625	71.4797
7600	69.0383
7575	62.6098
7550	63.4952
7525	67.2521
7500	65.4301
7475	64.3905
7450	64.4784
7425	63.6433
7400	64.6198
7375	64.0323
7350	66.811
7325	68.1011
7300	65.1506
7275	62.7113
7250	68.0135
7225	66.5247
7200	63.6916
7175	65.8501
7150	61.2214
7125	63.957
7100	66.3274
7075	62.6218
7050	61.2703
7025	60.5296
7000	62.9069
6975	61.515
6950	63.5766
6925	64.0401
6900	64.5246
6875	65.3304
6850	63.5422
6825	65.1678
6800	63.3318
6775	61.9884
6750	63.4908
6725	63.2142
6700	63.5867
6675	63.3986
6650	62.1841
6625	65.3525
6600	64.2577
6575	63.3557
6550	63.343
6525	65.2857
6500	64.9159
6475	64.5817
6450	64.4254
6425	63.8809
6400	65.8654
6375	64.1107
6350	64.9977
6325	64.8091
6300	65.697
6275	64.4815
6250	65.061
6225	65.7562
6200	64.5463
6175	65.2245
6150	65.4803
6125	66.0832
6100	64.1661
6075	64.9255
6050	65.9374
6025	64.9612
6000	65.3477
5975	64.2178
5950	64.2931
5925	64.818
5900	65.5527
5875	65.1531
5850	65.0184
5825	64.9555
5800	64.6455
5775	65.2216
5750	64.7256
5725	65.0312
5700	64.2445
5675	64.3857
5650	64.4671
5625	65.0849
5600	64.69
5575	64.4755
5550	64.5063
5525	64.5895
5500	64.5408
5475	64.8309
5450	64.9984
5425	64.2026
5400	65.3564
5375	64.8721
5350	63.4779
5325	63.4785
5300	63.4416
5275	62.3896
5250	66.8146
5225	64.1583
5200	64.6801
5175	64.1504
5150	64.3723
5125	64.6886
5100	65.011
5075	64.6768
5050	65.0296
5025	64.7191
5000	64.9327
4975	65.2249
4950	64.8339
4925	64.5651
4900	65.0887
4875	64.7944
4850	64.8752
4825	64.7386
4800	64.6969
4775	64.875
4750	64.8036
4725	64.6371
4700	64.5498
4675	64.4685
4650	64.83
4625	64.9793
4600	64.8026
4575	64.4377
4550	65.0381
4525	65.2562
4500	65.1527
4475	64.9704
4450	65.4204
4425	65.2092
4400	63.8504
4375	63.3689
4350	66.0576
4325	64.8348
4300	65.5452
4275	65.2954
4250	64.9489
4225	64.8957
4200	64.6478
4175	65.0681
4150	64.7007
4125	64.7432
4100	64.9631
4075	64.8571
4050	65.1289
4025	64.9087
4000	64.9902
3975	64.9591
3950	65.0008
3925	65.12
3900	65.1463
3875	65.0994
3850	65.1278
3825	65.0479
3800	64.7914
3775	64.9497
3750	65.2827
3725	64.8429
3700	65.1915
3675	64.9802
3650	64.8942
3625	64.9564
3600	64.9158
3575	64.9491
3550	65.0239
3525	64.8738
3500	64.7227
3475	65.0911
3450	65.2257
3425	64.8338
3400	65.1246
3375	64.9953
3350	65.0631
3325	65.0091
3300	64.9859
3275	64.9759
3250	64.9693
3225	64.9444
3200	64.901
3175	64.955
3150	64.9926
3125	65.0051
3100	65.0401
3075	64.9926
3050	64.924
3025	64.9295
3000	64.975
2975	65.0115
2950	64.7678
2925	64.8067
2900	64.7763
2875	64.8941
2850	64.8235
2825	65.1576
2800	64.984
2775	65.011
2750	65.0717
2725	65.1017
2700	65.024
2675	65.0082
2650	64.9954
2625	65.0351
2600	65.0879
2575	65.0877
2550	64.9965
2525	65.101
2500	64.9606
2475	64.992
2450	65.1182
2425	65.0905
2400	65.0532
2375	65.0663
2350	65.1058
2325	64.9515
2300	64.9805
2275	65.0543
2250	65.0378
2225	65.1083
2200	64.9968
2175	64.9701
2150	65.0631
2125	64.9217
2100	65.0863
2075	65.0264
2050	65.0551
2025	65.0906
2000	65.0376
1975	64.9602
1950	65.0398
1925	65.0605
1900	65.0096
1875	65.0567
1850	65.1306
1825	65.0569
1800	65.0098
1775	65.081
1750	64.9146
1725	64.8699
1700	64.9517
1675	64.8689
1650	64.9856
1625	64.9011
1600	65.0051
1575	64.9389
1550	64.8977
1525	64.89
1500	64.9631
1475	64.8575
1450	64.8183
1425	64.8479
1400	64.7654
1375	64.7274
1350	64.8356
1325	64.6895
1300	64.7543
1275	64.7094
1250	64.6794
1225	64.6582
1200	64.5209
1175	64.6507
1150	64.5732
1125	64.4295
1100	64.4477
1075	64.3619
1050	64.4247
1025	64.3728
1000	64.2781
975	 64.3196
950	 64.3914
925	 64.0059
900	 64.2811
875	 64.4301
850	 63.9519
825	 63.847
800	 63.7678
775	 63.631
750	 63.3214
725	 63.2566
700	 63.0417
675	 62.5133
650	 62.2825
625	 62.2142
600	 61.5704
575	 61.1756
550	 61.4521
525	 60.785
500	 60.0909
475	 59.5343
450	 57.6618
425	 56.8149
400	 66.2317
375	 58.522
370	 45.4647