File: Bakgrunnsmateriale/MATLAB/FTIR/ftir_data/subBb/Mapping_36/C-4040-8_t27_cm-1.asc
PE IR       SPECTRUM    SPECTRUM    ASCII       PEDS        1.60
  -1
C-9AEF~1.ASC
17/05/02
13:11:19.00
17/05/02
13:11:19.00
tln
$C-4040-8_t0027$<tbV0>[2.5,7.0,8.0,0.0,22,1,0]
370
64

2002,4.07
MIRTGS : RIGHTBACK : INTERNAL 2
MIR : ON : INTERNAL 2
OPTKBR

0.200000
8
8.000000
FILLER
RATIO
SPECTRUM
UNLOCKED 256

DOUBLE
64
COMBINED
1
0
0

1.000000
RATIO

1
0
TRUE
51149
0
LEFT NOT FITTED RIGHT NOT FITTED 0
NONE
NONE
15600
12
4.427000
51148
TRUE
1 0 8 72 0 0 0 0

15798

#HDR
-1
-1
#GR
CM-1
%T
2.38419e-05
0.0
7800
-1.000000
7431
8
87.6974
36.4154
#DATA
7800	87.236
7775	63.6271
7750	72.4441
7725	64.6379
7700	70.7599
7675	77.657
7650	73.1232
7625	65.4519
7600	66.1311
7575	70.5077
7550	70.1603
7525	66.518
7500	61.6242
7475	65.0243
7450	66.1931
7425	67.8012
7400	64.7328
7375	63.2544
7350	66.8509
7325	66.4844
7300	62.1534
7275	66.4953
7250	62.6863
7225	69.5188
7200	66.5507
7175	62.6615
7150	66.0203
7125	64.4122
7100	63.1462
7075	67.081
7050	62.7491
7025	64.3293
7000	65.6118
6975	63.543
6950	64.4418
6925	64.7352
6900	65.1838
6875	65.5503
6850	65.8612
6825	63.1048
6800	65.6732
6775	64.6995
6750	63.8375
6725	61.9938
6700	64.2775
6675	63.204
6650	65.1049
6625	66.0297
6600	65.412
6575	65.3019
6550	63.6729
6525	63.9031
6500	65.2335
6475	64.5282
6450	64.5698
6425	65.3076
6400	66.0961
6375	65.1552
6350	66.1733
6325	65.4337
6300	65.6464
6275	65.7692
6250	65.4227
6225	64.8249
6200	66.6483
6175	64.4356
6150	65.205
6125	64.4307
6100	63.9935
6075	64.3737
6050	66.1681
6025	63.9674
6000	64.5217
5975	64.3676
5950	64.7952
5925	65.0889
5900	65.6929
5875	65.1568
5850	65.0091
5825	64.9233
5800	64.9528
5775	64.8444
5750	65.656
5725	64.3747
5700	64.7966
5675	65.7655
5650	65.8125
5625	65.6589
5600	65.888
5575	65.0264
5550	64.7254
5525	65.1217
5500	65.1251
5475	65.0564
5450	65.6707
5425	65.754
5400	65.3762
5375	66.0273
5350	65.1046
5325	64.8969
5300	64.1343
5275	62.9777
5250	65.124
5225	64.5309
5200	64.8819
5175	64.8864
5150	64.9643
5125	65.3179
5100	65.1758
5075	64.9201
5050	64.9751
5025	65.2795
5000	65.5238
4975	64.9356
4950	64.797
4925	64.9595
4900	64.8071
4875	64.7829
4850	65.1125
4825	65.1726
4800	64.9054
4775	65.2922
4750	64.9535
4725	64.7073
4700	64.8351
4675	65.1133
4650	65.001
4625	65.0736
4600	65.0817
4575	65.3802
4550	65.151
4525	65.4732
4500	65.2994
4475	65.3903
4450	65.6553
4425	65.6309
4400	64.6315
4375	64.5901
4350	65.5531
4325	65.4311
4300	65.5941
4275	65.0081
4250	65.1657
4225	65.1893
4200	64.9022
4175	65.1977
4150	65.2792
4125	65.2203
4100	65.3749
4075	65.1047
4050	65.3979
4025	65.1862
4000	65.2334
3975	64.9643
3950	65.2087
3925	65.4462
3900	65.1522
3875	65.3564
3850	65.279
3825	65.4096
3800	65.0174
3775	65.275
3750	65.4046
3725	65.2836
3700	65.3173
3675	65.2119
3650	65.1863
3625	65.1211
3600	65.2241
3575	65.3706
3550	65.3002
3525	65.2514
3500	65.0844
3475	64.9953
3450	65.4126
3425	65.4193
3400	65.2436
3375	65.3288
3350	65.4518
3325	65.3646
3300	65.295
3275	65.33
3250	65.2949
3225	65.2942
3200	65.1696
3175	65.4071
3150	65.3407
3125	65.2267
3100	65.2362
3075	65.2927
3050	65.3431
3025	65.2444
3000	65.4989
2975	65.3007
2950	65.1862
2925	64.9276
2900	65.0288
2875	65.0494
2850	65.0457
2825	65.3084
2800	65.3173
2775	65.2518
2750	65.1668
2725	65.4194
2700	65.478
2675	65.3722
2650	65.3176
2625	65.4731
2600	65.2948
2575	65.3332
2550	65.5363
2525	65.5005
2500	65.565
2475	65.3487
2450	65.3429
2425	65.2681
2400	65.3009
2375	65.389
2350	65.4263
2325	65.3207
2300	65.4551
2275	65.3463
2250	65.4539
2225	65.3352
2200	65.3795
2175	65.4172
2150	65.3865
2125	65.4397
2100	65.4302
2075	65.435
2050	65.3986
2025	65.4146
2000	65.4845
1975	65.5685
1950	65.4548
1925	65.506
1900	65.3196
1875	65.4495
1850	65.3838
1825	65.37
1800	65.4569
1775	65.3376
1750	65.2598
1725	65.122
1700	65.35
1675	65.2845
1650	65.2745
1625	65.3138
1600	65.275
1575	65.1185
1550	65.1155
1525	65.1997
1500	65.2393
1475	65.1955
1450	65.0417
1425	65.2147
1400	65.1475
1375	65.1601
1350	65.1873
1325	65.1022
1300	65.126
1275	65.1831
1250	65.0807
1225	65.1358
1200	65.1334
1175	65.0196
1150	64.8776
1125	65.1072
1100	64.9469
1075	64.9439
1050	64.7926
1025	64.6061
1000	64.9653
975	 65.0297
950	 64.6004
925	 65.0834
900	 63.4697
875	 64.4732
850	 64.5181
825	 64.6439
800	 64.211
775	 64.1952
750	 63.9837
725	 63.8917
700	 63.3003
675	 63.2293
650	 63.2763
625	 63.1928
600	 62.8595
575	 62.4754
550	 62.5795
525	 61.6848
500	 61.3092
475	 59.8594
450	 59.9343
425	 59.9665
400	 62.0912
375	 41.6457
370	 36.9885