File: Bakgrunnsmateriale/MATLAB/FTIR/ftir_data/subBb/Mapping_36/C-4040-8_t19.asc
PE IR       SPECTRUM    SPECTRUM    ASCII       PEDS        1.60
  -1
C-C92E~1.ASC
17/05/02
12:27:19.00
17/05/02
12:27:45.00
tln
$C-4040-8_t0019$<tbV0>[12.5,2.0,8.0,0.0,22,1,0]
27.028
64

2002,4.07
MIRTGS : RIGHTBACK : INTERNAL 2
MIR : ON : INTERNAL 2
OPTKBR

0.200000
8
8.000000
FILLER
RATIO
SPECTRUM
UNLOCKED 256

DOUBLE
64
COMBINED
1
0
0

0.002000
RATIO

1
0
TRUE
51149
0
LEFT NOT FITTED RIGHT NOT FITTED 0
NONE
NONE
15600
12
4.427000
51148
TRUE
1 0 8 72 0 0 0 0

15798

#HDR
-1
-1
#GR
µM
%T
2.38419e-05
0.0
1.282000
0.002000
12874
8
72.6392
45.4647
#DATA
1.282000	 69.0795
1.368000	 62.2297
1.454000	 65.3602
1.540000	 65.1349
1.626000	 65.4727
1.712000	 64.431
1.798000	 64.7355
1.884000	 64.4049
1.970000	 64.7013
2.056000	 64.565
2.142000	 64.6779
2.228000	 65.0799
2.314000	 64.9092
2.400000	 64.7323
2.486000	 64.9107
2.572000	 65.2071
2.658000	 64.9896
2.744000	 64.9658
2.830000	 64.892
2.916000	 64.8717
3.002000	 65.0328
3.088000	 65.0516
3.174000	 64.9886
3.260000	 65
3.346000	 64.9861
3.432000	 64.6934
3.518000	 64.8333
3.604000	 65.0159
3.690000	 65.1637
3.776000	 64.9771
3.862000	 65.0378
3.948000	 65.075
4.034000	 65.0394
4.120000	 65.0687
4.206000	 65.0329
4.292000	 64.9359
4.378000	 65.0055
4.464000	 65.0593
4.550000	 65.0058
4.636000	 65.1059
4.722000	 65.0029
4.808000	 65.0352
4.894000	 65.0922
4.980000	 65.0475
5.066000	 64.9604
5.152000	 65.0977
5.238000	 65.0205
5.324000	 65.0445
5.410000	 65.1104
5.496000	 65.0447
5.582000	 65.0761
5.668000	 64.9945
5.754000	 64.8938
5.840000	 64.8626
5.926000	 64.8993
6.012000	 65.0108
6.098000	 64.9777
6.184000	 64.988
6.270000	 65.0112
6.356000	 64.8849
6.442000	 64.8883
6.528000	 64.7996
6.614000	 64.9406
6.700000	 64.8587
6.786000	 64.8418
6.872000	 64.8959
6.958000	 64.7996
7.044000	 64.7271
7.130000	 64.7694
7.216000	 64.7148
7.302000	 64.8029
7.388000	 64.7477
7.474000	 64.7801
7.560000	 64.6919
7.646000	 64.7647
7.732000	 64.6811
7.818000	 64.7486
7.904000	 64.6855
7.990000	 64.6791
8.076000	 64.6742
8.161999	 64.6519
8.248000	 64.6853
8.334000	 64.5211
8.420000	 64.5839
8.506000	 64.63
8.592000	 64.5951
8.678000	 64.5754
8.763999	 64.4624
8.850000	 64.5481
8.936000	 64.4313
9.022000	 64.3485
9.108000	 64.389
9.193999	 64.3929
9.280000	 64.3584
9.366000	 64.5768
9.452000	 64.5087
9.538000	 64.4758
9.624000	 64.6332
9.710000	 64.3356
9.795999	 64.4034
9.882000	 64.3369
9.968000	 64.3017
10.054	64.222
10.14	64.2722
10.226	64.2564
10.312	64.3577
10.398	64.2416
10.484	64.2409
10.57	64.3458
10.656	63.9864
10.742	63.8475
10.828	64.0978
10.914	64.1578
11	64.4955
11.086	64.525
11.172	63.9187
11.258	63.7926
11.344	64.3681
11.43	64.4346
11.516	64.706
11.602	64.1706
11.688	63.8262
11.774	63.9718
11.86	63.7626
11.946	63.566
12.032	63.606
12.118	63.8449
12.204	63.6438
12.29	63.7228
12.376	63.6941
12.462	63.7246
12.548	63.7462
12.634	63.6483
12.72	63.7012
12.806	63.7545
12.892	63.6411
12.978	63.685
13.064	63.818
13.15	63.5823
13.236	63.3853
13.322	63.3352
13.408	63.2737
13.494	63.3325
13.58	63.4238
13.666	63.5373
13.752	63.3924
13.838	63.1263
13.924	63.0865
14.01	63.1092
14.096	62.9129
14.182	62.8427
14.268	62.9948
14.354	63.2062
14.44	63.1792
14.526	62.8529
14.612	62.5461
14.698	62.4729
14.784	62.5148
14.87	62.4869
14.956	62.479
15.042	62.4997
15.128	62.4095
15.214	62.3087
15.3	62.2872
15.386	62.2824
15.472	62.2669
15.558	62.1882
15.644	61.9889
15.73	61.7717
15.816	61.767
15.902	61.9963
15.988	62.1981
16.074	62.2632
16.16	62.2517
16.246	62.1178
16.332	61.8908
16.418	61.7238
16.504	61.6261
16.59	61.5488
16.676	61.5831
16.762	61.7882
16.848	61.9923
16.934	61.9322
17.02	61.6
17.106	61.3011
17.192	61.2324
17.278	61.2566
17.364	61.2061
17.45	61.1131
17.536	61.074
17.622	61.108
17.708	61.1827
17.794	61.2412
17.88	61.255
17.966	61.2821
18.052	61.3795
18.138	61.4644
18.224	61.3943
18.31	61.1975
18.396	61.0686
18.482	61.0945
18.568	61.1464
18.654	61.083
18.74	60.9342
18.826	60.8149
18.912	60.7676
18.998	60.7678
19.084	60.8068
19.17	60.8806
19.256	60.941
19.342	60.9365
19.428	60.8717
19.514	60.7883
19.6	60.6937
19.686	60.5607
19.772	60.3889
19.858	60.2308
19.944	60.1327
20.03	60.0671
20.116	59.952
20.202	59.7357
20.288	59.4623
20.374	59.2471
20.46	59.1857
20.546	59.2821
20.632	59.4542
20.718	59.6015
20.804	59.669
20.89	59.658
20.976	59.5998
21.062	59.5265
21.148	59.4633
21.234	59.429
21.32	59.4203
21.406	59.3986
21.492	59.3026
21.578	59.0885
21.664	58.777
21.75	58.4545
21.836	58.213
21.922	58.0859
22.008	58.0267
22.094	57.9479
22.18	57.7815
22.266	57.5159
22.352	57.2032
22.438	56.9329
22.524	56.7755
22.61	56.7426
22.696	56.766
22.782	56.7307
22.868	56.5454
22.954	56.2165
23.04	55.8507
23.126	55.6198
23.212	55.633
23.298	55.8972
23.384	56.2918
23.47	56.6526
23.556	56.857
23.642	56.8581
23.728	56.664
23.814	56.3216
23.9	55.8699
23.986	55.3353
24.072	54.7897
24.158	54.3662
24.244	54.2279
24.33	54.5259
24.416	55.3322
24.502	56.5924
24.588	58.1511
24.674	59.8394
24.76	61.536
24.846	63.1931
24.932	64.8583
25.018	66.6094
25.104	68.4526
25.19	70.1528
25.276	71.2706
25.362	71.3083
25.448	69.8833
25.534	66.9956
25.62	63.0829
25.706	58.8398
25.792	54.977
25.878	52.0976
25.964	50.6747
26.05	50.945
26.136	52.8185
26.222	55.8276
26.308	59.0978
26.394	61.601
26.48	62.5622
26.566	61.6437
26.652	59.0765
26.738	55.4723
26.824	51.618
26.91	48.2033
26.996	45.9021
27.028	45.4647