File: Bakgrunnsmateriale/MATLAB/FTIR/ftir_data/subBb/Mapping_36/C-4040-8_t26_cm-1.asc
PE IR       SPECTRUM    SPECTRUM    ASCII       PEDS        1.60
  -1
C-9A6E~1.ASC
17/05/02
13:06:38.00
17/05/02
13:06:38.00
tln
$C-4040-8_t0026$<tbV0>[7.5,7.0,8.0,0.0,22,1,0]
370
64

2002,4.07
MIRTGS : RIGHTBACK : INTERNAL 2
MIR : ON : INTERNAL 2
OPTKBR

0.200000
8
8.000000
FILLER
RATIO
SPECTRUM
UNLOCKED 256

DOUBLE
64
COMBINED
1
0
0

1.000000
RATIO

1
0
TRUE
51149
0
LEFT NOT FITTED RIGHT NOT FITTED 0
NONE
NONE
15600
12
4.427000
51148
TRUE
1 0 8 72 0 0 0 0

15798

#HDR
-1
-1
#GR
CM-1
%T
2.38419e-05
0.0
7800
-1.000000
7431
8
79.0335
36.0982
#DATA
7800	71.9859
7775	73.4167
7750	64.8999
7725	70.3949
7700	71.3928
7675	71.5839
7650	68.3367
7625	66.3744
7600	67.5058
7575	77.0048
7550	69.0125
7525	68.1722
7500	64.6392
7475	65.5353
7450	63.5027
7425	65.4491
7400	61.5051
7375	65.172
7350	69.5974
7325	66.7992
7300	65.2849
7275	66.3269
7250	65.3347
7225	66.4232
7200	63.6928
7175	67.0779
7150	63.8625
7125	63.7552
7100	64.3266
7075	63.7753
7050	65.4681
7025	67.2803
7000	64.5663
6975	66.6873
6950	64.907
6925	64.9845
6900	65.4433
6875	66.4043
6850	65.6874
6825	65.7482
6800	65.1332
6775	64.3313
6750	65.4149
6725	63.6378
6700	63.9788
6675	63.9379
6650	62.7247
6625	65.3888
6600	65.5359
6575	65.2241
6550	63.6062
6525	64.7
6500	64.5579
6475	66.0817
6450	65.0331
6425	64.0771
6400	65.4234
6375	65.4106
6350	64.8381
6325	64.6729
6300	65.0215
6275	64.9894
6250	64.9098
6225	64.8125
6200	65.2736
6175	63.9031
6150	64.2572
6125	65.1831
6100	65.5756
6075	65.0535
6050	65.8502
6025	64.2006
6000	65.2603
5975	64.9855
5950	64.7751
5925	65.0234
5900	65.5323
5875	64.5423
5850	65.4162
5825	64.8329
5800	64.8848
5775	65.25
5750	65.0155
5725	64.9066
5700	65.6553
5675	64.9918
5650	65.3855
5625	65.0165
5600	65.4925
5575	65.6801
5550	65.0564
5525	65.1813
5500	65.095
5475	65.0629
5450	64.7743
5425	64.5057
5400	65.6723
5375	64.2461
5350	64.9898
5325	66.2836
5300	61.8906
5275	61.0199
5250	65.953
5225	64.8694
5200	65.1767
5175	65.2489
5150	64.7807
5125	64.9205
5100	65.0689
5075	64.9003
5050	64.4698
5025	65.2778
5000	65.3098
4975	65.033
4950	64.3918
4925	65.0453
4900	64.8548
4875	64.8323
4850	64.5446
4825	64.9099
4800	64.7805
4775	64.9682
4750	65.0698
4725	64.9294
4700	65.1028
4675	65.0258
4650	65.4819
4625	65.0373
4600	64.89
4575	64.9582
4550	64.5246
4525	64.7206
4500	64.3034
4475	64.1379
4450	64.1287
4425	63.7996
4400	62.818
4375	64.8441
4350	64.9534
4325	64.6061
4300	64.9622
4275	64.5282
4250	64.6187
4225	64.8576
4200	64.9353
4175	64.8442
4150	64.7902
4125	65.1701
4100	65.495
4075	65.0542
4050	65.38
4025	65.0222
4000	65.1491
3975	65.0856
3950	65.2769
3925	64.9765
3900	65.3762
3875	65.1231
3850	65.2257
3825	65.2851
3800	65.0168
3775	64.9066
3750	65.2024
3725	65.2991
3700	65.2511
3675	65.1885
3650	65.2996
3625	65.0945
3600	65.2078
3575	65.2824
3550	65.2304
3525	65.2441
3500	65.3857
3475	65.0537
3450	65.3349
3425	65.0197
3400	65.2774
3375	65.3006
3350	65.1644
3325	65.1428
3300	65.1529
3275	65.2463
3250	65.2103
3225	65.1288
3200	65.1441
3175	65.2618
3150	65.1419
3125	65.2382
3100	65.325
3075	65.1899
3050	65.2716
3025	65.1099
3000	65.2884
2975	65.024
2950	65.01
2925	64.7369
2900	65.0784
2875	65.0172
2850	64.9777
2825	65.2831
2800	65.3069
2775	65.2765
2750	65.2804
2725	65.3131
2700	65.2756
2675	65.1781
2650	65.2109
2625	65.3276
2600	65.4036
2575	65.2483
2550	65.407
2525	65.2841
2500	65.3304
2475	65.2433
2450	65.2146
2425	65.2208
2400	65.193
2375	65.2899
2350	65.2613
2325	65.1396
2300	65.3785
2275	65.2235
2250	65.3826
2225	65.2435
2200	65.3465
2175	65.2803
2150	65.2535
2125	65.3963
2100	65.3842
2075	65.2219
2050	65.2683
2025	65.3769
2000	65.396
1975	65.3381
1950	65.3584
1925	65.4009
1900	65.4139
1875	65.3875
1850	65.3769
1825	65.3996
1800	65.4019
1775	65.4664
1750	65.161
1725	65.0262
1700	65.2303
1675	65.3159
1650	65.2424
1625	65.1723
1600	65.2497
1575	65.2001
1550	65.1444
1525	65.2388
1500	65.1996
1475	65.0717
1450	65.1589
1425	65.174
1400	65.0585
1375	65.0115
1350	65.0893
1325	65.1447
1300	65.1143
1275	65.0161
1250	64.8998
1225	64.9356
1200	65.017
1175	64.8262
1150	64.8576
1125	64.9274
1100	64.8811
1075	64.9241
1050	64.9522
1025	64.8276
1000	64.8066
975	 64.6735
950	 64.3491
925	 64.5169
900	 65.0559
875	 64.0979
850	 64.6152
825	 64.4138
800	 64.1439
775	 63.8919
750	 63.5288
725	 63.5914
700	 63.1504
675	 62.7702
650	 62.8726
625	 62.7541
600	 62.9745
575	 62.1978
550	 61.6721
525	 61.4583
500	 61.5052
475	 59.2532
450	 59.7666
425	 58.734
400	 52.9237
375	 38.2763
370	 41.2659