File: Bakgrunnsmateriale/MATLAB/FTIR/ftir_data/LPE454/Mapping_121/LPE454_t02_cm-1.asc
PE IR       SPECTRUM    SPECTRUM    ASCII       PEDS        1.60
  -1
LP57B0~1.ASC
17/05/19
14:33:57.00
17/05/19
14:33:57.00
tln
$LPE454_t0002$<tbV0>[10.4,-13.0,8.0,0.0,27,1,0]
370
64

2002,4.07
MIRTGS : RIGHTBACK : INTERNAL 2
MIR : ON : INTERNAL 2
OPTKBR

0.200000
8
8.000000
FILLER
RATIO
SPECTRUM
UNLOCKED 256

DOUBLE
64
COMBINED
1
0
0

1.000000
RATIO

1
0
TRUE
51149
0
LEFT NOT FITTED RIGHT NOT FITTED 0
NONE
NONE
15600
12
4.427000
51148
TRUE
1 0 8 72 0 0 0 0

15798

#HDR
-1
-1
#GR
CM-1
%T
2.38419e-05
0.0
5000
-1.000000
4631
8
61.9991
-12.9564
#DATA
5000	0.196385
4984	0.505828
4968	0.184750
4952	0.186038
4936	0.504112
4920	0.824213
4904	0.123262
4888	0.871896
4872	1.632332
4856	1.034665
4840	-1.860833
4824	-0.744247
4808	1.086211
4792	0.034689
4776	-0.356984
4760	0.528097
4744	0.391077
4728	0.005102
4712	0.196456
4696	0.001811
4680	0.325655
4664	0.010585
4648	0.090122
4632	-0.018286
4616	0.646567
4600	0.191807
4584	0.104212
4568	0.400042
4552	0.582242
4536	-0.335216
4520	-0.580430
4504	-0.964236
4488	0.298023
4472	0.748753
4456	14.1149
4440	-0.651049
4424	-0.934815
4408	-1.039409
4392	-0.682878
4376	0.052571
4360	-0.174188
4344	0.032806
4328	0.468730
4312	0.070095
4296	0.137567
4280	-0.194573
4264	-0.059652
4248	0.014901
4232	0.293755
4216	0.138425
4200	0.025129
4184	1.102304
4168	-0.293111
4152	0.181460
4136	0.189828
4120	0.139617
4104	-0.028014
4088	0.071549
4072	0.090575
4056	0.200700
4040	0.093674
4024	-0.067138
4008	0.261068
3992	0.112533
3976	0.068116
3960	0.098347
3944	0.020265
3928	-0.067758
3912	-0.065517
3896	0.202608
3880	0.156092
3864	0.030350
3848	0.079298
3832	0.252628
3816	0.048542
3800	-0.029850
3784	0.075840
3768	0.126695
3752	0.031518
3736	0.055575
3720	-0.091028
3704	0.177288
3688	-0.054097
3672	0.065350
3656	0.177216
3640	-0.010752
3624	-0.039291
3608	0.109481
3592	-0.013995
3576	0.064587
3560	0.025486
3544	0.010323
3528	0.083184
3512	0.073075
3496	0.163149
3480	0.140714
3464	-0.077652
3448	0.057959
3432	0.054860
3416	-0.062513
3400	0.125455
3384	0.128388
3368	0.040769
3352	-0.006794
3336	-0.128340
3320	-0.021386
3304	-0.025367
3288	0.130605
3272	-0.097298
3256	0.139689
3240	0.103688
3224	0.122261
3208	0.101947
3192	0.100016
3176	0.108456
3160	-0.046086
3144	-0.060462
3128	-0.013399
3112	0.099396
3096	0.135898
3080	0.092411
3064	-0.053644
3048	0.129699
3032	-0.076985
3016	0.056529
3000	0.132966
2984	-0.045251
2968	0.078797
2952	0.041866
2936	0.017428
2920	0.056886
2904	0.134420
2888	0.063180
2872	0.016188
2856	0.287795
2840	0.034046
2824	-0.005149
2808	-0.014042
2792	-0.076341
2776	0.042295
2760	-0.059723
2744	0.046324
2728	-0.087094
2712	0.082612
2696	0.036311
2680	0.040125
2664	0.125026
2648	-0.039410
2632	0.019907
2616	0.050544
2600	-0.006842
2584	0.093746
2568	0.016856
2552	-0.032639
2536	-0.054311
2520	-0.023317
2504	-0.003314
2488	0.164747
2472	0.060510
2456	0.166416
2440	0.050473
2424	0.059270
2408	0.102567
2392	0.042533
2376	0.063300
2360	0.203680
2344	0.240445
2328	0.433778
2312	0.652122
2296	0.964617
2280	1.364827
2264	1.656937
2248	2.459597
2232	3.258061
2216	4.226374
2200	5.540037
2184	6.818819
2168	8.421111
2152	10.065
2136	11.6775
2120	13.532
2104	15.2758
2088	17.1686
2072	18.4384
2056	20.1679
2040	21.5382
2024	22.6709
2008	23.8759
1992	24.9723
1976	25.8865
1960	26.6723
1944	27.3637
1928	28.0019
1912	28.6324
1896	29.2583
1880	29.6216
1864	30.0819
1848	30.4343
1832	30.8484
1816	31.0885
1800	31.3828
1784	31.7088
1768	31.8824
1752	31.9916
1736	32.2441
1720	32.2756
1704	32.5611
1688	32.8164
1672	32.8514
1656	33.047
1640	33.0149
1624	33.2148
1608	33.138
1592	33.267
1576	33.1739
1560	33.6368
1544	33.537
1528	33.4326
1512	33.5548
1496	33.7729
1480	33.701
1464	33.6436
1448	33.5162
1432	33.7441
1416	33.7424
1400	33.5709
1384	33.7496
1368	33.7783
1352	33.6784
1336	33.6285
1320	33.6459
1304	33.6707
1288	33.4443
1272	33.5294
1256	33.5902
1240	33.4717
1224	33.3239
1208	33.5534
1192	33.3966
1176	33.3758
1160	33.2374
1144	33.4014
1128	33.2433
1112	33.0467
1096	32.689
1080	32.9793
1064	32.986
1048	32.585
1032	32.4608
1016	32.9135
1000	32.3993
984	 32.3354
968	 32.2493
952	 32.0859
936	 32.1725
920	 31.8626
904	 31.723
888	 31.8466
872	 31.3011
856	 31.2184
840	 30.7865
824	 31.0095
808	 30.7377
792	 30.4756
776	 30.3288
760	 30.6443
744	 30.6018
728	 29.5893
712	 29.7159
696	 29.5227
680	 28.9008
664	 27.9506
648	 28.2218
632	 28.3529
616	 27.9484
600	 27.4126
584	 26.8548
568	 27.0537
552	 25.9593
536	 26.1995
520	 26.3521
504	 25.6964
488	 24.5577
472	 23.6736
456	 22.826
440	 22.2444
424	 19.8993
408	 21.0578
392	 60.5321
376	 -12.7665
370	 35.3394