File: Bakgrunnsmateriale/MATLAB/FTIR/ftir_data/LPE454/Mapping_121/LPE454_t04_cm-1.asc
PE IR       SPECTRUM    SPECTRUM    ASCII       PEDS        1.60
  -1
LP67BB~1.ASC
17/05/19
14:43:11.00
17/05/19
14:43:11.00
tln
$LPE454_t0004$<tbV0>[5.2,-13.0,8.0,0.0,27,1,0]
370
64

2002,4.07
MIRTGS : RIGHTBACK : INTERNAL 2
MIR : ON : INTERNAL 2
OPTKBR

0.200000
8
8.000000
FILLER
RATIO
SPECTRUM
UNLOCKED 256

DOUBLE
64
COMBINED
1
0
0

1.000000
RATIO

1
0
TRUE
51149
0
LEFT NOT FITTED RIGHT NOT FITTED 0
NONE
NONE
15600
12
4.427000
51148
TRUE
1 0 8 72 0 0 0 0

15798

#HDR
-1
-1
#GR
CM-1
%T
2.38419e-05
0.0
5000
-1.000000
4631
8
88.946
-6.594204
#DATA
5000	0.100278
4984	-0.013589
4968	0.767254
4952	0.521540
4936	0.400495
4920	0.231099
4904	0.066852
4888	-0.925636
4872	1.101994
4856	1.369976
4840	-1.101183
4824	0.031089
4808	0.061345
4792	1.885390
4776	1.274657
4760	0.510287
4744	0.076317
4728	0.008654
4712	-0.005936
4696	0.118041
4680	0.044679
4664	0.082254
4648	0.048756
4632	0.021100
4616	0.446581
4600	-0.192117
4584	0.099349
4568	0.223183
4552	0.108408
4536	0.225687
4520	0.215339
4504	-1.034498
4488	-0.255727
4472	3.613281
4456	-6.069564
4440	1.314949
4424	0.111532
4408	-0.309348
4392	0.064158
4376	-0.043535
4360	-0.267887
4344	0.245952
4328	0.032615
4312	0.212860
4296	0.064802
4280	0.295114
4264	-0.109171
4248	0.207781
4232	-0.184369
4216	0.093436
4200	-0.335788
4184	0.284123
4168	0.045704
4152	0.049328
4136	0.223064
4120	-0.151705
4104	-0.123119
4088	-0.049185
4072	0.083899
4056	0.114202
4040	0.308036
4024	0.190639
4008	-0.031685
3992	0.092458
3976	0.004410
3960	-0.092983
3944	-0.036478
3928	0.042986
3912	0.234198
3896	0.014424
3880	0.079154
3864	0.053358
3848	0.146198
3832	-0.184798
3816	0.231957
3800	0.110292
3784	0.180506
3768	0.131273
3752	-0.101852
3736	-0.008654
3720	0.084590
3704	0.204634
3688	-0.028109
3672	-0.086951
3656	0.010609
3640	0.128579
3624	0.027418
3608	0.103235
3592	0.049233
3576	-0.012445
3560	-0.059437
3544	-0.041985
3528	0.125384
3512	-0.046563
3496	0.073051
3480	0.053572
3464	0.284647
3448	0.007271
3432	-0.052237
3416	-0.103306
3400	0.064659
3384	0.073981
3368	0.069665
3352	0.086641
3336	0.284528
3320	0.282049
3304	0.138354
3288	0.057101
3272	0.091099
3256	0.056028
3240	-0.035238
3224	-0.061273
3208	0.148177
3192	0.011467
3176	-0.009059
3160	-0.023245
3144	0.313639
3128	-0.042080
3112	0.186395
3096	0.086355
3080	-0.069284
3064	-0.119781
3048	0.068402
3032	0.219559
3016	-0.012588
3000	0.014567
2984	0.002098
2968	0.133824
2952	-0.109195
2936	0.040197
2920	-0.053334
2904	0.014209
2888	0.031042
2872	0.053286
2856	-0.101542
2840	-0.160622
2824	0.237822
2808	0.173234
2792	-0.032305
2776	-0.014877
2760	-0.105762
2744	0.029253
2728	-0.001144
2712	-0.005078
2696	-0.081110
2680	0.109910
2664	0.024771
2648	-0.047898
2632	-0.036096
2616	0.066328
2600	0.088644
2584	-0.012087
2568	-0.042676
2552	-0.107693
2536	0.078177
2520	-0.072455
2504	0.084781
2488	-0.051116
2472	0.063633
2456	0.054955
2440	0.143909
2424	-0.033497
2408	0.044560
2392	0.029468
2376	0.025224
2360	0.226545
2344	0.308084
2328	0.503945
2312	0.720238
2296	1.078057
2280	1.398468
2264	1.985764
2248	2.638125
2232	3.687119
2216	4.665017
2200	6.010961
2184	7.497978
2168	9.387636
2152	11.3263
2136	13.4685
2120	15.2878
2104	17.1326
2088	19.3922
2072	21.4888
2056	23.0871
2040	24.7201
2024	26.2625
2008	27.4882
1992	28.6732
1976	29.8467
1960	30.7247
1944	31.2366
1928	32.0733
1912	32.885
1896	33.1752
1880	33.491
1864	34.0143
1848	34.413
1832	34.5011
1816	34.6116
1800	35.3408
1784	35.2862
1768	35.2122
1752	35.2752
1736	35.7142
1720	35.6304
1704	35.6447
1688	35.9149
1672	36.0273
1656	35.6186
1640	35.5649
1624	35.9694
1608	35.8879
1592	35.4692
1576	35.6146
1560	36.1403
1544	35.8047
1528	35.408
1512	35.8862
1496	36.0482
1480	35.5955
1464	35.3784
1448	35.6083
1432	35.8624
1416	35.3361
1400	35.0916
1384	35.7422
1368	35.7094
1352	35.0925
1336	35.0942
1320	35.7177
1304	35.4692
1288	34.9527
1272	35.0937
1256	35.4156
1240	35.0895
1224	34.7372
1208	35.1561
1192	35.6159
1176	34.7716
1160	34.4069
1144	35.0529
1128	35.0305
1112	34.2257
1096	34.0765
1080	34.7398
1064	34.8221
1048	33.6704
1032	33.6449
1016	34.3992
1000	34.3644
984	 33.4326
968	 33.6144
952	 33.8056
936	 33.6407
920	 32.713
904	 33.2002
888	 33.6397
872	 33.0493
856	 32.1686
840	 32.4995
824	 33.0624
808	 31.7937
792	 31.1787
776	 31.8023
760	 32.5002
744	 30.9573
728	 30.2556
712	 30.9296
696	 30.8627
680	 29.8703
664	 29.8855
648	 29.6839
632	 29.7255
616	 28.8352
600	 28.429
584	 28.4676
568	 27.9705
552	 27.0046
536	 27.5754
520	 28.2507
504	 26.3207
488	 24.8271
472	 26.8486
456	 26.678
440	 25.1647
424	 25.5845
408	 25.0922
392	 9.719085
376	 51.1291
370	 81.1811