File: Bakgrunnsmateriale/MATLAB/FTIR/ftir_data/LPE454/Mapping_121/LPE454_t106.asc
PE IR       SPECTRUM    SPECTRUM    ASCII       PEDS        1.60
  -1
LP9B08~1.ASC
17/05/19
23:03:48.00
17/05/19
23:04:14.00
tln
$LPE454_t0106$<tbV0>[-2.6,10.4,8.0,0.0,27,1,0]
27.028
64

2002,4.07
MIRTGS : RIGHTBACK : INTERNAL 2
MIR : ON : INTERNAL 2
OPTKBR

0.200000
8
8.000000
FILLER
RATIO
SPECTRUM
UNLOCKED 256

DOUBLE
64
COMBINED
1
0
0

0.002000
RATIO

1
0
TRUE
51149
0
LEFT NOT FITTED RIGHT NOT FITTED 0
NONE
NONE
15600
12
4.427000
51148
TRUE
1 0 8 72 0 0 0 0

15798

#HDR
-1
-1
#GR
µM
%T
2.38419e-05
0.0
2.000000
0.002000
12515
8
42.0549
-14.3803
#DATA
2.000000	 -0.053763
2.084000	 0.290108
2.168000	 2.867924
2.252000	 0.340833
2.336000	 0.164248
2.420000	 -0.224148
2.504000	 0.104704
2.588000	 0.037058
2.672000	 0.230511
2.756000	 0.120227
2.840000	 0.009643
2.924000	 0.125505
3.008000	 0.091653
3.092000	 0.129574
3.176000	 0.065120
3.260000	 -0.028995
3.344000	 0.026102
3.428000	 0.095333
3.512000	 0.045938
3.596000	 -0.053043
3.680000	 -0.053744
3.764000	 -0.068406
3.848000	 0.021239
3.932000	 0.061697
4.016000	 -0.011738
4.100000	 0.097116
4.184000	 0.187801
4.268000	 0.503984
4.352000	 1.581651
4.436000	 3.511626
4.520000	 6.965402
4.604000	 11.6836
4.688000	 16.7401
4.772000	 21.6846
4.856000	 25.9081
4.940000	 29.2569
5.024000	 31.6366
5.108000	 33.4825
5.192000	 34.7353
5.276000	 35.7463
5.359999	 36.3831
5.444000	 36.9352
5.528000	 37.0424
5.612000	 37.6476
5.696000	 37.4831
5.780000	 37.808
5.864000	 37.7971
5.948000	 37.9016
6.032000	 38.1374
6.116000	 37.9271
6.200000	 37.9719
6.284000	 38.1803
6.368000	 37.8424
6.452000	 37.9278
6.536000	 38.2195
6.620000	 37.9632
6.704000	 37.782
6.788000	 38.3384
6.872000	 37.9818
6.956000	 37.7914
7.040000	 37.9616
7.124000	 38.1608
7.208000	 38.0019
7.292000	 37.6768
7.376000	 37.8778
7.460000	 38.1564
7.544000	 38.0492
7.628000	 37.5212
7.712000	 37.5782
7.796000	 37.9626
7.880000	 38.2005
7.964000	 37.7729
8.048000	 37.2671
8.132000	 37.4221
8.216000	 37.9375
8.300000	 37.9985
8.384000	 37.7405
8.468000	 37.209
8.552000	 37.1467
8.635999	 37.5501
8.719999	 37.8667
8.804000	 37.7957
8.888000	 37.3665
8.972000	 37.029
9.056000	 36.9237
9.140000	 37.2955
9.224000	 37.5324
9.308000	 37.58
9.391999	 37.5426
9.475999	 36.9269
9.560000	 36.3346
9.644000	 36.4283
9.728000	 36.9277
9.812000	 37.2841
9.896000	 37.2288
9.980000	 37.127
10.064	36.7269
10.148	36.3652
10.232	36.1316
10.316	36.2027
10.4	36.6043
10.484	36.8027
10.568	37.0053
10.652	36.974
10.736	36.6213
10.82	36.1545
10.904	35.8432
10.988	35.6338
11.072	35.7924
11.156	36.1028
11.24	36.2953
11.324	36.3218
11.408	36.4278
11.492	36.19
11.576	35.7265
11.66	35.4151
11.744	35.0851
11.828	35.0006
11.912	34.9382
11.996	35.043
12.08	35.5379
12.164	36.0261
12.248	35.9287
12.332	35.7095
12.416	35.492
12.5	35.1131
12.584	34.7137
12.668	34.3529
12.752	34.0128
12.836	33.798
12.92	34.0114
13.004	34.3513
13.088	34.7319
13.172	35.1633
13.256	35.3886
13.34	35.0236
13.424	34.7187
13.508	34.7175
13.592	34.4601
13.676	33.9143
13.76	33.5401
13.844	33.3358
13.928	33.237
14.012	33.261
14.096	33.2891
14.18	33.3141
14.264	33.4048
14.348	33.5144
14.432	33.6049
14.516	33.7362
14.6	33.92
14.684	33.9697
14.768	33.8136
14.852	33.5209
14.936	33.2071
15.02	32.904
15.104	32.5144
15.188	32.1269
15.272	31.9201
15.356	31.8667
15.44	31.8714
15.524	31.9094
15.608	31.9512
15.692	32.0238
15.776	32.2178
15.86	32.4625
15.944	32.6497
16.028	32.8044
16.112	32.9056
16.196	32.8918
16.28	32.8124
16.364	32.6984
16.448	32.4843
16.532	32.1634
16.616	31.8432
16.7	31.5964
16.784	31.3552
16.868	31.016
16.952	30.5858
17.036	30.1703
17.12	29.8899
17.204	29.8448
17.288	30.0324
17.372	30.2584
17.456	30.3413
17.54	30.3892
17.624	30.6012
17.708	30.906
17.792	31.0662
17.876	30.9965
17.96	30.7744
18.044	30.4687
18.128	30.1761
18.212	30.0759
18.296	30.2995
18.38	30.7697
18.464	31.2281
18.548	31.4205
18.632	31.2699
18.716	30.9045
18.8	30.5033
18.884	30.1139
18.968	29.7076
19.052	29.3873
19.136	29.3471
19.22	29.6243
19.304	30.0014
19.388	30.2298
19.472	30.256
19.556	30.2018
19.64	30.1708
19.724	30.1457
19.808	30.0373
19.892	29.7612
19.976	29.3048
20.06	28.7693
20.144	28.3667
20.228	28.3022
20.312	28.6046
20.396	29.0542
20.48	29.3358
20.564	29.2641
20.648	28.9039
20.732	28.4796
20.816	28.2053
20.9	28.167
20.984	28.3054
21.068	28.5006
21.152	28.6527
21.236	28.7194
21.32	28.6902
21.404	28.5457
21.488	28.2445
21.572	27.7571
21.656	27.1076
21.74	26.3871
21.824	25.7305
21.908	25.2584
21.992	25.0408
22.076	25.102
22.16	25.4281
22.244	25.9769
22.328	26.6727
22.412	27.3873
22.496	27.9512
22.58	28.2152
22.664	28.1042
22.748	27.6625
22.832	27.0324
22.916	26.4037
23	25.9383
23.084	25.7231
23.168	25.7207
23.252	25.7971
23.336	25.8061
23.42	25.6607
23.504	25.3966
23.588	25.1509
23.672	25.0748
23.756	25.2673
23.84	25.7293
23.924	26.3417
24.008	26.944
24.092	27.3994
24.176	27.5891
24.26	27.475
24.344	27.102
24.428	26.6015
24.512	26.2259
24.596	26.2631
24.68	26.9601
24.764	28.4219
24.848	30.5322
24.932	33.013
25.016	35.5309
25.1	37.7696
25.184	39.5491
25.268	40.8486
25.352	41.7152
25.436	42.0547
25.52	41.565
25.604	39.8533
25.688	36.7074
25.772	32.3234
25.856	27.2835
25.94	22.2749
26.024	17.8915
26.108	14.4385
26.192	12.112
26.276	11.016
26.36	11.25
26.444	12.5292
26.528	14.1284
26.612	14.8491
26.696	13.5973
26.78	9.841820
26.864	4.068074
26.948	-2.454051
27.028	-8.003187