File: Bakgrunnsmateriale/MATLAB/FTIR/ftir_data/LPE454/Mapping_121/LPE454_t06.asc
PE IR       SPECTRUM    SPECTRUM    ASCII       PEDS        1.60
  -1
LPD394~1.ASC
17/05/19
14:52:24.00
17/05/19
14:52:50.00
tln
$LPE454_t0006$<tbV0>[0.0,-13.0,8.0,0.0,27,1,0]
27.028
64

2002,4.07
MIRTGS : RIGHTBACK : INTERNAL 2
MIR : ON : INTERNAL 2
OPTKBR

0.200000
8
8.000000
FILLER
RATIO
SPECTRUM
UNLOCKED 256

DOUBLE
64
COMBINED
1
0
0

0.002000
RATIO

1
0
TRUE
51149
0
LEFT NOT FITTED RIGHT NOT FITTED 0
NONE
NONE
15600
12
4.427000
51148
TRUE
1 0 8 72 0 0 0 0

15798

#HDR
-1
-1
#GR
µM
%T
2.38419e-05
0.0
2.000000
0.002000
12515
8
69.0902
-1.899682
#DATA
2.000000	 0.023913
2.084000	 -1.013900
2.168000	 0.037075
2.252000	 0.835665
2.336000	 0.282894
2.420000	 -0.066507
2.504000	 0.078676
2.588000	 0.146589
2.672000	 0.109298
2.756000	 0.066381
2.840000	 0.129031
2.924000	 0.047024
3.008000	 0.149825
3.092000	 0.232132
3.176000	 0.114777
3.260000	 -0.062597
3.344000	 0.148841
3.428000	 -0.076378
3.512000	 -0.089413
3.596000	 0.047119
3.680000	 0.008824
3.764000	 0.117015
3.848000	 0.022892
3.932000	 0.030088
4.016000	 0.019494
4.100000	 0.210915
4.184000	 0.121124
4.268000	 0.198070
4.352000	 0.664224
4.436000	 1.607684
4.520000	 3.656609
4.604000	 6.998342
4.688000	 11.211
4.772000	 15.8225
4.856000	 19.8412
4.940000	 23.4787
5.024000	 26.0624
5.108000	 27.922
5.192000	 29.4941
5.276000	 30.6265
5.359999	 31.3154
5.444000	 31.8996
5.528000	 32.3466
5.612000	 32.6876
5.696000	 32.7953
5.780000	 33.0924
5.864000	 32.8287
5.948000	 33.0645
6.032000	 33.091
6.116000	 33.1255
6.200000	 33.2017
6.284000	 33.1407
6.368000	 33.2518
6.452000	 33.2705
6.536000	 33.209
6.620000	 33.2554
6.704000	 33.2111
6.788000	 33.2374
6.872000	 33.0884
6.956000	 33.1009
7.040000	 33.0794
7.124000	 33.0271
7.208000	 33.0183
7.292000	 32.8396
7.376000	 32.775
7.460000	 32.9259
7.544000	 32.6976
7.628000	 32.6612
7.712000	 32.6243
7.796000	 32.6635
7.880000	 32.4577
7.964000	 32.4193
8.048000	 32.5716
8.132000	 32.5959
8.216000	 32.4439
8.300000	 32.3819
8.384000	 32.2766
8.468000	 32.3333
8.552000	 32.3887
8.635999	 32.1281
8.719999	 32.187
8.804000	 31.9358
8.888000	 32.0411
8.972000	 32.1408
9.056000	 32.164
9.140000	 31.7595
9.224000	 31.7285
9.308000	 31.6292
9.391999	 31.8326
9.475999	 31.8842
9.560000	 31.8324
9.644000	 31.3864
9.728000	 31.4464
9.812000	 31.3736
9.896000	 31.4726
9.980000	 31.4391
10.064	31.6503
10.148	31.3851
10.232	31.1758
10.316	31.2002
10.4	30.7361
10.484	30.851
10.568	31.1391
10.652	30.9039
10.736	30.9008
10.82	30.6735
10.904	30.2505
10.988	30.28
11.072	30.1934
11.156	30.4021
11.24	30.5623
11.324	30.5239
11.408	30.422
11.492	30.405
11.576	30.0757
11.66	29.903
11.744	29.7119
11.828	29.6137
11.912	29.9723
11.996	30.0708
12.08	30.0605
12.164	30.2665
12.248	29.8906
12.332	29.5988
12.416	29.4696
12.5	29.0806
12.584	28.8284
12.668	28.8329
12.752	28.8182
12.836	28.9688
12.92	29.2172
13.004	29.2443
13.088	29.2162
13.172	29.1489
13.256	28.9201
13.34	28.6191
13.424	28.2983
13.508	27.9693
13.592	27.8681
13.676	28.2992
13.76	28.4876
13.844	28.4706
13.928	28.5936
14.012	28.4952
14.096	28.3525
14.18	28.1751
14.264	27.8955
14.348	27.6183
14.432	27.2557
14.516	26.999
14.6	27.0662
14.684	27.2045
14.768	27.1091
14.852	26.7453
14.936	26.6171
15.02	27.0538
15.104	27.3306
15.188	27.1403
15.272	27.043
15.356	27.078
15.44	26.9957
15.524	26.7402
15.608	26.383
15.692	26.3178
15.776	26.61
15.86	26.7196
15.944	26.4866
16.028	26.2938
16.112	26.2331
16.196	26.1013
16.28	25.9103
16.364	25.7905
16.448	25.7663
16.532	25.8778
16.616	26.1563
16.7	26.4106
16.784	26.3559
16.868	25.9989
16.952	25.6526
17.036	25.5215
17.12	25.4896
17.204	25.3935
17.288	25.2937
17.372	25.3298
17.456	25.4613
17.54	25.4912
17.624	25.2859
17.708	24.9105
17.792	24.5812
17.876	24.4982
17.96	24.6591
18.044	24.8534
18.128	24.8687
18.212	24.7222
18.296	24.6046
18.38	24.6269
18.464	24.7115
18.548	24.7284
18.632	24.6382
18.716	24.4607
18.8	24.2349
18.884	24.0735
18.968	24.1311
19.052	24.3891
19.136	24.5919
19.22	24.4724
19.304	24.0192
19.388	23.4588
19.472	23.0136
19.556	22.7326
19.64	22.5581
19.724	22.4779
19.808	22.5606
19.892	22.8548
19.976	23.2935
20.06	23.7185
20.144	23.993
20.228	24.0655
20.312	23.9347
20.396	23.6081
20.48	23.1287
20.564	22.6463
20.648	22.3889
20.732	22.5217
20.816	22.9982
20.9	23.5692
20.984	23.9486
21.068	23.9919
21.152	23.727
21.236	23.2543
21.32	22.6611
21.404	22.0209
21.488	21.4681
21.572	21.1895
21.656	21.325
21.74	21.8373
21.824	22.4823
21.908	22.951
21.992	23.0726
22.076	22.9043
22.16	22.683
22.244	22.6233
22.328	22.7614
22.412	22.957
22.496	22.9929
22.58	22.7587
22.664	22.2974
22.748	21.7472
22.832	21.2125
22.916	20.712
23	20.1767
23.084	19.5662
23.168	18.9824
23.252	18.6485
23.336	18.7952
23.42	19.5144
23.504	20.7093
23.588	22.071
23.672	23.1995
23.756	23.7467
23.84	23.5427
23.924	22.6647
24.008	21.3012
24.092	19.6487
24.176	17.9827
24.26	16.6794
24.344	16.2253
24.428	16.9261
24.512	18.595
24.596	20.4646
24.68	21.5705
24.764	21.3121
24.848	19.7934
24.932	17.7644
25.016	16.2117
25.1	15.8237
25.184	16.7707
25.268	18.6832
25.352	20.9713
25.436	23.3314
25.52	25.8249
25.604	28.6419
25.688	32.2757
25.772	37.2007
25.856	43.5129
25.94	50.729
26.024	57.8999
26.108	63.9702
26.192	67.9476
26.276	69.0553
26.36	66.9844
26.444	61.7675
26.528	53.8893
26.612	44.2783
26.696	34.4712
26.78	26.4453
26.864	22.1719
26.948	22.7427
27.028	27.4182