File: Bakgrunnsmateriale/MATLAB/FTIR/ftir_data/LPE454/Mapping_121/LPE454_t20_cm-1.asc
PE IR       SPECTRUM    SPECTRUM    ASCII       PEDS        1.60
  -1
LP58B5~1.ASC
17/05/19
15:57:34.00
17/05/19
15:57:34.00
tln
$LPE454_t0020$<tbV0>[-7.8,-10.4,8.0,0.0,27,1,0]
370
64

2002,4.07
MIRTGS : RIGHTBACK : INTERNAL 2
MIR : ON : INTERNAL 2
OPTKBR

0.200000
8
8.000000
FILLER
RATIO
SPECTRUM
UNLOCKED 256

DOUBLE
64
COMBINED
1
0
0

1.000000
RATIO

1
0
TRUE
51149
0
LEFT NOT FITTED RIGHT NOT FITTED 0
NONE
NONE
15600
12
4.427000
51148
TRUE
1 0 8 72 0 0 0 0

15798

#HDR
-1
-1
#GR
CM-1
%T
2.38419e-05
0.0
5000
-1.000000
4631
8
30.868
-4.192829
#DATA
5000	-0.229763
4984	-0.127148
4968	0.475668
4952	0.377535
4936	0.360393
4920	-0.180625
4904	-0.018405
4888	0.809478
4872	-0.201535
4856	-0.047588
4840	0.341415
4824	0.377416
4808	0.495553
4792	-0.014925
4776	0.391602
4760	0.085711
4744	-0.206160
4728	0.155496
4712	0.238919
4696	0.121712
4680	0.770115
4664	-0.721788
4648	0.159978
4632	-0.137710
4616	0.050044
4600	1.406836
4584	0.002479
4568	-0.042581
4552	-1.114010
4536	1.430535
4520	0.740003
4504	4.938340
4488	5.477023
4472	-0.038528
4456	-0.268626
4440	0.471496
4424	0.102162
4408	0.165724
4392	0.343179
4376	0.385117
4360	0.166082
4344	0.341010
4328	0.116991
4312	0.241875
4296	0.423932
4280	0.212955
4264	-0.403118
4248	-0.383639
4232	0.147724
4216	0.016331
4200	-0.037837
4184	-0.386476
4168	-0.333786
4152	0.019669
4136	0.372552
4120	0.075650
4104	0.048518
4088	0.131392
4072	0.052952
4056	0.070667
4040	-0.082349
4024	0.191545
4008	0.234246
3992	0.012016
3976	0.122499
3960	0.008773
3944	0.124049
3928	0.210547
3912	-0.041580
3896	0.112986
3880	0.157117
3864	0.042510
3848	0.077748
3832	-0.140619
3816	-0.017762
3800	-0.030159
3784	-0.006818
3768	-0.081443
3752	0.170469
3736	-0.081753
3720	0.154137
3704	0.121879
3688	0.087571
3672	0.182557
3656	-0.020575
3640	0.051474
3624	0.108504
3608	0.178480
3592	0.125741
3576	0.104618
3560	-0.214266
3544	-0.110507
3528	0.161695
3512	-0.069594
3496	0.068759
3480	0.279259
3464	0.139331
3448	0.086283
3432	0.209403
3416	0.046992
3400	0.111484
3384	0.142836
3368	-0.064611
3352	0.097560
3336	0.133061
3320	-0.027537
3304	0.194215
3288	-0.033712
3272	-0.040507
3256	0.010991
3240	0.005483
3224	0.184965
3208	0.080966
3192	0.062799
3176	0.037384
3160	0.025653
3144	-0.016045
3128	0.359511
3112	0.070071
3096	0.065636
3080	-0.096321
3064	0.064635
3048	0.061178
3032	-0.059700
3016	0.162887
3000	0.015926
2984	0.068354
2968	0.035691
2952	0.074267
2936	-0.013947
2920	-0.020170
2904	-0.006127
2888	-0.042176
2872	0.185966
2856	0.008583
2840	0.079250
2824	0.066971
2808	-0.003886
2792	0.057506
2776	0.061941
2760	0.118565
2744	0.094771
2728	0.047254
2712	0.082635
2696	0.050544
2680	-0.010609
2664	0.077223
2648	0.148463
2632	0.041055
2616	0.036430
2600	0.107336
2584	0.138854
2568	-0.018239
2552	0.102734
2536	0.115156
2520	-0.146389
2504	0.110054
2488	-0.058388
2472	0.000905
2456	-0.177836
2440	0.205421
2424	0.182890
2408	0.126385
2392	0.078988
2376	0.107383
2360	0.094985
2344	0.309944
2328	0.357365
2312	0.486588
2296	0.574302
2280	0.900793
2264	1.130962
2248	1.724123
2232	2.324891
2216	2.946758
2200	3.641867
2184	4.751157
2168	5.912232
2152	6.850743
2136	7.980847
2120	9.393310
2104	10.8113
2088	12.1368
2072	13.1032
2056	14.1553
2040	15.3046
2024	16.3522
2008	17.0852
1992	17.8318
1976	18.5565
1960	19.213
1944	19.8193
1928	20.2127
1912	20.8048
1896	21.2343
1880	21.4012
1864	21.7929
1848	22.2117
1832	22.5112
1816	22.6509
1800	22.9499
1784	23.1101
1768	23.4
1752	23.3073
1736	23.6274
1720	23.7226
1704	23.7567
1688	23.8622
1672	24.0208
1656	24.1349
1640	24.1524
1624	24.1105
1608	24.485
1592	24.4685
1576	24.5537
1560	24.7486
1544	24.8753
1528	24.716
1512	24.8919
1496	24.9287
1480	25.0674
1464	25.0536
1448	24.9879
1432	25.166
1416	25.2294
1400	25.1519
1384	25.3955
1368	25.4763
1352	25.5525
1336	25.4323
1320	25.5944
1304	25.8329
1288	25.87
1272	25.7677
1256	26.0128
1240	25.9724
1224	26.0177
1208	26.0847
1192	26.3446
1176	26.1766
1160	26.3633
1144	26.4363
1128	26.6359
1112	26.3485
1096	26.5065
1080	26.4294
1064	26.8194
1048	26.6472
1032	26.5801
1016	26.4441
1000	26.8657
984	 26.8667
968	 26.5382
952	 27.0747
936	 27.1172
920	 26.575
904	 26.9818
888	 26.7786
872	 26.4536
856	 26.2625
840	 26.3106
824	 26.9037
808	 26.3474
792	 26.1076
776	 26.5338
760	 26.6018
744	 25.3113
728	 25.8397
712	 25.7865
696	 26.0521
680	 25.2735
664	 24.6587
648	 24.9057
632	 24.7875
616	 23.9561
600	 24.2505
584	 23.913
568	 23.3728
552	 22.662
536	 22.4625
520	 22.831
504	 21.4833
488	 21.4025
472	 21.917
456	 20.1248
440	 19.6737
424	 18.7028
408	 24.1296
392	 5.404782
376	 30.868
370	 26.7656