File: Bakgrunnsmateriale/MATLAB/FTIR/ftir_data/LPE454/Mapping_121/LPE454_t112_cm-1.asc
PE IR       SPECTRUM    SPECTRUM    ASCII       PEDS        1.60
  -1
LP0558~1.ASC
17/05/19
23:37:40.00
17/05/19
23:37:40.00
tln
$LPE454_t0112$<tbV0>[10.4,13.0,8.0,0.0,27,1,0]
370
64

2002,4.07
MIRTGS : RIGHTBACK : INTERNAL 2
MIR : ON : INTERNAL 2
OPTKBR

0.200000
8
8.000000
FILLER
RATIO
SPECTRUM
UNLOCKED 256

DOUBLE
64
COMBINED
1
0
0

1.000000
RATIO

1
0
TRUE
51149
0
LEFT NOT FITTED RIGHT NOT FITTED 0
NONE
NONE
15600
12
4.427000
51148
TRUE
1 0 8 72 0 0 0 0

15798

#HDR
-1
-1
#GR
CM-1
%T
2.38419e-05
0.0
5000
-1.000000
4631
8
38.8806
-4.651737
#DATA
5000	-0.135278
4984	0.285840
4968	0.221347
4952	0.031256
4936	0.366330
4920	-0.098562
4904	0.041985
4888	0.205612
4872	0.425243
4856	0.120115
4840	0.062131
4824	0.294923
4808	0.401854
4792	0.461363
4776	0.438237
4760	0.593137
4744	0.232863
4728	0.208830
4712	0.236821
4696	-0.555992
4680	-0.280833
4664	-0.171709
4648	0.406217
4632	0.712299
4616	0.693535
4600	3.236103
4584	16.6978
4568	0.899219
4552	-0.754213
4536	-0.080895
4520	-1.058173
4504	-0.131750
4488	0.236606
4472	0.214600
4456	-0.056934
4440	-0.336194
4424	-0.061202
4408	0.341296
4392	-0.044226
4376	0.537824
4360	0.254726
4344	0.027370
4328	0.276517
4312	0.010442
4296	0.246500
4280	0.170612
4264	-0.050306
4248	0.088572
4232	0.167918
4216	0.196123
4200	-0.045824
4184	0.382924
4168	0.182318
4152	-0.405931
4136	0.318074
4120	0.572991
4104	0.288057
4088	0.236201
4072	0.427341
4056	0.613737
4040	0.256919
4024	-0.052881
4008	0.016665
3992	-0.018095
3976	0.049853
3960	0.092506
3944	-0.010967
3928	0.056672
3912	0.036478
3896	0.057411
3880	0.086712
3864	0.071787
3848	0.188469
3832	-0.002932
3816	0.093746
3800	-0.100350
3784	0.099635
3768	-0.056910
3752	0.125765
3736	0.144100
3720	0.051188
3704	0.036239
3688	-0.024366
3672	0.076270
3656	0.011658
3640	0.119233
3624	-0.018835
3608	0.179886
3592	0.103592
3576	0.027394
3560	0.113534
3544	-0.092172
3528	0.044298
3512	0.115227
3496	0.063562
3480	-0.012946
3464	-0.055027
3448	0.016593
3432	0.071191
3416	0.117468
3400	0.038886
3384	0.134205
3368	0.089406
3352	0.081443
3336	0.033664
3320	0.007748
3304	-0.074052
3288	-0.084590
3272	0.077247
3256	0.053548
3240	0.116801
3224	0.086021
3208	0.020909
3192	-0.034213
3176	0.045084
3160	-0.034451
3144	0.175642
3128	0.090217
3112	-0.030541
3096	-0.032567
3080	0.076842
3064	0.006246
3048	-0.081896
3032	0.014567
3016	0.001287
3000	0.047230
2984	0.080752
2968	-0.045418
2952	0.074553
2936	0.099945
2920	-0.047659
2904	0.017428
2888	0.049495
2872	0.142765
2856	0.071382
2840	0.086808
2824	0.039911
2808	-0.069999
2792	0.039720
2776	0.032448
2760	0.064992
2744	0.009870
2728	0.065875
2712	0.008940
2696	-0.055575
2680	-0.020813
2664	0.135016
2648	-0.008130
2632	0.059103
2616	0.038290
2600	0.018143
2584	-0.041770
2568	0.106406
2552	0.002598
2536	0.039839
2520	0.119233
2504	0.049400
2488	-0.087571
2472	0.011706
2456	0.142049
2440	0.082039
2424	0.147938
2408	0.158166
2392	0.241374
2376	0.360751
2360	0.621485
2344	0.624227
2328	0.989151
2312	1.319909
2296	1.734089
2280	2.376365
2264	3.119301
2248	4.201626
2232	5.370259
2216	6.687784
2200	8.371090
2184	10.1643
2168	12.1533
2152	14.086
2136	16.2109
2120	18.2159
2104	20.3222
2088	22.0581
2072	23.8537
2056	25.61
2040	27.1434
2024	28.3488
2008	29.5921
1992	30.7112
1976	31.6412
1960	32.5435
1944	33.3646
1928	34.0804
1912	34.7177
1896	35.3532
1880	35.7569
1864	36.1342
1848	36.6235
1832	36.8885
1816	37.1696
1800	37.4661
1784	37.6426
1768	37.767
1752	37.9333
1736	38.0849
1720	38.3101
1704	38.287
1688	38.4071
1672	38.5976
1656	38.781
1640	38.7609
1624	38.7117
1608	38.8383
1592	38.7644
1576	38.6571
1560	38.7297
1544	38.6407
1528	38.57
1512	38.4472
1496	38.4931
1480	38.5263
1464	38.3422
1448	38.3457
1432	38.183
1416	38.2981
1400	38.1508
1384	38.0558
1368	38.0022
1352	37.9978
1336	37.9268
1320	37.8251
1304	37.6751
1288	37.5656
1272	37.5272
1256	37.3846
1240	37.2735
1224	37.2785
1208	37.2305
1192	37.1437
1176	37.0232
1160	36.9669
1144	36.9148
1128	36.9246
1112	36.7712
1096	36.6168
1080	36.6772
1064	36.4867
1048	36.4253
1032	36.2211
1016	36.0624
1000	35.9256
984	 35.9556
968	 35.7044
952	 35.4605
936	 35.527
920	 35.3461
904	 35.3987
888	 35.0133
872	 34.8894
856	 35.0151
840	 34.615
824	 34.2737
808	 34.3337
792	 34.0227
776	 33.7801
760	 33.4725
744	 33.6332
728	 33.2745
712	 32.9991
696	 32.9573
680	 32.7541
664	 32.8719
648	 32.3324
632	 32.0824
616	 31.7543
600	 32.0079
584	 31.1495
568	 30.5326
552	 30.7266
536	 30.0641
520	 29.6876
504	 30.2925
488	 28.2302
472	 28.3944
456	 27.2495
440	 27.6481
424	 27.8953
408	 23.8865
392	 26.2186
376	 28.6011
370	 0.591802