File: Bakgrunnsmateriale/MATLAB/FTIR/ftir_data/LPE454/Mapping_121/LPE454_t106_cm-1.asc
PE IR       SPECTRUM    SPECTRUM    ASCII       PEDS        1.60
  -1
LP09DC~1.ASC
17/05/19
23:03:48.00
17/05/19
23:03:48.00
tln
$LPE454_t0106$<tbV0>[-2.6,10.4,8.0,0.0,27,1,0]
370
64

2002,4.07
MIRTGS : RIGHTBACK : INTERNAL 2
MIR : ON : INTERNAL 2
OPTKBR

0.200000
8
8.000000
FILLER
RATIO
SPECTRUM
UNLOCKED 256

DOUBLE
64
COMBINED
1
0
0

1.000000
RATIO

1
0
TRUE
51149
0
LEFT NOT FITTED RIGHT NOT FITTED 0
NONE
NONE
15600
12
4.427000
51148
TRUE
1 0 8 72 0 0 0 0

15798

#HDR
-1
-1
#GR
CM-1
%T
2.38419e-05
0.0
5000
-1.000000
4631
8
42.0459
-16.0217
#DATA
5000	-0.053763
4984	-0.241494
4968	0.274467
4952	0.115489
4936	0.238800
4920	0.659060
4904	-0.248670
4888	0.619029
4872	0.496459
4856	0.205779
4840	0.044941
4824	0.074720
4808	0.064325
4792	0.252890
4776	0.458407
4760	0.200748
4744	0.256204
4728	0.349116
4712	0.640916
4696	0.372695
4680	1.044273
4664	0.916886
4648	0.781941
4632	1.068496
4616	2.012109
4600	5.578851
4584	-7.012939
4568	0.944757
4552	0.309586
4536	0.214290
4520	1.357436
4504	0.426268
4488	0.196385
4472	0.381803
4456	0.404906
4440	0.320887
4424	-0.006842
4408	0.545454
4392	0.383472
4376	0.103449
4360	0.291776
4344	-0.119876
4328	0.291180
4312	-0.078392
4296	0.275826
4280	0.165629
4264	-0.006222
4248	0.141882
4232	0.022578
4216	0.218009
4200	-0.054812
4184	0.341749
4168	0.315976
4152	0.077247
4136	-0.388884
4120	0.354027
4104	-0.556254
4088	-0.197196
4072	1.650643
4056	-0.247550
4040	1.192879
4024	-0.104546
4008	0.064635
3992	0.054669
3976	0.169301
3960	0.334787
3944	0.011014
3928	0.058102
3912	0.203752
3896	0.205683
3880	0.154376
3864	0.036740
3848	0.047802
3832	0.140428
3816	0.067234
3800	0.096416
3784	-0.038218
3768	0.117468
3752	0.041413
3736	0.072789
3720	0.036358
3704	0.050711
3688	0.079774
3672	0.181841
3656	0.178861
3640	0.171566
3624	0.129675
3608	0.101852
3592	0.147676
3576	0.048303
3560	0.180006
3544	0.232100
3528	-0.041031
3512	0.088739
3496	0.160765
3480	0.118494
3464	0.035309
3448	0.097227
3432	-0.031399
3416	0.165128
3400	0.050640
3384	-0.010895
3368	0.120186
3352	0.041580
3336	0.008130
3320	0.030803
3304	0.217270
3288	0.075840
3272	-0.019907
3256	0.001740
3240	0.103330
3224	0.022387
3208	0.055480
3192	-0.092530
3176	0.090384
3160	0.117659
3144	0.082492
3128	0.084710
3112	0.159144
3096	0.118660
3080	0.165605
3064	0.037169
3048	0.095415
3032	-0.016403
3016	-0.003361
3000	0.063657
2984	0.028085
2968	0.074458
2952	0.014996
2936	-0.016784
2920	0.057625
2904	-0.029063
2888	0.053906
2872	-0.070095
2856	0.005817
2840	0.067543
2824	-0.019168
2808	0.084257
2792	0.028157
2776	-0.026917
2760	0.138878
2744	0.013589
2728	0.127530
2712	-0.027894
2696	-0.090265
2680	0.010776
2664	-0.027561
2648	-0.003218
2632	-0.100207
2616	-0.000643
2600	0.023698
2584	0.020384
2568	0.013327
2552	-0.027799
2536	0.087332
2520	0.062084
2504	-0.056934
2488	-0.042772
2472	0.044083
2456	0.035381
2440	0.108432
2424	0.197434
2408	0.061631
2392	0.180768
2376	0.242614
2360	0.312519
2344	0.484871
2328	0.941181
2312	1.212716
2296	1.640200
2280	2.315592
2264	3.011035
2248	3.948926
2232	5.240678
2216	6.646585
2200	8.266758
2184	10.1549
2168	12.1851
2152	14.2639
2136	16.3413
2120	18.4697
2104	20.6446
2088	22.6313
2072	24.6515
2056	26.2645
2040	27.9378
2024	29.2856
2008	30.3934
1992	31.5348
1976	32.5733
1960	33.38
1944	33.9398
1928	34.6796
1912	35.2256
1896	35.7327
1880	35.9536
1864	36.4381
1848	36.7282
1832	36.9571
1816	36.9988
1800	37.2711
1784	37.6131
1768	37.4613
1752	37.4839
1736	37.711
1720	37.8451
1704	37.781
1688	37.7467
1672	38.0324
1656	38.1361
1640	37.9653
1624	37.9374
1608	38.1086
1592	38.1867
1576	37.9478
1560	37.7983
1544	38.1346
1528	38.226
1512	37.9931
1496	37.6608
1480	38.0502
1464	38.3188
1448	38.1181
1432	37.6547
1416	38.0935
1400	38.2258
1384	37.9724
1368	37.6121
1352	37.9958
1336	38.2228
1320	37.9019
1304	37.4895
1288	37.8285
1272	38.2507
1256	37.7821
1240	37.1994
1224	37.6281
1208	38.0071
1192	37.7061
1176	37.0921
1160	37.4801
1144	37.8906
1128	37.5482
1112	37.0073
1096	37.2063
1080	37.5201
1064	37.5083
1048	36.4329
1032	36.6492
1016	37.3022
1000	37.0228
984	 36.3072
968	 36.2582
952	 36.841
936	 36.8399
920	 35.9409
904	 35.7594
888	 36.2857
872	 36.2892
856	 35.3236
840	 34.9455
824	 35.9065
808	 35.622
792	 34.5211
776	 33.8893
760	 35.0902
744	 34.7095
728	 33.6203
712	 33.2771
696	 33.5373
680	 33.947
664	 32.7295
648	 31.8694
632	 32.358
616	 32.8595
600	 31.6871
584	 29.8832
568	 30.5391
552	 30.2108
536	 31.1756
520	 29.6729
504	 29.9508
488	 29.3485
472	 28.6911
456	 25.1756
440	 27.7959
424	 25.1575
408	 26.2311
392	 41.6809
376	 14.8464
370	 -8.003187