File: Bakgrunnsmateriale/MATLAB/FTIR/ftir_data/LPE454/Mapping_121/LPE454_t07.asc
PE IR       SPECTRUM    SPECTRUM    ASCII       PEDS        1.60
  -1
LPD390~1.ASC
17/05/19
14:57:01.00
17/05/19
14:57:27.00
tln
$LPE454_t0007$<tbV0>[-2.6,-13.0,8.0,0.0,27,1,0]
27.028
64

2002,4.07
MIRTGS : RIGHTBACK : INTERNAL 2
MIR : ON : INTERNAL 2
OPTKBR

0.200000
8
8.000000
FILLER
RATIO
SPECTRUM
UNLOCKED 256

DOUBLE
64
COMBINED
1
0
0

0.002000
RATIO

1
0
TRUE
51149
0
LEFT NOT FITTED RIGHT NOT FITTED 0
NONE
NONE
15600
12
4.427000
51148
TRUE
1 0 8 72 0 0 0 0

15798

#HDR
-1
-1
#GR
µM
%T
2.38419e-05
0.0
2.000000
0.002000
12515
8
57.0368
-30.9466
#DATA
2.000000	 -0.003194
2.084000	 -1.047521
2.168000	 0.447590
2.252000	 -0.010405
2.336000	 -0.108765
2.420000	 0.231305
2.504000	 0.035902
2.588000	 -0.051972
2.672000	 0.088154
2.756000	 -0.011646
2.840000	 0.181272
2.924000	 0.118129
3.008000	 -0.085373
3.092000	 -0.013464
3.176000	 0.117353
3.260000	 -0.006635
3.344000	 0.086316
3.428000	 0.061482
3.512000	 0.097636
3.596000	 0.159312
3.680000	 0.016646
3.764000	 -0.050267
3.848000	 0.009228
3.932000	 0.044447
4.016000	 0.041140
4.100000	 -0.075221
4.184000	 0.070299
4.268000	 0.155582
4.352000	 0.601692
4.436000	 1.442055
4.520000	 3.393008
4.604000	 6.266022
4.688000	 9.700568
4.772000	 13.6204
4.856000	 16.9249
4.940000	 19.8837
5.024000	 22.1161
5.108000	 23.8446
5.192000	 25.0741
5.276000	 26.1074
5.359999	 26.783
5.444000	 27.3
5.528000	 27.8853
5.612000	 28.0103
5.696000	 28.3114
5.780000	 28.4365
5.864000	 28.3505
5.948000	 28.8268
6.032000	 28.6261
6.116000	 28.9337
6.200000	 28.864
6.284000	 28.7775
6.368000	 29.0669
6.452000	 28.9525
6.536000	 28.9203
6.620000	 29.1746
6.704000	 29.0893
6.788000	 29.1254
6.872000	 29.0552
6.956000	 29.1074
7.040000	 29.1848
7.124000	 29.1538
7.208000	 29.4129
7.292000	 29.1909
7.376000	 29.1831
7.460000	 29.3798
7.544000	 29.3809
7.628000	 29.1566
7.712000	 29.1963
7.796000	 29.3913
7.880000	 29.4637
7.964000	 29.3883
8.048000	 29.3139
8.132000	 29.5596
8.216000	 29.5499
8.300000	 29.6339
8.384000	 29.4395
8.468000	 29.3112
8.552000	 29.3522
8.635999	 29.4156
8.719999	 29.643
8.804000	 29.4598
8.888000	 29.2853
8.972000	 29.2536
9.056000	 29.1542
9.140000	 29.076
9.224000	 29.6179
9.308000	 29.2251
9.391999	 29.1183
9.475999	 29.2898
9.560000	 29.4537
9.644000	 29.5206
9.728000	 29.4445
9.812000	 29.3608
9.896000	 29.0957
9.980000	 28.9738
10.064	29.1166
10.148	29.574
10.232	29.7811
10.316	29.5496
10.4	29.4509
10.484	29.2473
10.568	29.0619
10.652	28.7285
10.736	28.9687
10.82	29.1636
10.904	29.2721
10.988	29.2086
11.072	28.9322
11.156	28.8005
11.24	28.6909
11.324	28.5553
11.408	28.3644
11.492	28.5989
11.576	28.6339
11.66	28.7789
11.744	28.9035
11.828	28.8764
11.912	29.0096
11.996	28.775
12.08	28.3351
12.164	28.2253
12.248	28.2929
12.332	28.4515
12.416	28.6384
12.5	28.6479
12.584	28.6097
12.668	28.5573
12.752	28.3123
12.836	27.9513
12.92	27.7571
13.004	27.8313
13.088	27.7394
13.172	27.6667
13.256	27.6449
13.34	27.8835
13.424	28.1162
13.508	27.9875
13.592	28.072
13.676	28.1357
13.76	28.0222
13.844	28.0265
13.928	27.8536
14.012	27.4792
14.096	27.2374
14.18	27.1586
14.264	27.0233
14.348	26.8607
14.432	26.885
14.516	27.166
14.6	27.4445
14.684	27.4627
14.768	27.3639
14.852	27.3873
14.936	27.4869
15.02	27.3712
15.104	26.9594
15.188	26.4792
15.272	26.1138
15.356	25.9168
15.44	25.8463
15.524	25.8292
15.608	25.8543
15.692	25.929
15.776	26.0732
15.86	26.2609
15.944	26.3813
16.028	26.4077
16.112	26.4563
16.196	26.5626
16.28	26.5591
16.364	26.343
16.448	26.1273
16.532	26.1046
16.616	26.0631
16.7	25.7307
16.784	25.2619
16.868	24.993
16.952	24.9566
17.036	24.9572
17.12	24.9
17.204	24.8063
17.288	24.6936
17.372	24.609
17.456	24.6641
17.54	24.9179
17.624	25.268
17.708	25.5181
17.792	25.5605
17.876	25.4729
17.96	25.3829
18.044	25.2884
18.128	25.1097
18.212	24.8618
18.296	24.6773
18.38	24.6612
18.464	24.7852
18.548	24.9111
18.632	24.8955
18.716	24.6803
18.8	24.3229
18.884	23.9321
18.968	23.5982
19.052	23.3703
19.136	23.281
19.22	23.3336
19.304	23.4515
19.388	23.4838
19.472	23.3166
19.556	22.996
19.64	22.7274
19.724	22.7359
19.808	23.0897
19.892	23.6493
19.976	24.1764
20.06	24.5041
20.144	24.5965
20.228	24.501
20.312	24.2858
20.396	24.0324
20.48	23.8296
20.564	23.7304
20.648	23.7147
20.732	23.7017
20.816	23.6202
20.9	23.4635
20.984	23.2617
21.068	23.0397
21.152	22.8011
21.236	22.5698
21.32	22.4166
21.404	22.4294
21.488	22.634
21.572	22.9418
21.656	23.1843
21.74	23.2071
21.824	22.9719
21.908	22.5907
21.992	22.2605
22.076	22.1651
22.16	22.3895
22.244	22.9082
22.328	23.6185
22.412	24.4112
22.496	25.2042
22.58	25.9437
22.664	26.5861
22.748	27.065
22.832	27.2925
22.916	27.2189
23	26.8206
23.084	26.15
23.168	25.3255
23.252	24.4557
23.336	23.6021
23.42	22.7768
23.504	21.9599
23.588	21.1214
23.672	20.2468
23.756	19.3624
23.84	18.5763
23.924	18.0211
24.008	17.8135
24.092	18.0403
24.176	18.7233
24.26	20.0116
24.344	22.2152
24.428	25.5354
24.512	29.6998
24.596	33.9837
24.68	37.3963
24.764	39.0683
24.848	38.6924
24.932	36.6193
25.016	33.679
25.1	30.5892
25.184	28.0676
25.268	26.5608
25.352	26.0672
25.436	26.1543
25.52	25.9625
25.604	24.4251
25.688	20.7385
25.772	14.7793
25.856	7.240035
25.94	-0.487607
26.024	-6.503067
26.108	-8.976175
26.192	-6.574871
26.276	1.157121
26.36	13.8101
26.444	29.4027
26.528	44.5162
26.612	54.8271
26.696	56.3389
26.78	46.7646
26.864	26.6873
26.948	-1.011753
27.028	-30.9466