File: Bakgrunnsmateriale/MATLAB/FTIR/ftir_data/LPE454/Mapping_121/LPE454_t23.asc
PE IR       SPECTRUM    SPECTRUM    ASCII       PEDS        1.60
  -1
LPCB90~1.ASC
17/05/19
16:18:31.00
17/05/19
16:18:58.00
tln
$LPE454_t0023$<tbV0>[13.0,-7.8,8.0,0.0,27,1,0]
27.028
64

2002,4.07
MIRTGS : RIGHTBACK : INTERNAL 2
MIR : ON : INTERNAL 2
OPTKBR

0.200000
8
8.000000
FILLER
RATIO
SPECTRUM
UNLOCKED 256

DOUBLE
64
COMBINED
1
0
0

0.002000
RATIO

1
0
TRUE
51149
0
LEFT NOT FITTED RIGHT NOT FITTED 0
NONE
NONE
15600
12
4.427000
51148
TRUE
1 0 8 72 0 0 0 0

15798

#HDR
-1
-1
#GR
µM
%T
2.38419e-05
0.0
2.000000
0.002000
12515
8
26.5321
-6.664502
#DATA
2.000000	 0.598549
2.084000	 0.157018
2.168000	 -0.007504
2.252000	 0.568760
2.336000	 0.093565
2.420000	 0.144771
2.504000	 -0.054949
2.588000	 0.069036
2.672000	 0.143956
2.756000	 -0.020787
2.840000	 0.075227
2.924000	 0.033955
3.008000	 0.134937
3.092000	 0.077345
3.176000	 0.010564
3.260000	 0.067802
3.344000	 0.143853
3.428000	 0.000735
3.512000	 0.034698
3.596000	 0.183791
3.680000	 0.040216
3.764000	 -0.002969
3.848000	 0.071186
3.932000	 0.110696
4.016000	 0.191721
4.100000	 -0.074404
4.184000	 0.014544
4.268000	 0.012973
4.352000	 0.056345
4.436000	 0.511626
4.520000	 1.576710
4.604000	 3.480111
4.688000	 6.466290
4.772000	 9.574352
4.856000	 12.6756
4.940000	 15.5048
5.024000	 17.7816
5.108000	 19.76
5.192000	 21.1869
5.276000	 22.2049
5.359999	 23.0613
5.444000	 23.8307
5.528000	 24.3996
5.612000	 24.7912
5.696000	 25.125
5.780000	 25.3597
5.864000	 25.7313
5.948000	 25.8424
6.032000	 26.0803
6.116000	 26.0758
6.200000	 26.2245
6.284000	 26.2235
6.368000	 26.2844
6.452000	 26.2517
6.536000	 26.3928
6.620000	 26.2919
6.704000	 26.5307
6.788000	 26.3568
6.872000	 26.2858
6.956000	 26.0614
7.040000	 26.2798
7.124000	 26.1321
7.208000	 26.0868
7.292000	 26.0657
7.376000	 26.1109
7.460000	 26.2007
7.544000	 26.0516
7.628000	 26.0475
7.712000	 26.0364
7.796000	 25.9079
7.880000	 25.7979
7.964000	 26.0528
8.048000	 25.8849
8.132000	 25.9143
8.216000	 26.0069
8.300000	 25.739
8.384000	 25.6143
8.468000	 25.7013
8.552000	 25.7811
8.635999	 25.4985
8.719999	 25.334
8.804000	 25.5014
8.888000	 25.4341
8.972000	 25.2964
9.056000	 24.9915
9.140000	 25.0092
9.224000	 25.1804
9.308000	 25.0448
9.391999	 24.8225
9.475999	 24.9748
9.560000	 24.7546
9.644000	 24.879
9.728000	 24.6557
9.812000	 24.533
9.896000	 24.3375
9.980000	 24.5632
10.064	24.6512
10.148	24.6911
10.232	24.3015
10.316	24.1093
10.4	24.0118
10.484	24.057
10.568	24.1676
10.652	24.17
10.736	23.8907
10.82	23.4785
10.904	23.419
10.988	23.6658
11.072	23.7528
11.156	23.8181
11.24	23.5349
11.324	23.4151
11.408	23.1649
11.492	22.9695
11.576	23.1478
11.66	23.1368
11.744	23.0882
11.828	23.0043
11.912	22.8863
11.996	22.9061
12.08	22.7004
12.164	22.5808
12.248	22.5669
12.332	22.5142
12.416	22.525
12.5	22.6751
12.584	22.3199
12.668	21.873
12.752	21.8838
12.836	21.8076
12.92	21.6518
13.004	21.697
13.088	21.6933
13.172	21.6651
13.256	21.7302
13.34	21.7067
13.424	21.4656
13.508	21.19
13.592	21.0659
13.676	21.0615
13.76	21.1131
13.844	21.2119
13.928	21.1834
14.012	20.9689
14.096	20.7782
14.18	20.6148
14.264	20.366
14.348	20.21
14.432	20.1414
14.516	19.9885
14.6	19.9902
14.684	20.1554
14.768	20.2366
14.852	20.2848
14.936	20.3969
15.02	20.3607
15.104	19.959
15.188	19.5753
15.272	19.5631
15.356	19.6695
15.44	19.6189
15.524	19.4047
15.608	19.1674
15.692	19.0669
15.776	19.1499
15.86	19.3174
15.944	19.392
16.028	19.3125
16.112	19.1669
16.196	18.9939
16.28	18.773
16.364	18.5313
16.448	18.3345
16.532	18.2744
16.616	18.3646
16.7	18.4537
16.784	18.4216
16.868	18.3488
16.952	18.3784
17.036	18.5082
17.12	18.6184
17.204	18.6211
17.288	18.4967
17.372	18.2478
17.456	17.9307
17.54	17.666
17.624	17.5093
17.708	17.4029
17.792	17.3192
17.876	17.3055
17.96	17.3576
18.044	17.3785
18.128	17.3099
18.212	17.2052
18.296	17.1311
18.38	17.0831
18.464	17.0353
18.548	17.0156
18.632	17.0749
18.716	17.1972
18.8	17.2922
18.884	17.2925
18.968	17.2083
19.052	17.0841
19.136	16.9452
19.22	16.8155
19.304	16.7384
19.388	16.7406
19.472	16.7738
19.556	16.737
19.64	16.5742
19.724	16.3183
19.808	16.0471
19.892	15.8065
19.976	15.5906
20.06	15.3971
20.144	15.2856
20.228	15.3537
20.312	15.6174
20.396	15.9442
20.48	16.1447
20.564	16.1375
20.648	16.0323
20.732	16.0174
20.816	16.1802
20.9	16.4249
20.984	16.5589
21.068	16.4562
21.152	16.1411
21.236	15.7607
21.32	15.4853
21.404	15.4229
21.488	15.5677
21.572	15.8001
21.656	15.9226
21.74	15.7394
21.824	15.172
21.908	14.3347
21.992	13.4798
22.076	12.867
22.16	12.6326
22.244	12.7381
22.328	13.0305
22.412	13.3549
22.496	13.6255
22.58	13.8405
22.664	14.0416
22.748	14.2644
22.832	14.4989
22.916	14.6976
23	14.7836
23.084	14.6924
23.168	14.3987
23.252	13.9423
23.336	13.4236
23.42	12.9271
23.504	12.5067
23.588	12.134
23.672	11.7166
23.756	11.172
23.84	10.5195
23.924	9.908086
24.008	9.543942
24.092	9.580309
24.176	10.0177
24.26	10.7466
24.344	11.5701
24.428	12.2816
24.512	12.7232
24.596	12.8298
24.68	12.711
24.764	12.6698
24.848	13.086
24.932	14.2752
25.016	16.2775
25.1	18.7934
25.184	21.2495
25.268	23.0388
25.352	23.7462
25.436	23.3045
25.52	22.0063
25.604	20.2898
25.688	18.5121
25.772	16.8169
25.856	15.1435
25.94	13.1991
26.024	10.6551
26.108	7.407779
26.192	3.659382
26.276	-0.125213
26.36	-3.333317
26.444	-5.507480
26.528	-6.514250
26.612	-6.649135
26.696	-6.358708
26.78	-5.997973
26.864	-5.715921
26.948	-5.585441
27.028	-5.825662