File: Bakgrunnsmateriale/MATLAB/FTIR/ftir_data/LPE454/Mapping_121/LPE454_t117_cm-1.asc
PE IR       SPECTRUM    SPECTRUM    ASCII       PEDS        1.60
  -1
LP0A58~1.ASC
17/05/20
00:15:12.00
17/05/20
00:15:12.00
tln
$LPE454_t0117$<tbV0>[-2.6,13.0,8.0,0.0,27,1,0]
370
64

2002,4.07
MIRTGS : RIGHTBACK : INTERNAL 2
MIR : ON : INTERNAL 2
OPTKBR

0.200000
8
8.000000
FILLER
RATIO
SPECTRUM
UNLOCKED 256

DOUBLE
64
COMBINED
1
0
0

1.000000
RATIO

1
0
TRUE
51149
0
LEFT NOT FITTED RIGHT NOT FITTED 0
NONE
NONE
15600
12
4.427000
51148
TRUE
1 0 8 72 0 0 0 0

15798

#HDR
-1
-1
#GR
CM-1
%T
2.38419e-05
0.0
5000
-1.000000
4631
8
45.1282
-3.170537
#DATA
5000	0.232458
4984	-0.074839
4968	-0.265192
4952	0.438356
4936	0.359225
4920	0.105047
4904	-0.039386
4888	0.324487
4872	0.689506
4856	0.284266
4840	0.153136
4824	0.125193
4808	0.170969
4792	-0.083589
4776	-0.213336
4760	0.382995
4744	0.523018
4728	0.353455
4712	0.294327
4696	0.549459
4680	0.352764
4664	0.434303
4648	0.392699
4632	-0.396299
4616	-0.565457
4600	-1.745200
4584	19.0313
4568	0.644230
4552	-1.195621
4536	-0.477194
4520	-0.496315
4504	-0.328540
4488	0.048685
4472	0.295543
4456	0.764751
4440	0.549054
4424	0.566029
4408	-0.108766
4392	0.377178
4376	0.173377
4360	-0.038313
4344	-0.152826
4328	0.211501
4312	0.061988
4296	0.152111
4280	0.225758
4264	-0.006604
4248	0.307869
4232	0.208640
4216	0.164961
4200	0.272417
4184	0.213694
4168	0.259184
4152	0.942492
4136	0.290989
4120	0.099372
4104	-0.132441
4088	0.232887
4072	0.376892
4056	0.167083
4040	0.020360
4024	0.100326
4008	0.207948
3992	0.062656
3976	0.303959
3960	-0.058126
3944	0.136399
3928	-0.032782
3912	0.008153
3896	-0.083994
3880	-0.006246
3864	0.151872
3848	0.075411
3832	0.221920
3816	0.130629
3800	0.180745
3784	0.168991
3768	0.111913
3752	0.203466
3736	0.052309
3720	0.069499
3704	0.045514
3688	0.074434
3672	0.291371
3656	-0.125885
3640	0.088453
3624	0.157904
3608	-0.062012
3592	0.114846
3576	0.191974
3560	0.167608
3544	0.070524
3528	-0.012302
3512	0.119304
3496	0.177192
3480	-0.048089
3464	0.061178
3448	-0.013542
3432	0.080657
3416	0.246357
3400	0.074768
3384	0.137019
3368	0.016617
3352	0.041818
3336	-0.113654
3320	0.084686
3304	0.031113
3288	-0.021815
3272	0.058817
3256	0.034642
3240	0.052547
3224	-0.052213
3208	-0.010180
3192	0.207614
3176	0.052881
3160	0.044345
3144	0.001311
3128	0.131511
3112	0.068831
3096	0.047087
3080	0.102496
3064	0.093770
3048	0.075292
3032	0.223612
3016	-0.003981
3000	-0.031685
2984	0.017619
2968	0.049114
2952	0.067782
2936	0.169825
2920	-0.062918
2904	0.162720
2888	0.036406
2872	0.019550
2856	0.021886
2840	0.045037
2824	-0.037217
2808	-0.006008
2792	0.052404
2776	0.030827
2760	0.051093
2744	0.043654
2728	0.114512
2712	0.040769
2696	-0.084924
2680	0.104117
2664	0.011205
2648	0.170683
2632	0.004625
2616	0.123834
2600	0.009226
2584	0.070929
2568	0.104951
2552	0.037312
2536	0.106143
2520	0.013041
2504	0.063848
2488	0.021171
2472	0.065302
2456	0.094985
2440	-0.015974
2424	0.027108
2408	0.174331
2392	0.076079
2376	0.162959
2360	0.258088
2344	0.401377
2328	0.472998
2312	0.751709
2296	0.886964
2280	1.366162
2264	1.855778
2248	2.454400
2232	3.126549
2216	4.272317
2200	5.403637
2184	6.718301
2168	8.216762
2152	9.799814
2136	11.4383
2120	13.2175
2104	14.7402
2088	16.276
2072	17.7979
2056	19.3122
2040	20.4272
2024	21.5924
2008	22.6953
1992	23.6703
1976	24.6243
1960	25.3129
1944	25.9253
1928	26.601
1912	27.2016
1896	27.6509
1880	27.9841
1864	28.4473
1848	28.9302
1832	29.1088
1816	29.3377
1800	29.7171
1784	29.968
1768	30.0255
1752	30.2439
1736	30.6507
1720	30.6351
1704	30.5695
1688	30.833
1672	31.1088
1656	31.0736
1640	31.0875
1624	31.3695
1608	31.4895
1592	31.2468
1576	31.4513
1560	31.6755
1544	31.5103
1528	31.3574
1512	31.5451
1496	31.5284
1480	31.5672
1464	31.2938
1448	31.4115
1432	31.6955
1416	31.4681
1400	31.3368
1384	31.7005
1368	31.6936
1352	31.3565
1336	31.365
1320	31.7805
1304	31.5918
1288	31.1842
1272	31.2971
1256	31.6118
1240	31.4202
1224	31.0647
1208	31.2767
1192	31.4201
1176	31.186
1160	30.9527
1144	31.1515
1128	31.204
1112	30.8437
1096	30.7876
1080	30.9252
1064	31.1849
1048	30.584
1032	30.5034
1016	30.9852
1000	30.9082
984	 30.3346
968	 30.261
952	 30.6102
936	 30.4746
920	 29.8495
904	 30.0166
888	 30.3218
872	 29.9119
856	 29.5256
840	 29.6677
824	 29.7255
808	 29.4449
792	 28.7754
776	 29.3113
760	 29.2589
744	 28.7869
728	 28.0905
712	 28.4138
696	 28.0662
680	 28.0326
664	 27.5964
648	 27.6963
632	 27.9225
616	 26.6136
600	 26.2133
584	 26.5516
568	 26.9572
552	 25.6128
536	 24.9497
520	 26.3901
504	 26.1527
488	 23.8966
472	 23.8085
456	 24.2463
440	 25.4101
424	 19.3609
408	 16.1371
392	 31.8435
376	 30.5602
370	 15.8589