File: Bakgrunnsmateriale/MATLAB/FTIR/ftir_data/LPE454/Mapping_121/LPE454_t07_cm-1.asc
PE IR       SPECTRUM    SPECTRUM    ASCII       PEDS        1.60
  -1
LP673A~1.ASC
17/05/19
14:57:01.00
17/05/19
14:57:01.00
tln
$LPE454_t0007$<tbV0>[-2.6,-13.0,8.0,0.0,27,1,0]
370
64

2002,4.07
MIRTGS : RIGHTBACK : INTERNAL 2
MIR : ON : INTERNAL 2
OPTKBR

0.200000
8
8.000000
FILLER
RATIO
SPECTRUM
UNLOCKED 256

DOUBLE
64
COMBINED
1
0
0

1.000000
RATIO

1
0
TRUE
51149
0
LEFT NOT FITTED RIGHT NOT FITTED 0
NONE
NONE
15600
12
4.427000
51148
TRUE
1 0 8 72 0 0 0 0

15798

#HDR
-1
-1
#GR
CM-1
%T
2.38419e-05
0.0
5000
-1.000000
4631
8
57.0353
-30.9466
#DATA
5000	-0.003194
4984	-0.095582
4968	0.088119
4952	0.456976
4936	0.414943
4920	0.122857
4904	-0.478768
4888	0.214576
4872	-0.352787
4856	1.246976
4840	-0.756478
4824	0.655102
4808	1.206469
4792	0.016427
4776	0.583219
4760	0.126719
4744	-0.013375
4728	0.417661
4712	0.076818
4696	-0.039410
4680	0.166368
4664	0.179696
4648	0.031805
4632	0.026011
4616	0.284361
4600	0.380015
4584	-0.194430
4568	0.057816
4552	-0.100898
4536	0.577712
4520	0.618290
4504	-0.061869
4488	0.050854
4472	0.940132
4456	0.192713
4440	-0.017237
4424	-0.092554
4408	-0.565552
4392	0.201010
4376	-0.142693
4360	0.121116
4344	0.060105
4328	0.034856
4312	0.224137
4296	-0.097608
4280	-0.127887
4264	0.136566
4248	0.094461
4232	0.161337
4216	0.454473
4200	0.107789
4184	0.331854
4168	-0.202822
4152	0.292110
4136	0.273227
4120	-0.034809
4104	-0.123310
4088	0.013041
4072	0.075101
4056	0.191092
4040	0.063514
4024	-0.010704
4008	0.096464
3992	0.006985
3976	0.149178
3960	0.075769
3944	0.198984
3928	0.024795
3912	0.058436
3896	0.076508
3880	0.195860
3864	-0.051712
3848	0.066566
3832	-0.021505
3816	0.111842
3800	0.106406
3784	-0.077772
3768	0.004506
3752	0.135540
3736	0.067615
3720	0.021672
3704	-0.011420
3688	0.000262
3672	0.078034
3656	0.027775
3640	0.063776
3624	0.045609
3608	0.135588
3592	-0.021576
3576	0.111913
3560	-0.027966
3544	0.134062
3528	0.144863
3512	0.058484
3496	-0.091791
3480	0.066781
3464	0.163173
3448	-0.058126
3432	0.005245
3416	0.226020
3400	-0.035262
3384	0.084042
3368	0.047707
3352	0.186610
3336	-0.051474
3320	0.028610
3304	0.023698
3288	0.052332
3272	0.075936
3256	0.124263
3240	0.011301
3224	0.077223
3208	0.183296
3192	0.211572
3176	0.094676
3160	-0.239968
3144	0.153279
3128	0.247764
3112	-0.174164
3096	0.023651
3080	-0.058245
3064	0.046324
3048	-0.093936
3032	0.057697
3016	0.010013
3000	-0.026655
2984	0.189542
2968	-0.037598
2952	-0.009822
2936	0.023007
2920	-0.014543
2904	-0.009298
2888	-0.065064
2872	-0.019907
2856	-0.005006
2840	0.086522
2824	0.052046
2808	0.109314
2792	0.162577
2776	0.096559
2760	0.043272
2744	0.055313
2728	-0.084042
2712	0.013685
2696	0.029063
2680	0.049948
2664	0.034070
2648	0.060606
2632	-0.038647
2616	-0.048565
2600	0.019121
2584	0.097632
2568	0.043344
2552	0.045323
2536	-0.015068
2520	-0.008893
2504	0.041508
2488	0.091075
2472	-0.035166
2456	-0.114178
2440	-0.044655
2424	0.397849
2408	0.095295
2392	0.042343
2376	0.060510
2360	0.086450
2344	0.165271
2328	0.371789
2312	0.395321
2296	0.609445
2280	0.928211
2264	1.190423
2248	1.679468
2232	2.249836
2216	3.166842
2200	4.230260
2184	5.162668
2168	6.565165
2152	8.217763
2136	9.512233
2120	11.0917
2104	12.7765
2088	14.3437
2072	16.0899
2056	17.2416
2040	18.5798
2024	19.9029
2008	20.967
1992	22.064
1976	22.8513
1960	23.7465
1944	24.3791
1928	25.0141
1912	25.8549
1896	26.1051
1880	26.3541
1864	26.8147
1848	27.2997
1832	27.2951
1816	27.6807
1800	27.938
1784	28.0009
1768	28.0591
1752	28.3357
1736	28.4155
1720	28.3714
1704	28.4064
1688	28.7846
1672	28.5042
1656	28.697
1640	28.8732
1624	28.901
1608	28.8144
1592	28.7718
1576	29.0184
1560	29.1527
1544	29.1413
1528	28.9202
1512	29.1581
1496	29.0983
1480	29.0079
1464	29.1389
1448	29.0429
1432	29.0912
1416	29.2616
1400	29.2192
1384	29.3371
1368	29.1992
1352	29.1517
1336	29.4085
1320	29.3971
1304	29.218
1288	29.3303
1272	29.4097
1256	29.3843
1240	29.2802
1224	29.647
1208	29.5954
1192	29.433
1176	29.4183
1160	29.3879
1144	29.5399
1128	29.3371
1112	29.2677
1096	28.9907
1080	29.3471
1064	29.1216
1048	29.396
1032	29.5012
1016	29.324
1000	28.9926
984	 29.6611
968	 29.5202
952	 29.2048
936	 28.7769
920	 29.2253
904	 28.9558
888	 28.6688
872	 28.5026
856	 28.8582
840	 29.0121
824	 28.2072
808	 28.569
792	 28.6061
776	 27.7794
760	 27.676
744	 28.1069
728	 28.0441
712	 27.3559
696	 26.8426
680	 27.4362
664	 27.2
648	 25.85
632	 26.1789
616	 26.5873
600	 25.8978
584	 24.8968
568	 25.1931
552	 25.1417
536	 24.8524
520	 23.3476
504	 23.3003
488	 23.809
472	 22.7022
456	 22.4913
440	 26.9678
424	 21.1529
408	 29.5871
392	 26.0411
376	 53.4559
370	 -30.9466