File: Bakgrunnsmateriale/MATLAB/FTIR/ftir_data/LPE454/Mapping_121/LPE454_t108_cm-1.asc
PE IR       SPECTRUM    SPECTRUM    ASCII       PEDS        1.60
  -1
LP0BDC~1.ASC
17/05/19
23:13:01.00
17/05/19
23:13:01.00
tln
$LPE454_t0108$<tbV0>[-7.8,10.4,8.0,0.0,27,1,0]
370
64

2002,4.07
MIRTGS : RIGHTBACK : INTERNAL 2
MIR : ON : INTERNAL 2
OPTKBR

0.200000
8
8.000000
FILLER
RATIO
SPECTRUM
UNLOCKED 256

DOUBLE
64
COMBINED
1
0
0

1.000000
RATIO

1
0
TRUE
51149
0
LEFT NOT FITTED RIGHT NOT FITTED 0
NONE
NONE
15600
12
4.427000
51148
TRUE
1 0 8 72 0 0 0 0

15798

#HDR
-1
-1
#GR
CM-1
%T
2.38419e-05
0.0
5000
-1.000000
4631
8
40.1222
-2.060389
#DATA
5000	0.046753
4984	-0.130867
4968	0.289773
4952	0.312018
4936	-0.027370
4920	0.026607
4904	0.334453
4888	-0.026988
4872	-0.257658
4856	0.017046
4840	0.190782
4824	0.067782
4808	0.143480
4792	0.327730
4776	0.297927
4760	0.200533
4744	0.210499
4728	0.213980
4712	-0.085926
4696	0.457477
4680	0.678348
4664	0.015735
4648	0.347304
4632	-0.020670
4616	-0.563406
4600	-1.556587
4584	1.913475
4568	2.345871
4552	0.803112
4536	1.189255
4520	0.766730
4504	0.158524
4488	0.407075
4472	-0.027704
4456	0.051021
4440	0.035095
4424	-0.167989
4408	0.140428
4392	0.211524
4376	-0.029969
4360	0.304222
4344	0.062823
4328	0.243520
4312	0.139212
4296	0.177383
4280	-0.231623
4264	-0.002694
4248	0.268816
4232	0.022935
4216	0.055599
4200	0.358939
4184	0.113272
4168	-0.094699
4152	-0.003743
4136	-0.136017
4120	0.533342
4104	0.520229
4088	1.921105
4072	-0.364732
4056	0.164723
4040	0.108981
4024	-0.135493
4008	0.208187
3992	-0.302624
3976	0.088810
3960	-0.026059
3944	0.004649
3928	-0.032019
3912	0.008368
3896	0.091648
3880	0.124907
3864	0.137233
3848	0.059080
3832	0.086593
3816	-0.064635
3800	-0.039863
3784	0.137996
3768	0.080728
3752	-0.043606
3736	0.116133
3720	-0.003266
3704	-0.046229
3688	0.024747
3672	0.055122
3656	-0.027036
3640	0.174999
3624	0.000143
3608	-0.134873
3592	0.102519
3576	-0.003504
3560	0.027084
3544	0.247836
3528	-0.169992
3512	0.027441
3496	-0.092291
3480	0.132083
3464	0.018405
3448	0.092196
3432	0.058436
3416	-0.022506
3400	0.095176
3384	0.129032
3368	-0.011205
3352	-0.003862
3336	-0.031733
3320	-0.048065
3304	0.013232
3288	-0.032186
3272	-0.050830
3256	0.073909
3240	-0.031852
3224	-0.016450
3208	-0.155138
3192	0.042033
3176	0.105667
3160	0.096392
3144	-0.009202
3128	0.158786
3112	0.041460
3096	0.041222
3080	0.125980
3064	0.060081
3048	0.009369
3032	-0.086092
3016	0.030517
3000	0.136780
2984	0.005054
2968	0.131058
2952	-0.020194
2936	-0.011420
2920	-0.053977
2904	0.118875
2888	-0.078511
2872	0.043344
2856	0.005960
2840	0.059795
2824	0.116729
2808	-0.072908
2792	0.007462
2776	-0.033545
2760	0.015020
2744	0.028395
2728	-0.051927
2712	-0.076723
2696	0.064969
2680	0.068545
2664	0.129437
2648	0.023484
2632	0.079727
2616	-0.045204
2600	0.026774
2584	-0.084710
2568	0.049257
2552	-0.059151
2536	0.002956
2520	0.030970
2504	-0.067663
2488	-0.023722
2472	0.029134
2456	0.151705
2440	0.133275
2424	-0.116682
2408	0.047302
2392	0.236177
2376	0.241780
2360	0.395774
2344	0.485038
2328	0.751209
2312	1.137089
2296	1.404571
2280	2.065467
2264	2.528786
2248	3.485679
2232	4.344320
2216	5.575752
2200	6.882905
2184	8.386993
2168	10.0426
2152	11.7778
2136	13.742
2120	15.329
2104	17.1484
2088	18.8944
2072	20.3699
2056	21.8267
2040	23.1044
2024	24.4047
2008	25.4142
1992	26.07
1976	27.0274
1960	27.7979
1944	28.3683
1928	28.5897
1912	29.1187
1896	29.7125
1880	29.8559
1864	29.879
1848	30.2011
1832	30.6245
1816	30.6727
1800	30.3625
1784	30.7703
1768	31.1333
1752	30.9267
1736	30.7289
1720	30.9333
1704	31.3202
1688	31.1329
1672	30.7951
1656	30.8957
1640	31.2965
1624	31.1754
1608	30.7278
1592	30.8729
1576	31.27
1560	31.1849
1544	30.6888
1528	30.769
1512	31.219
1496	31.1189
1480	30.6239
1464	30.6104
1448	30.93
1432	30.99
1416	30.6468
1400	30.3352
1384	30.8417
1368	30.82
1352	30.4586
1336	30.0489
1320	30.6823
1304	30.8416
1288	30.382
1272	29.9354
1256	30.2633
1240	30.6407
1224	30.1419
1208	29.5952
1192	29.8152
1176	30.3176
1160	30.0326
1144	29.4019
1128	29.24
1112	29.806
1096	29.801
1080	29.0905
1064	28.9186
1048	29.5575
1032	29.5068
1016	28.7611
1000	28.3755
984	 29.0691
968	 29.0689
952	 28.5053
936	 27.7621
920	 28.0614
904	 28.4398
888	 27.8019
872	 27.1472
856	 27.1793
840	 27.4981
824	 27.4
808	 26.2895
792	 26.0178
776	 26.747
760	 26.3976
744	 25.2082
728	 25.1317
712	 25.598
696	 25.8076
680	 24.617
664	 23.732
648	 24.348
632	 24.0877
616	 22.9766
600	 22.1033
584	 22.8362
568	 22.6896
552	 21.3488
536	 21.8328
520	 21.6672
504	 20.2082
488	 19.442
472	 19.5068
456	 17.7333
440	 19.9585
424	 14.8007
408	 9.414911
392	 20.2844
376	 21.6081
370	 38.7368