File: Bakgrunnsmateriale/MATLAB/FTIR/ftir_data/LPE454/Mapping_121/LPE454_e122.asc
PE IR       SPECTRUM    SPECTRUM    ASCII       PEDS        1.60
  -1
LPE454~2.ASC
17/05/19
14:23:25.00
17/05/19
14:23:52.00
tln
$LPE454_e0122$<ebV0>[-23.3,12.1,10.0,0.0,27,1,0]
27.028
64

2002,4.07
MIRTGS : RIGHTBACK : INTERNAL 2
MIR : ON : INTERNAL 2
OPTKBR

0.200000
8
8.000000
FILLER
SINGLE
SPECTRUM
UNLOCKED 256

DOUBLE

COMBINED
1
0
0

0.002000
BACKG

1
0
TRUE
51149
0
LEFT NOT FITTED RIGHT NOT FITTED 0
NONE
NONE
15600
12
4.427000
51148
TRUE
1 0 8 72 0 0 0 0

15798

#HDR
-1
-1
#GR
µM
EGY
2.38419e-05
0.0
2.000000
0.002000
12515
8
2.423288
0.004696
#DATA
2.000000	 0.765895
2.084000	 0.864455
2.168000	 0.923852
2.252000	 1.036978
2.336000	 1.131558
2.420000	 1.229154
2.504000	 1.387150
2.588000	 1.438593
2.672000	 1.529963
2.756000	 1.557927
2.840000	 1.612624
2.924000	 1.577123
3.008000	 1.671041
3.092000	 1.765615
3.176000	 1.797937
3.260000	 1.912898
3.344000	 2.010181
3.428000	 1.824517
3.512000	 1.992171
3.596000	 2.193182
3.680000	 2.233470
3.764000	 2.200836
3.848000	 2.202542
3.932000	 2.270802
4.016000	 2.300587
4.100000	 2.270452
4.184000	 2.227770
4.268000	 2.235573
4.352000	 2.313910
4.436000	 2.352180
4.520000	 2.342103
4.604000	 2.310430
4.688000	 2.302764
4.772000	 2.307450
4.856000	 2.351992
4.940000	 2.408656
5.024000	 2.423001
5.108000	 2.399074
5.192000	 2.369103
5.276000	 2.335551
5.359999	 2.343301
5.444000	 2.364739
5.528000	 2.388557
5.612000	 2.387713
5.696000	 2.356045
5.780000	 2.282399
5.864000	 2.241490
5.948000	 2.194732
6.032000	 2.147413
6.116000	 2.098108
6.200000	 1.972503
6.284000	 1.984422
6.368000	 1.941582
6.452000	 1.920509
6.536000	 2.059225
6.620000	 2.039299
6.704000	 1.660702
6.788000	 1.939639
6.872000	 1.758945
6.956000	 1.834096
7.040000	 1.828262
7.124000	 1.701264
7.208000	 1.759907
7.292000	 1.788695
7.376000	 1.789387
7.460000	 1.786557
7.544000	 1.823923
7.628000	 1.827804
7.712000	 1.829732
7.796000	 1.825460
7.880000	 1.751982
7.964000	 1.737187
8.048000	 1.810145
8.132000	 1.802556
8.216000	 1.761817
8.300000	 1.722437
8.384000	 1.719937
8.468000	 1.693456
8.552000	 1.655516
8.635999	 1.604712
8.719999	 1.584736
8.804000	 1.557001
8.888000	 1.508773
8.972000	 1.451255
9.056000	 1.413603
9.140000	 1.407067
9.224000	 1.412602
9.308000	 1.414345
9.391999	 1.421150
9.475999	 1.344472
9.560000	 1.312822
9.644000	 1.369186
9.728000	 1.354408
9.812000	 1.346583
9.896000	 1.366040
9.980000	 1.381106
10.064	1.381386
10.148	1.367467
10.232	1.353217
10.316	1.331039
10.4	1.305555
10.484	1.281600
10.568	1.259081
10.652	1.243900
10.736	1.227887
10.82	1.211445
10.904	1.195164
10.988	1.166348
11.072	1.146455
11.156	1.134356
11.24	1.116653
11.324	1.067856
11.408	1.020551
11.492	1.034755
11.576	1.072056
11.66	1.082132
11.744	1.075610
11.828	1.066827
11.912	1.044562
11.996	0.979276
12.08	0.869682
12.164	0.841465
12.248	0.902600
12.332	0.933072
12.416	0.934623
12.5	0.932955
12.584	0.941244
12.668	0.957137
12.752	0.968593
12.836	0.970177
12.92	0.965420
13.004	0.959891
13.088	0.955212
13.172	0.950416
13.256	0.947021
13.34	0.941631
13.424	0.934282
13.508	0.925892
13.592	0.914107
13.676	0.901180
13.76	0.889005
13.844	0.876832
13.928	0.865164
14.012	0.853706
14.096	0.840544
14.18	0.826381
14.264	0.810851
14.348	0.790071
14.432	0.760310
14.516	0.731047
14.6	0.719952
14.684	0.723110
14.768	0.723862
14.852	0.719185
14.936	0.712469
15.02	0.704230
15.104	0.694966
15.188	0.686059
15.272	0.677327
15.356	0.667654
15.44	0.657286
15.524	0.647897
15.608	0.640002
15.692	0.632137
15.776	0.623268
15.86	0.614368
15.944	0.606068
16.028	0.597456
16.112	0.587442
16.196	0.575333
16.28	0.561142
16.364	0.545581
16.448	0.530981
16.532	0.521233
16.616	0.517977
16.7	0.517779
16.784	0.516422
16.868	0.513098
16.952	0.508924
17.036	0.504697
17.12	0.501020
17.204	0.498159
17.288	0.495831
17.372	0.493584
17.456	0.491272
17.54	0.488808
17.624	0.485721
17.708	0.481799
17.792	0.477236
17.876	0.472460
17.96	0.467798
18.044	0.463572
18.128	0.459922
18.212	0.456662
18.296	0.453121
18.38	0.448563
18.464	0.442919
18.548	0.436841
18.632	0.431198
18.716	0.426073
18.8	0.421233
18.884	0.416392
18.968	0.411510
19.052	0.406579
19.136	0.401614
19.22	0.396299
19.304	0.390623
19.388	0.384908
19.472	0.379571
19.556	0.374828
19.64	0.370328
19.724	0.365391
19.808	0.359531
19.892	0.352617
19.976	0.344913
20.06	0.336739
20.144	0.328513
20.228	0.320666
20.312	0.313509
20.396	0.306950
20.48	0.300598
20.564	0.293965
20.648	0.286915
20.732	0.279742
20.816	0.272907
20.9	0.266561
20.984	0.260575
21.068	0.254684
21.152	0.248600
21.236	0.242343
21.32	0.236038
21.404	0.229802
21.488	0.223751
21.572	0.217967
21.656	0.212353
21.74	0.206987
21.824	0.201664
21.908	0.196374
21.992	0.190899
22.076	0.185113
22.16	0.179157
22.244	0.173303
22.328	0.167978
22.412	0.163365
22.496	0.159366
22.58	0.155590
22.664	0.151334
22.748	0.146282
22.832	0.140504
22.916	0.134432
23	0.128570
23.084	0.123350
23.168	0.118772
23.252	0.114603
23.336	0.110485
23.42	0.106149
23.504	0.101684
23.588	0.097260
23.672	0.093236
23.756	0.089692
23.84	0.086530
23.924	0.083328
24.008	0.079676
24.092	0.075193
24.176	0.069816
24.26	0.063770
24.344	0.057572
24.428	0.051656
24.512	0.046561
24.596	0.042521
24.68	0.039667
24.764	0.037860
24.848	0.036890
24.932	0.036472
25.016	0.036260
25.1	0.036078
25.184	0.035676
25.268	0.034922
25.352	0.033736
25.436	0.032107
25.52	0.030075
25.604	0.027785
25.688	0.025380
25.772	0.023039
25.856	0.020903
25.94	0.019068
26.024	0.017544
26.108	0.016282
26.192	0.015254
26.276	0.014253
26.36	0.013311
26.444	0.012258
26.528	0.011119
26.612	0.009917
26.696	0.008692
26.78	0.007498
26.864	0.006368
26.948	0.005403
27.028	0.004696