File: Bakgrunnsmateriale/MATLAB/FTIR/ftir_data/LPE454/Mapping_121/LPE454_t13_cm-1.asc
PE IR       SPECTRUM    SPECTRUM    ASCII       PEDS        1.60
  -1
LPD730~1.ASC
17/05/19
15:25:18.00
17/05/19
15:25:18.00
tln
$LPE454_t0013$<tbV0>[10.4,-10.4,8.0,0.0,27,1,0]
370
64

2002,4.07
MIRTGS : RIGHTBACK : INTERNAL 2
MIR : ON : INTERNAL 2
OPTKBR

0.200000
8
8.000000
FILLER
RATIO
SPECTRUM
UNLOCKED 256

DOUBLE
64
COMBINED
1
0
0

1.000000
RATIO

1
0
TRUE
51149
0
LEFT NOT FITTED RIGHT NOT FITTED 0
NONE
NONE
15600
12
4.427000
51148
TRUE
1 0 8 72 0 0 0 0

15798

#HDR
-1
-1
#GR
CM-1
%T
2.38419e-05
0.0
5000
-1.000000
4631
8
121.224
-3.732895
#DATA
5000	0.424432
4984	0.037622
4968	0.088334
4952	0.589060
4936	0.227618
4920	0.285625
4904	0.341486
4888	0.446557
4872	0.389766
4856	0.315380
4840	0.100588
4824	0.416707
4808	-0.183033
4792	0.007200
4776	-0.674533
4760	1.378202
4744	1.178526
4728	0.605678
4712	0.377154
4696	0.106406
4680	-0.211119
4664	0.080728
4648	0.219106
4632	0.787425
4616	0.271582
4600	0.218677
4584	0.045275
4568	0.371789
4552	0.248742
4536	-0.474858
4520	-1.027131
4504	-1.495385
4488	4.152584
4472	12.5233
4456	1.613044
4440	-0.861501
4424	-0.407123
4408	0.200986
4392	0.186705
4376	0.140762
4360	0.718522
4344	0.392794
4328	0.410866
4312	0.012493
4296	0.253367
4280	0.435495
4264	-0.086760
4248	0.105357
4232	-0.081729
4216	-0.166177
4200	0.209856
4184	0.102400
4168	0.276780
4152	0.151181
4136	0.151753
4120	0.202798
4104	-0.052022
4088	0.084543
4072	0.013232
4056	0.081443
4040	-0.086498
4024	-0.011038
4008	-0.235486
3992	-0.023603
3976	0.135421
3960	0.057911
3944	0.211524
3928	0.052952
3912	0.092458
3896	0.136947
3880	0.227046
3864	0.013351
3848	-0.002145
3832	0.229668
3816	-0.034236
3800	0.195145
3784	0.038051
3768	0.032734
3752	-0.052857
3736	0.081467
3720	0.121712
3704	0.128364
3688	0.219821
3672	0.119900
3656	0.007605
3640	0.093150
3624	0.012898
3608	-0.010013
3592	0.178837
3576	0.144910
3560	-0.020766
3544	0.134110
3528	0.046038
3512	-0.037002
3496	0.116753
3480	0.060939
3464	-0.024843
3448	0.097393
3432	0.064706
3416	-0.027418
3400	-0.023555
3384	0.187635
3368	-0.141215
3352	0.155711
3336	0.049209
3320	0.134181
3304	-0.039720
3288	0.138640
3272	0.076556
3256	0.002980
3240	0.163745
3224	0.168871
3208	0.100159
3192	0.191664
3176	0.079751
3160	-0.015735
3144	0.005865
3128	0.063133
3112	0.046777
3096	0.027441
3080	0.039529
3064	-0.062298
3048	0.160479
3032	-0.035071
3016	0.014472
3000	0.048708
2984	0.098466
2968	0.069355
2952	-0.017929
2936	0.072741
2920	-0.032377
2904	0.120139
2888	-0.152564
2872	-0.040102
2856	0.028681
2840	-0.000977
2824	0.023484
2808	0.075554
2792	0.047802
2776	0.071692
2760	0.111031
2744	-0.054860
2728	0.039625
2712	0.010728
2696	0.010919
2680	0.073385
2664	0.038266
2648	0.102210
2632	-0.102806
2616	-0.015664
2600	0.010156
2584	0.032234
2568	0.043392
2552	-0.053882
2536	0.072908
2520	-0.085449
2504	0.115776
2488	0.093054
2472	-0.077772
2456	0.160646
2440	-0.022888
2424	-0.268435
2408	-0.158953
2392	0.041675
2376	0.153970
2360	0.070714
2344	-0.009846
2328	0.175166
2312	0.356340
2296	0.335693
2280	0.671434
2264	1.132273
2248	1.528620
2232	2.182912
2216	2.996230
2200	4.069280
2184	5.067205
2168	6.562280
2152	8.196353
2136	9.683299
2120	11.3812
2104	13.1919
2088	14.9153
2072	16.7264
2056	18.3084
2040	19.5689
2024	21.117
2008	22.194
1992	23.4141
1976	24.3984
1960	25.2838
1944	26.1964
1928	26.7956
1912	27.5262
1896	28.0488
1880	28.5362
1864	29.0687
1848	29.5151
1832	29.9551
1816	30.1792
1800	30.4098
1784	30.6776
1768	30.8624
1752	30.9976
1736	31.3328
1720	31.15
1704	31.5031
1688	31.4692
1672	31.3971
1656	31.7135
1640	31.6904
1624	31.6989
1608	31.7096
1592	31.5596
1576	31.6937
1560	31.7581
1544	31.8671
1528	31.7682
1512	31.6913
1496	31.5403
1480	31.5398
1464	31.5521
1448	31.5083
1432	31.6089
1416	31.5848
1400	31.4965
1384	31.5479
1368	31.4112
1352	31.3807
1336	31.3983
1320	31.4566
1304	31.2174
1288	31.2248
1272	31.3863
1256	31.1247
1240	31.1497
1224	31.1528
1208	31.1189
1192	30.952
1176	30.9247
1160	31.0222
1144	30.9023
1128	30.6962
1112	30.6749
1096	30.4108
1080	30.4296
1064	30.3555
1048	30.1095
1032	30.0978
1016	29.6634
1000	29.9022
984	 29.8513
968	 29.5584
952	 29.298
936	 29.4705
920	 29.1168
904	 29.0318
888	 28.9768
872	 28.6773
856	 28.2425
840	 28.5338
824	 27.9643
808	 27.9239
792	 27.2186
776	 27.2968
760	 26.6207
744	 26.8926
728	 26.6273
712	 26.2308
696	 25.6388
680	 25.5062
664	 25.6323
648	 24.9724
632	 24.3927
616	 24.5975
600	 23.7596
584	 23.418
568	 23.0826
552	 23.1763
536	 22.5481
520	 21.8369
504	 22.1108
488	 20.9503
472	 20.2868
456	 18.2967
440	 19.1451
424	 20.7382
408	 25.0413
392	 -3.568387
376	 3.992652
370	 121.224