File: Bakgrunnsmateriale/MATLAB/FTIR/ftir_data/LPE454/Mapping_121/LPE454_t115.asc
PE IR       SPECTRUM    SPECTRUM    ASCII       PEDS        1.60
  -1
LP970E~1.ASC
17/05/19
23:51:31.00
17/05/19
23:51:57.00
tln
$LPE454_t0115$<tbV0>[2.6,13.0,8.0,0.0,27,1,0]
27.028
64

2002,4.07
MIRTGS : RIGHTBACK : INTERNAL 2
MIR : ON : INTERNAL 2
OPTKBR

0.200000
8
8.000000
FILLER
RATIO
SPECTRUM
UNLOCKED 256

DOUBLE
64
COMBINED
1
0
0

0.002000
RATIO

1
0
TRUE
51149
0
LEFT NOT FITTED RIGHT NOT FITTED 0
NONE
NONE
15600
12
4.427000
51148
TRUE
1 0 8 72 0 0 0 0

15798

#HDR
-1
-1
#GR
µM
%T
2.38419e-05
0.0
2.000000
0.002000
12515
8
36.5905
-12.6168
#DATA
2.000000	 -0.156950
2.084000	 0.345617
2.168000	 -0.494989
2.252000	 0.291274
2.336000	 -0.172994
2.420000	 -0.298809
2.504000	 0.088826
2.588000	 0.085247
2.672000	 -0.021052
2.756000	 -0.113512
2.840000	 0.113122
2.924000	 0.112130
3.008000	 -0.083635
3.092000	 0.118455
3.176000	 -0.008990
3.260000	 -0.024647
3.344000	 0.008315
3.428000	 -0.002524
3.512000	 0.023045
3.596000	 0.056715
3.680000	 0.080714
3.764000	 0.002082
3.848000	 0.058607
3.932000	 0.064021
4.016000	 0.091930
4.100000	 0.064881
4.184000	 0.274644
4.268000	 0.554360
4.352000	 1.354334
4.436000	 3.120579
4.520000	 6.123368
4.604000	 10.1507
4.688000	 14.9933
4.772000	 19.4536
4.856000	 23.4108
4.940000	 26.6841
5.024000	 29.1204
5.108000	 31.033
5.192000	 32.5387
5.276000	 33.5801
5.359999	 34.4098
5.444000	 35.0862
5.528000	 35.3602
5.612000	 35.8879
5.696000	 35.8842
5.780000	 36.251
5.864000	 36.1263
5.948000	 36.2713
6.032000	 36.52
6.116000	 36.2625
6.200000	 36.4239
6.284000	 36.5393
6.368000	 36.181
6.452000	 36.1406
6.536000	 36.5605
6.620000	 36.1852
6.704000	 36.225
6.788000	 36.4807
6.872000	 36.2558
6.956000	 35.9332
7.040000	 36.2063
7.124000	 36.2254
7.208000	 36.0869
7.292000	 35.9052
7.376000	 35.9261
7.460000	 36.3626
7.544000	 35.9406
7.628000	 35.5898
7.712000	 35.7628
7.796000	 36.0557
7.880000	 36.0053
7.964000	 35.7725
8.048000	 35.4645
8.132000	 35.528
8.216000	 35.9159
8.300000	 35.9224
8.384000	 35.6017
8.468000	 35.3864
8.552000	 35.2428
8.635999	 35.464
8.719999	 35.5979
8.804000	 35.5945
8.888000	 35.2388
8.972000	 34.9953
9.056000	 34.9735
9.140000	 35.0919
9.224000	 35.5913
9.308000	 35.4419
9.391999	 35.1426
9.475999	 34.7229
9.560000	 34.5857
9.644000	 34.6864
9.728000	 34.8934
9.812000	 35.1961
9.896000	 35.0315
9.980000	 34.8547
10.064	34.3891
10.148	34.4105
10.232	34.3472
10.316	34.3039
10.4	34.596
10.484	34.7966
10.568	34.8162
10.652	34.5451
10.736	34.2714
10.82	34.0848
10.904	33.987
10.988	33.8244
11.072	33.9735
11.156	34.097
11.24	34.2434
11.324	34.3488
11.408	34.215
11.492	33.7948
11.576	33.7078
11.66	33.7401
11.744	33.5319
11.828	33.2123
11.912	33.181
11.996	33.3649
12.08	33.6929
12.164	33.7684
12.248	33.8092
12.332	33.7546
12.416	33.5327
12.5	33.2368
12.584	32.8711
12.668	32.5944
12.752	32.4745
12.836	32.5636
12.92	32.545
13.004	32.6295
13.088	32.6761
13.172	32.5667
13.256	32.6231
13.34	32.9114
13.424	32.9588
13.508	32.6129
13.592	32.3785
13.676	32.0671
13.76	31.8058
13.844	31.6834
13.928	31.5766
14.012	31.5665
14.096	31.6531
14.18	31.6934
14.264	31.6718
14.348	31.6198
14.432	31.8006
14.516	32.1923
14.6	32.3909
14.684	32.3641
14.768	32.2195
14.852	32.0953
14.936	32.0644
15.02	31.9552
15.104	31.6371
15.188	31.1329
15.272	30.6764
15.356	30.5303
15.44	30.6579
15.524	30.8242
15.608	30.8598
15.692	30.7902
15.776	30.7578
15.86	30.8224
15.944	30.9465
16.028	31.0891
16.112	31.1509
16.196	31.0176
16.28	30.7687
16.364	30.5731
16.448	30.4095
16.532	30.2408
16.616	30.1778
16.7	30.2145
16.784	30.1614
16.868	29.951
16.952	29.72
17.036	29.5662
17.12	29.4545
17.204	29.3613
17.288	29.3399
17.372	29.438
17.456	29.6267
17.54	29.8253
17.624	29.9544
17.708	29.9748
17.792	29.9024
17.876	29.8124
17.96	29.8278
18.044	30.0222
18.128	30.2774
18.212	30.3311
18.296	30.0353
18.38	29.5195
18.464	29.0495
18.548	28.7593
18.632	28.5532
18.716	28.2551
18.8	27.8002
18.884	27.2993
18.968	26.9503
19.052	26.8934
19.136	27.1205
19.22	27.4889
19.304	27.8443
19.388	28.1258
19.472	28.3572
19.556	28.5372
19.64	28.5831
19.724	28.4261
19.808	28.1396
19.892	27.9278
19.976	27.9442
20.06	28.1213
20.144	28.2208
20.228	28.0558
20.312	27.6937
20.396	27.3977
20.48	27.3884
20.564	27.625
20.648	27.8186
20.732	27.668
20.816	27.1065
20.9	26.3633
20.984	25.8
21.068	25.6726
21.152	25.984
21.236	26.5001
21.32	26.8665
21.404	26.7709
21.488	26.085
21.572	24.9314
21.656	23.6509
21.74	22.6638
21.824	22.2783
21.908	22.539
21.992	23.2356
22.076	24.0414
22.16	24.6823
22.244	25.0551
22.328	25.207
22.412	25.2337
22.496	25.2133
22.58	25.1757
22.664	25.1302
22.748	25.093
22.832	25.0732
22.916	25.0408
23	24.9539
23.084	24.7886
23.168	24.5873
23.252	24.4602
23.336	24.5365
23.42	24.8644
23.504	25.3891
23.588	25.9659
23.672	26.445
23.756	26.7623
23.84	26.9805
23.924	27.2385
24.008	27.6223
24.092	28.0631
24.176	28.3472
24.26	28.2082
24.344	27.4418
24.428	26.0272
24.512	24.1431
24.596	22.0589
24.68	20.1018
24.764	18.6085
24.848	17.8094
24.932	17.8386
25.016	18.6727
25.1	20.071
25.184	21.7104
25.268	23.2752
25.352	24.4807
25.436	25.1349
25.52	25.2449
25.604	25.0287
25.688	24.809
25.772	24.8962
25.856	25.4618
25.94	26.4866
26.024	27.7075
26.108	28.6705
26.192	28.8571
26.276	27.835
26.36	25.3218
26.444	21.558
26.528	17.1666
26.612	12.9514
26.696	9.280311
26.78	5.829936
26.864	1.560697
26.948	-4.636907
27.028	-12.6168