File: Bakgrunnsmateriale/MATLAB/FTIR/ftir_data/LPE454/Mapping_121/LPE454_t121.asc
PE IR       SPECTRUM    SPECTRUM    ASCII       PEDS        1.60
  -1
LP97F3~1.ASC
17/05/20
00:33:39.00
17/05/20
00:34:05.00
tln
$LPE454_t0121$<tbV0>[-13.0,13.0,8.0,0.0,27,1,0]
27.028
64

2002,4.07
MIRTGS : RIGHTBACK : INTERNAL 2
MIR : ON : INTERNAL 2
OPTKBR

0.200000
8
8.000000
FILLER
RATIO
SPECTRUM
UNLOCKED 256

DOUBLE
64
COMBINED
1
0
0

0.002000
RATIO

1
0
TRUE
51149
0
LEFT NOT FITTED RIGHT NOT FITTED 0
NONE
NONE
15600
12
4.427000
51148
TRUE
1 0 8 72 0 0 0 0

15798

#HDR
-1
-1
#GR
µM
%T
2.38419e-05
0.0
2.000000
0.002000
12515
8
45.6232
-3.460279
#DATA
2.000000	 0.707340
2.084000	 0.135660
2.168000	 -0.747017
2.252000	 0.414980
2.336000	 0.451025
2.420000	 1.503167
2.504000	 0.180065
2.588000	 0.175995
2.672000	 0.087659
2.756000	 0.058344
2.840000	 0.104873
2.924000	 0.088661
3.008000	 0.012169
3.092000	 -0.026684
3.176000	 -0.094638
3.260000	 0.031892
3.344000	 -0.029008
3.428000	 0.015101
3.512000	 0.120289
3.596000	 0.058527
3.680000	 0.106905
3.764000	 0.100621
3.848000	 0.007557
3.932000	 -0.067902
4.016000	 0.115115
4.100000	 0.095499
4.184000	 0.086372
4.268000	 0.214348
4.352000	 0.607213
4.436000	 1.655248
4.520000	 3.643478
4.604000	 6.565751
4.688000	 10.2266
4.772000	 13.9349
4.856000	 17.2545
4.940000	 19.8722
5.024000	 22.0463
5.108000	 23.6323
5.192000	 24.9243
5.276000	 25.6247
5.359999	 26.2531
5.444000	 26.8137
5.528000	 27.1303
5.612000	 27.2292
5.696000	 27.5915
5.780000	 27.6606
5.864000	 27.8209
5.948000	 27.8401
6.032000	 27.869
6.116000	 27.9888
6.200000	 27.8373
6.284000	 28.1715
6.368000	 28.1683
6.452000	 27.8208
6.536000	 28.1584
6.620000	 28.102
6.704000	 28.0185
6.788000	 28.2244
6.872000	 28.0514
6.956000	 27.8474
7.040000	 28.162
7.124000	 28.1924
7.208000	 28.0863
7.292000	 28.0127
7.376000	 28.2223
7.460000	 28.3025
7.544000	 28.1414
7.628000	 28.1251
7.712000	 28.3049
7.796000	 28.3552
7.880000	 28.0691
7.964000	 28.0254
8.048000	 28.2688
8.132000	 28.3743
8.216000	 28.0667
8.300000	 28.0637
8.384000	 27.9632
8.468000	 28.2311
8.552000	 28.2499
8.635999	 28.1264
8.719999	 27.8314
8.804000	 27.8497
8.888000	 27.8673
8.972000	 28.007
9.056000	 28.0428
9.140000	 27.7947
9.224000	 27.5186
9.308000	 27.5481
9.391999	 27.5839
9.475999	 27.8735
9.560000	 27.5662
9.644000	 27.5833
9.728000	 27.244
9.812000	 27.0783
9.896000	 26.9505
9.980000	 27.3282
10.064	27.3421
10.148	27.377
10.232	27.2688
10.316	26.9336
10.4	26.7347
10.484	26.6506
10.568	26.8204
10.652	26.8111
10.736	26.7129
10.82	26.7736
10.904	26.5221
10.988	26.2275
11.072	26.3449
11.156	26.1
11.24	26.0323
11.324	25.9852
11.408	26.0808
11.492	25.9143
11.576	25.9325
11.66	26.0785
11.744	25.8877
11.828	25.5278
11.912	25.2619
11.996	25.1569
12.08	25.2036
12.164	24.9456
12.248	25.2348
12.332	25.3089
12.416	25.1051
12.5	25.0875
12.584	25.1817
12.668	24.9616
12.752	24.5426
12.836	24.3611
12.92	24.1925
13.004	24.1996
13.088	24.2921
13.172	24.4618
13.256	24.5669
13.34	24.4124
13.424	24.5075
13.508	24.5343
13.592	24.2664
13.676	23.9313
13.76	23.6237
13.844	23.5703
13.928	23.5242
14.012	23.2767
14.096	23.1604
14.18	23.2619
14.264	23.4031
14.348	23.362
14.432	23.2294
14.516	23.3547
14.6	23.53
14.684	23.4236
14.768	23.2536
14.852	23.1233
14.936	22.9275
15.02	22.7764
15.104	22.6079
15.188	22.32
15.272	22.1409
15.356	22.1763
15.44	22.3368
15.524	22.5032
15.608	22.5179
15.692	22.3916
15.776	22.2654
15.86	22.151
15.944	21.9731
16.028	21.828
16.112	21.8654
16.196	21.9422
16.28	21.7774
16.364	21.4033
16.448	21.123
16.532	21.0974
16.616	21.1874
16.7	21.1614
16.784	20.9746
16.868	20.8021
16.952	20.7772
17.036	20.832
17.12	20.866
17.204	20.9083
17.288	21.0139
17.372	21.1295
17.456	21.1524
17.54	21.0533
17.624	20.9192
17.708	20.8641
17.792	20.9175
17.876	20.9917
17.96	20.9454
18.044	20.711
18.128	20.3782
18.212	20.0978
18.296	19.9005
18.38	19.6841
18.464	19.4211
18.548	19.2422
18.632	19.2311
18.716	19.2803
18.8	19.2493
18.884	19.1837
18.968	19.2674
19.052	19.5807
19.136	19.9617
19.22	20.1382
19.304	19.9859
19.388	19.6443
19.472	19.3806
19.556	19.3453
19.64	19.4512
19.724	19.4847
19.808	19.3217
19.892	19.0365
19.976	18.8003
20.06	18.7047
20.144	18.6873
20.228	18.6147
20.312	18.3945
20.396	18.0316
20.48	17.6216
20.564	17.2951
20.648	17.14
20.732	17.146
20.816	17.1974
20.9	17.1564
20.984	16.9548
21.068	16.6261
21.152	16.2562
21.236	15.9233
21.32	15.6918
21.404	15.6308
21.488	15.7726
21.572	16.0698
21.656	16.3852
21.74	16.5589
21.824	16.5233
21.908	16.3692
21.992	16.2771
22.076	16.3926
22.16	16.7316
22.244	17.1492
22.328	17.4495
22.412	17.4683
22.496	17.1786
22.58	16.7287
22.664	16.385
22.748	16.4188
22.832	16.9301
22.916	17.782
23	18.6243
23.084	19.0747
23.168	18.9044
23.252	18.1937
23.336	17.2865
23.42	16.6213
23.504	16.5587
23.588	17.2204
23.672	18.4929
23.756	20.1064
23.84	21.7399
23.924	23.1133
24.008	24.0474
24.092	24.4729
24.176	24.4237
24.26	23.9939
24.344	23.301
24.428	22.4382
24.512	21.4802
24.596	20.4347
24.68	19.3077
24.764	18.1852
24.848	17.245
24.932	16.7296
25.016	16.8616
25.1	17.817
25.184	19.6222
25.268	22.1217
25.352	25.0603
25.436	28.0701
25.52	30.7515
25.604	32.7821
25.688	34.0658
25.772	34.8186
25.856	35.4245
25.94	36.0918
26.024	36.6481
26.108	36.5489
26.192	35.265
26.276	32.5494
26.36	28.6653
26.444	24.216
26.528	20.0649
26.612	17.0288
26.696	16.069
26.78	18.1304
26.864	23.9764
26.948	33.7133
27.028	45.6232