File: Bakgrunnsmateriale/MATLAB/FTIR/ftir_data/LPE454/Mapping_121/LPE454_t113_cm-1.asc
PE IR       SPECTRUM    SPECTRUM    ASCII       PEDS        1.60
  -1
LP0658~1.ASC
17/05/19
23:42:17.00
17/05/19
23:42:17.00
tln
$LPE454_t0113$<tbV0>[7.8,13.0,8.0,0.0,27,1,0]
370
64

2002,4.07
MIRTGS : RIGHTBACK : INTERNAL 2
MIR : ON : INTERNAL 2
OPTKBR

0.200000
8
8.000000
FILLER
RATIO
SPECTRUM
UNLOCKED 256

DOUBLE
64
COMBINED
1
0
0

1.000000
RATIO

1
0
TRUE
51149
0
LEFT NOT FITTED RIGHT NOT FITTED 0
NONE
NONE
15600
12
4.427000
51148
TRUE
1 0 8 72 0 0 0 0

15798

#HDR
-1
-1
#GR
CM-1
%T
2.38419e-05
0.0
5000
-1.000000
4631
8
42.0906
-15.193
#DATA
5000	0.025653
4984	0.315761
4968	0.298142
4952	-0.191736
4936	-0.189256
4920	0.689888
4904	0.675368
4888	0.729274
4872	0.694155
4856	0.041246
4840	-0.518202
4824	0.362777
4808	0.168132
4792	0.171923
4776	0.180172
4760	0.484323
4744	0.356292
4728	0.556421
4712	0.275874
4696	0.851058
4680	0.693297
4664	0.541710
4648	0.617790
4632	0.298428
4616	0.467324
4600	-1.561903
4584	31.2934
4568	-1.107025
4552	-0.612401
4536	-0.162291
4520	-0.022745
4504	0.405883
4488	0.522041
4472	0.665783
4456	0.641155
4440	0.358128
4424	0.269794
4408	0.462603
4392	0.051641
4376	-0.056147
4360	-0.118327
4344	0.175976
4328	0.130987
4312	0.496554
4296	-0.125098
4280	0.093078
4264	0.424146
4248	-0.163793
4232	0.434255
4216	0.088143
4200	-0.019907
4184	0.100374
4168	-0.249838
4152	0.614976
4136	0.883984
4120	0.663614
4104	0.370311
4088	-0.141239
4072	-0.570178
4056	0.244283
4040	0.159263
4024	-0.054335
4008	0.199294
3992	0.268912
3976	0.110340
3960	0.009822
3944	0.129532
3928	-0.103449
3912	0.185298
3896	0.020694
3880	0.049591
3864	0.274085
3848	0.192117
3832	-0.039172
3816	0.088071
3800	0.081253
3784	-0.022292
3768	0.173306
3752	0.065851
3736	0.011754
3720	0.129675
3704	-0.016856
3688	-0.140786
3672	0.125098
3656	0.122594
3640	0.119304
3624	0.022864
3608	0.235676
3592	0.106215
3576	-0.148868
3560	0.050401
3544	0.191831
3528	0.062060
3512	0.066399
3496	0.033640
3480	0.125765
3464	0.176262
3448	0.005578
3432	-0.101947
3416	0.091648
3400	0.009083
3384	0.013208
3368	-0.005984
3352	0.060582
3336	0.079107
3320	0.131893
3304	0.095033
3288	0.082540
3272	0.084447
3256	0.142526
3240	-0.165247
3224	-0.031900
3208	0.069212
3192	-0.003290
3176	0.113987
3160	0.156569
3144	0.121855
3128	-0.063300
3112	-0.009512
3096	0.020217
3080	0.115537
3064	-0.084209
3048	0.178027
3032	-0.137639
3016	0.011730
3000	0.027394
2984	0.121402
2968	0.086951
2952	-0.058317
2936	0.144290
2920	0.110721
2904	0.045061
2888	0.049352
2872	0.050950
2856	0.008130
2840	-0.026416
2824	0.042057
2808	0.076842
2792	0.064516
2776	0.093269
2760	0.094866
2744	-0.032258
2728	0.036239
2712	0.176525
2696	0.118803
2680	0.013279
2664	0.149679
2648	0.180053
2632	0.075340
2616	-0.069594
2600	-0.039219
2584	0.032997
2568	0.108909
2552	0.011205
2536	0.018453
2520	0.088381
2504	0.075912
2488	-0.043368
2472	0.169491
2456	0.112295
2440	0.286579
2424	0.235247
2408	0.596332
2392	0.431418
2376	0.747847
2360	1.035094
2344	1.286101
2328	1.657962
2312	2.097797
2296	2.881217
2280	3.691864
2264	4.561948
2248	5.893731
2232	7.338428
2216	8.928942
2200	10.9051
2184	12.9487
2168	14.994
2152	17.157
2136	19.3536
2120	21.7057
2104	23.7274
2088	25.5747
2072	27.5988
2056	29.2595
2040	30.6882
2024	32.103
2008	33.2753
1992	34.2906
1976	35.4015
1960	36.3088
1944	37.1333
1928	37.8131
1912	38.3296
1896	38.886
1880	39.3221
1864	39.7135
1848	40.2291
1832	40.4026
1816	40.7904
1800	41.0135
1784	41.3044
1768	41.3368
1752	41.4366
1736	41.6117
1720	41.7269
1704	41.7561
1688	41.7418
1672	41.8639
1656	42.0117
1640	42.0904
1624	41.9479
1608	41.8702
1592	42.0317
1576	42.0523
1560	41.9148
1544	41.6603
1528	41.7167
1512	41.7571
1496	41.7371
1480	41.8119
1464	41.5876
1448	41.6866
1432	41.5282
1416	41.4366
1400	41.3971
1384	41.2284
1368	41.2873
1352	41.2612
1336	41.1198
1320	41.143
1304	41.0173
1288	40.9798
1272	41.1557
1256	40.8664
1240	40.9097
1224	40.731
1208	40.7352
1192	40.8102
1176	40.7154
1160	40.5243
1144	40.5816
1128	40.4011
1112	40.3025
1096	40.3857
1080	40.0524
1064	39.9219
1048	40.0337
1032	39.9432
1016	39.8169
1000	39.7187
984	 39.6449
968	 39.6101
952	 39.4281
936	 39.5614
920	 39.2372
904	 39.1071
888	 39.0648
872	 39.2104
856	 39.1129
840	 38.419
824	 38.3783
808	 38.5898
792	 38.7406
776	 38.3938
760	 37.7662
744	 37.6316
728	 37.7543
712	 38.1003
696	 37.5217
680	 36.9694
664	 36.8108
648	 36.9675
632	 37.0327
616	 36.2515
600	 35.114
584	 35.4904
568	 35.8112
552	 36.5703
536	 34.5226
520	 33.9314
504	 35.1155
488	 35.0931
472	 34.5477
456	 30.4463
440	 32.0375
424	 31.5893
408	 31.4783
392	 28.7828
376	 20.9328
370	 -15.193