File: Bakgrunnsmateriale/MATLAB/FTIR/ftir_data/LPE454/Mapping_121/LPE454_t01_cm-1.asc
PE IR       SPECTRUM    SPECTRUM    ASCII       PEDS        1.60
  -1
LPE454~3.ASC
17/05/19
14:29:21.00
17/05/19
14:29:21.00
tln
$LPE454_t0001$<tbV0>[13.0,-13.0,8.0,0.0,27,1,0]
370
64

2002,4.07
MIRTGS : RIGHTBACK : INTERNAL 2
MIR : ON : INTERNAL 2
OPTKBR

0.200000
8
8.000000
FILLER
RATIO
SPECTRUM
UNLOCKED 256

DOUBLE
64
COMBINED
1
0
0

1.000000
RATIO

1
0
TRUE
51149
0
LEFT NOT FITTED RIGHT NOT FITTED 0
NONE
NONE
15600
12
4.427000
51148
TRUE
1 0 8 72 0 0 0 0

15798

#HDR
-1
-1
#GR
CM-1
%T
2.38419e-05
0.0
5000
-1.000000
4631
8
46.0055
-35.7271
#DATA
5000	0.215363
4984	-0.215673
4968	0.686001
4952	-0.095415
4936	0.264692
4920	0.350499
4904	-0.849223
4888	1.139163
4872	-0.472664
4856	2.865767
4840	-0.280904
4824	1.587796
4808	-0.066089
4792	0.444436
4776	0.394177
4760	0.112175
4744	-0.174880
4728	0.159263
4712	0.297212
4696	0.156617
4680	-0.149989
4664	-0.057458
4648	0.243663
4632	0.186014
4616	0.333714
4600	0.255560
4584	-0.093889
4568	-0.054216
4552	-0.211358
4536	-0.049185
4520	0.004124
4504	-0.251483
4488	-0.817275
4472	2.090668
4456	13.9663
4440	0.934624
4424	-0.614070
4408	-0.240325
4392	-0.166249
4376	-0.451135
4360	0.016474
4344	0.369215
4328	0.379991
4312	0.292968
4296	0.055003
4280	0.206661
4264	0.050878
4248	-0.002098
4232	0.016975
4216	0.092506
4200	0.049018
4184	-0.299906
4168	0.252246
4152	0.150728
4136	0.228381
4120	0.165939
4104	0.216317
4088	0.116658
4072	-0.072312
4056	0.065374
4040	0.009274
4024	-0.020003
4008	0.020766
3992	-0.021886
3976	-0.035238
3960	0.204372
3944	0.035405
3928	0.153565
3912	-0.091743
3896	0.217223
3880	-0.023221
3864	0.130915
3848	0.146603
3832	0.013971
3816	-0.108909
3800	0.004625
3784	0.048375
3768	0.155210
3752	-0.026631
3736	-0.087642
3720	0.178909
3704	0.282001
3688	0.076699
3672	-0.035238
3656	0.073194
3640	-0.010085
3624	-0.003194
3608	-0.031590
3592	-0.033283
3576	-0.030493
3560	0.087785
3544	0.026726
3528	-0.042700
3512	0.069403
3496	0.176000
3480	-0.043535
3464	-0.096368
3448	-0.006771
3432	0.176596
3416	0.020599
3400	0.186681
3384	-0.071859
3368	0.065374
3352	0.172400
3336	0.011515
3320	0.114393
3304	0.037884
3288	0.159645
3272	0.001144
3256	-0.029087
3240	-0.058269
3224	-0.035977
3208	0.222420
3192	0.053238
3176	0.083303
3160	0.095343
3144	-0.047230
3128	0.056457
3112	0.117135
3096	0.084400
3080	-0.038433
3064	-0.126886
3048	0.154352
3032	-0.016093
3016	0.071024
3000	0.070142
2984	0.008678
2968	-0.026655
2952	-0.106334
2936	0.129389
2920	-0.084471
2904	0.013518
2888	0.066089
2872	-0.066900
2856	0.125002
2840	0.093030
2824	0.042414
2808	0.058627
2792	0.023508
2776	0.064492
2760	-0.006031
2744	0.026559
2728	0.063848
2712	-0.034499
2696	0.056552
2680	0.001692
2664	0.109362
2648	0.001120
2632	0.080394
2616	0.060462
2600	0.055742
2584	-0.055503
2568	0.034332
2552	-0.040698
2536	0.002837
2520	-0.030755
2504	0.273919
2488	0.226712
2472	0.016427
2456	-0.016498
2440	0.000309
2424	-0.047349
2408	0.152754
2392	-0.165033
2376	0.061321
2360	-0.014448
2344	0.024366
2328	0.078296
2312	0.080990
2296	0.053405
2280	0.170683
2264	0.173783
2248	0.125503
2232	0.309944
2216	0.551509
2200	0.689005
2184	0.937771
2168	1.094412
2152	1.597762
2136	1.862287
2120	2.285385
2104	2.723503
2088	3.353738
2072	3.471326
2056	3.851103
2040	4.242086
2024	4.691529
2008	5.000352
1992	5.305218
1976	5.631923
1960	5.816030
1944	6.024694
1928	6.192612
1912	6.366419
1896	6.485629
1880	6.594777
1864	6.717991
1848	6.764197
1832	6.823110
1816	6.829738
1800	6.869649
1784	6.959652
1768	6.991696
1752	7.164812
1736	7.091569
1720	7.188534
1704	7.349967
1688	7.253980
1672	7.323336
1656	7.404994
1640	7.251286
1624	7.390570
1608	7.244968
1592	7.347130
1576	7.355952
1560	7.428193
1544	7.394123
1528	7.255578
1512	7.408571
1496	7.455039
1480	7.403135
1464	7.325959
1448	7.508802
1432	7.518792
1416	7.474350
1400	7.484054
1384	7.471108
1368	7.507777
1352	7.437086
1336	7.438850
1320	7.357835
1304	7.390403
1288	7.339119
1272	7.447433
1256	7.411313
1240	7.409143
1224	7.270026
1208	7.392740
1192	7.696461
1176	7.465767
1160	7.355952
1144	7.470440
1128	7.395005
1112	7.452750
1096	7.288837
1080	7.176756
1064	7.402467
1048	7.441282
1032	7.246112
1016	7.327485
1000	7.279658
984	 7.094812
968	 7.173204
952	 7.140016
936	 7.115101
920	 7.145547
904	 6.901454
888	 6.933450
872	 7.085990
856	 6.898689
840	 6.910014
824	 6.694912
808	 6.591963
792	 6.946229
776	 6.725645
760	 6.531763
744	 6.296849
728	 6.608676
712	 6.221961
696	 5.936431
680	 6.259679
664	 6.660413
648	 5.826163
632	 5.569720
616	 6.062054
600	 6.149148
584	 5.631041
568	 5.190992
552	 4.916143
536	 5.347514
520	 5.551481
504	 5.040335
488	 4.478716
472	 4.425263
456	 5.832672
440	 7.486915
424	 5.786490
408	 14.34
392	 -16.068
376	 12.0968
370	 -14.7108