File: Bakgrunnsmateriale/MATLAB/FTIR/ftir_data/LPE454/Mapping_121/LPE454_t120.asc
PE IR       SPECTRUM    SPECTRUM    ASCII       PEDS        1.60
  -1
LP93F3~1.ASC
17/05/20
00:29:02.00
17/05/20
00:29:29.00
tln
$LPE454_t0120$<tbV0>[-10.4,13.0,8.0,0.0,27,1,0]
27.028
64

2002,4.07
MIRTGS : RIGHTBACK : INTERNAL 2
MIR : ON : INTERNAL 2
OPTKBR

0.200000
8
8.000000
FILLER
RATIO
SPECTRUM
UNLOCKED 256

DOUBLE
64
COMBINED
1
0
0

0.002000
RATIO

1
0
TRUE
51149
0
LEFT NOT FITTED RIGHT NOT FITTED 0
NONE
NONE
15600
12
4.427000
51148
TRUE
1 0 8 72 0 0 0 0

15798

#HDR
-1
-1
#GR
µM
%T
2.38419e-05
0.0
2.000000
0.002000
12515
8
32.0677
-22.469
#DATA
2.000000	 0.463438
2.084000	 -0.065931
2.168000	 0.512871
2.252000	 0.145994
2.336000	 0.372082
2.420000	 1.632389
2.504000	 -0.232679
2.588000	 0.126095
2.672000	 0.047389
2.756000	 0.092491
2.840000	 0.062204
2.924000	 0.083224
3.008000	 0.062425
3.092000	 0.077881
3.176000	 -0.045184
3.260000	 -0.156808
3.344000	 0.232632
3.428000	 0.017201
3.512000	 0.049887
3.596000	 0.018919
3.680000	 0.006931
3.764000	 -0.001475
3.848000	 -0.016630
3.932000	 0.041576
4.016000	 -0.064576
4.100000	 0.065904
4.184000	 0.120104
4.268000	 0.228633
4.352000	 0.786996
4.436000	 1.946168
4.520000	 4.109703
4.604000	 7.345839
4.688000	 11.3476
4.772000	 15.4106
4.856000	 19.1402
4.940000	 22.1067
5.024000	 24.3888
5.108000	 26.1812
5.192000	 27.7787
5.276000	 28.5695
5.359999	 29.5101
5.444000	 29.9334
5.528000	 30.5486
5.612000	 30.6834
5.696000	 31.1197
5.780000	 31.1514
5.864000	 31.2404
5.948000	 31.4156
6.032000	 31.5331
6.116000	 31.7143
6.200000	 31.6001
6.284000	 31.7725
6.368000	 31.8004
6.452000	 31.5777
6.536000	 31.9394
6.620000	 31.8572
6.704000	 31.7958
6.788000	 32.0053
6.872000	 31.827
6.956000	 31.7593
7.040000	 31.8699
7.124000	 32.0198
7.208000	 31.8219
7.292000	 31.7006
7.376000	 31.8566
7.460000	 32.0519
7.544000	 31.7891
7.628000	 31.6681
7.712000	 31.9237
7.796000	 32.0218
7.880000	 31.7987
7.964000	 31.6191
8.048000	 31.794
8.132000	 31.7707
8.216000	 31.7788
8.300000	 31.5815
8.384000	 31.4754
8.468000	 31.6368
8.552000	 31.8449
8.635999	 31.7708
8.719999	 31.4427
8.804000	 31.1902
8.888000	 31.4111
8.972000	 31.4989
9.056000	 31.534
9.140000	 31.5467
9.224000	 31.2317
9.308000	 30.9928
9.391999	 31.0578
9.475999	 31.2718
9.560000	 31.2521
9.644000	 31.3099
9.728000	 30.893
9.812000	 30.7011
9.896000	 30.7207
9.980000	 30.7751
10.064	30.9681
10.148	31.1001
10.232	30.8483
10.316	30.5581
10.4	30.4406
10.484	30.3211
10.568	30.0991
10.652	30.5375
10.736	30.7051
10.82	30.5783
10.904	30.5041
10.988	30.1637
11.072	29.8153
11.156	29.8724
11.24	29.7958
11.324	29.6929
11.408	30.0234
11.492	30.081
11.576	30.0617
11.66	30.0584
11.744	29.7637
11.828	29.4438
11.912	29.1717
11.996	29.0014
12.08	28.8796
12.164	29.0593
12.248	29.2875
12.332	29.5367
12.416	29.6005
12.5	29.2225
12.584	29.1344
12.668	28.9839
12.752	28.683
12.836	28.5505
12.92	28.3745
13.004	28.4165
13.088	28.4553
13.172	28.4546
13.256	28.6765
13.34	28.8572
13.424	28.681
13.508	28.4387
13.592	28.1414
13.676	27.975
13.76	28.0102
13.844	28.0417
13.928	27.8697
14.012	27.6171
14.096	27.5313
14.18	27.5956
14.264	27.6844
14.348	27.7194
14.432	27.7274
14.516	27.7173
14.6	27.7233
14.684	27.7002
14.768	27.5856
14.852	27.4558
14.936	27.3214
15.02	27.1138
15.104	26.8795
15.188	26.7119
15.272	26.5936
15.356	26.5487
15.44	26.6416
15.524	26.7681
15.608	26.7703
15.692	26.6361
15.776	26.529
15.86	26.5891
15.944	26.7067
16.028	26.7328
16.112	26.6954
16.196	26.5957
16.28	26.3667
16.364	26.0708
16.448	25.8419
16.532	25.7254
16.616	25.6841
16.7	25.6393
16.784	25.5416
16.868	25.4412
16.952	25.3918
17.036	25.3747
17.12	25.3904
17.204	25.4475
17.288	25.4687
17.372	25.4353
17.456	25.4983
17.54	25.7303
17.624	25.9461
17.708	25.9607
17.792	25.8511
17.876	25.823
17.96	25.8915
18.044	25.8469
18.128	25.5113
18.212	24.9838
18.296	24.5587
18.38	24.4162
18.464	24.4696
18.548	24.5116
18.632	24.4249
18.716	24.2374
18.8	24.0449
18.884	23.9393
18.968	23.9721
19.052	24.1096
19.136	24.2424
19.22	24.2714
19.304	24.1983
19.388	24.1147
19.472	24.1016
19.556	24.1481
19.64	24.1787
19.724	24.1441
19.808	24.0745
19.892	24.0487
19.976	24.1154
20.06	24.2531
20.144	24.4046
20.228	24.5101
20.312	24.4963
20.396	24.2636
20.48	23.7726
20.564	23.1303
20.648	22.58
20.732	22.3346
20.816	22.4218
20.9	22.6732
20.984	22.8932
21.068	23.0279
21.152	23.1766
21.236	23.458
21.32	23.8689
21.404	24.2507
21.488	24.3793
21.572	24.1058
21.656	23.434
21.74	22.5034
21.824	21.5062
21.908	20.6002
21.992	19.8767
22.076	19.3872
22.16	19.1751
22.244	19.273
22.328	19.652
22.412	20.1958
22.496	20.7014
22.58	20.9935
22.664	21.0119
22.748	20.8343
22.832	20.5918
22.916	20.3928
23	20.2395
23.084	20.071
23.168	19.8136
23.252	19.452
23.336	19.0549
23.42	18.7226
23.504	18.5324
23.588	18.4853
23.672	18.5002
23.756	18.4391
23.84	18.1863
23.924	17.698
24.008	17.0667
24.092	16.5264
24.176	16.3282
24.26	16.6955
24.344	17.7055
24.428	19.2283
24.512	21.0118
24.596	22.8181
24.68	24.4532
24.764	25.7675
24.848	26.7197
24.932	27.2957
25.016	27.4747
25.1	27.262
25.184	26.6319
25.268	25.5773
25.352	24.1785
25.436	22.5901
25.52	20.9421
25.604	19.2165
25.688	17.232
25.772	14.5847
25.856	10.7569
25.94	5.462996
26.024	-1.192462
26.108	-8.656970
26.192	-15.7347
26.276	-20.8539
26.36	-22.4399
26.444	-19.7964
26.528	-13.3801
26.612	-4.581035
26.696	4.867536
26.78	13.4585
26.864	20.4605
26.948	25.8864
27.028	29.8731