File: Bakgrunnsmateriale/MATLAB/FTIR/ftir_data/LPE454/Mapping_121/LPE454_t103.asc
PE IR       SPECTRUM    SPECTRUM    ASCII       PEDS        1.60
  -1
LP9FF7~1.ASC
17/05/19
22:49:58.00
17/05/19
22:50:24.00
tln
$LPE454_t0103$<tbV0>[5.2,10.4,8.0,0.0,27,1,0]
27.028
64

2002,4.07
MIRTGS : RIGHTBACK : INTERNAL 2
MIR : ON : INTERNAL 2
OPTKBR

0.200000
8
8.000000
FILLER
RATIO
SPECTRUM
UNLOCKED 256

DOUBLE
64
COMBINED
1
0
0

0.002000
RATIO

1
0
TRUE
51149
0
LEFT NOT FITTED RIGHT NOT FITTED 0
NONE
NONE
15600
12
4.427000
51148
TRUE
1 0 8 72 0 0 0 0

15798

#HDR
-1
-1
#GR
µM
%T
2.38419e-05
0.0
2.000000
0.002000
12515
8
65.7405
-3.335258
#DATA
2.000000	 0.240135
2.084000	 0.099809
2.168000	 -0.675158
2.252000	 0.225696
2.336000	 0.114808
2.420000	 -0.380867
2.504000	 -0.363936
2.588000	 0.090100
2.672000	 0.129967
2.756000	 0.164440
2.840000	 -0.013211
2.924000	 -0.121377
3.008000	 0.090175
3.092000	 -0.018745
3.176000	 0.025396
3.260000	 -0.110141
3.344000	 -0.013558
3.428000	 -0.042055
3.512000	 0.104654
3.596000	 -0.000960
3.680000	 0.117105
3.764000	 0.077890
3.848000	 0.069620
3.932000	 0.013080
4.016000	 0.019918
4.100000	 0.059003
4.184000	 0.182820
4.268000	 0.663839
4.352000	 1.467385
4.436000	 3.222877
4.520000	 6.457028
4.604000	 10.8449
4.688000	 16.1045
4.772000	 20.8896
4.856000	 25.0702
4.940000	 28.5996
5.024000	 30.975
5.108000	 33.139
5.192000	 34.18
5.276000	 35.3099
5.359999	 35.9138
5.444000	 36.6868
5.528000	 36.725
5.612000	 37.3204
5.696000	 37.2926
5.780000	 37.5486
5.864000	 37.8285
5.948000	 37.5838
6.032000	 37.9242
6.116000	 37.8602
6.200000	 37.6214
6.284000	 38.1212
6.368000	 37.9537
6.452000	 37.7264
6.536000	 38.2103
6.620000	 38.1019
6.704000	 37.7601
6.788000	 38.2035
6.872000	 38.3757
6.956000	 37.7016
7.040000	 37.8036
7.124000	 38.2375
7.208000	 38.1756
7.292000	 37.9206
7.376000	 37.8139
7.460000	 38.1048
7.544000	 38.2779
7.628000	 37.8244
7.712000	 37.6915
7.796000	 37.8536
7.880000	 38.3023
7.964000	 37.9747
8.048000	 37.6325
8.132000	 37.525
8.216000	 37.8582
8.300000	 38.0773
8.384000	 38.0618
8.468000	 37.5233
8.552000	 37.1005
8.635999	 37.4126
8.719999	 37.7626
8.804000	 37.9273
8.888000	 37.6866
8.972000	 37.4389
9.056000	 37.1409
9.140000	 37.089
9.224000	 37.3415
9.308000	 37.7315
9.391999	 37.6111
9.475999	 37.3073
9.560000	 36.7048
9.644000	 36.762
9.728000	 36.8998
9.812000	 37.2569
9.896000	 37.5766
9.980000	 37.3556
10.064	37.104
10.148	36.604
10.232	36.319
10.316	36.2442
10.4	36.5573
10.484	36.7044
10.568	37.032
10.652	37.1271
10.736	36.8812
10.82	36.5379
10.904	36.0023
10.988	35.8079
11.072	35.7102
11.156	35.8992
11.24	36.4854
11.324	36.6984
11.408	36.6216
11.492	36.3164
11.576	36.128
11.66	35.6471
11.744	35.3782
11.828	35.0727
11.912	34.9886
11.996	35.2485
12.08	35.5867
12.164	35.8831
12.248	35.9038
12.332	35.9317
12.416	35.7812
12.5	35.4812
12.584	35.0766
12.668	34.6021
12.752	34.3458
12.836	34.3221
12.92	34.513
13.004	34.5969
13.088	34.7096
13.172	34.934
13.256	35.2295
13.34	35.4147
13.424	35.089
13.508	34.6493
13.592	34.4801
13.676	34.2846
13.76	34.1082
13.844	33.9349
13.928	33.7035
14.012	33.5486
14.096	33.3128
14.18	33.3141
14.264	33.5834
14.348	33.709
14.432	33.8779
14.516	34.1318
14.6	34.1902
14.684	34.11
14.768	34.0437
14.852	33.8736
14.936	33.5707
15.02	33.3241
15.104	33.1192
15.188	32.7836
15.272	32.4341
15.356	32.2524
15.44	32.1951
15.524	32.2877
15.608	32.5068
15.692	32.6024
15.776	32.5452
15.86	32.5238
15.944	32.6232
16.028	32.8302
16.112	33.0392
16.196	33.0984
16.28	32.9544
16.364	32.664
16.448	32.3963
16.532	32.3129
16.616	32.3027
16.7	32.1191
16.784	31.7827
16.868	31.5048
16.952	31.3531
17.036	31.2589
17.12	31.1843
17.204	31.1153
17.288	31.0436
17.372	31.0294
17.456	31.1183
17.54	31.2057
17.624	31.1481
17.708	30.9535
17.792	30.7634
17.876	30.7188
17.96	30.8382
18.044	30.9685
18.128	30.9373
18.212	30.8371
18.296	30.9749
18.38	31.4179
18.464	31.8191
18.548	31.8359
18.632	31.5042
18.716	31.0757
18.8	30.6194
18.884	29.9789
18.968	29.0694
19.052	28.0695
19.136	27.3332
19.22	27.1812
19.304	27.7362
19.388	28.8434
19.472	30.1053
19.556	31.0229
19.64	31.2345
19.724	30.7116
19.808	29.7747
19.892	28.9051
19.976	28.4772
20.06	28.5608
20.144	28.9466
20.228	29.3357
20.312	29.5297
20.396	29.5099
20.48	29.385
20.564	29.2724
20.648	29.2095
20.732	29.1427
20.816	29.0078
20.9	28.7978
20.984	28.561
21.068	28.3479
21.152	28.1536
21.236	27.9393
21.32	27.6912
21.404	27.4577
21.488	27.3159
21.572	27.2956
21.656	27.3532
21.74	27.3975
21.824	27.3652
21.908	27.2787
21.992	27.2354
22.076	27.3551
22.16	27.7091
22.244	28.2602
22.328	28.868
22.412	29.3394
22.496	29.5073
22.58	29.3217
22.664	28.8734
22.748	28.3608
22.832	27.9597
22.916	27.7479
23	27.6317
23.084	27.438
23.168	27.0066
23.252	26.3144
23.336	25.5086
23.42	24.838
23.504	24.5094
23.588	24.5631
23.672	24.8553
23.756	25.1125
23.84	25.1181
23.924	24.83
24.008	24.3905
24.092	24.0422
24.176	23.9941
24.26	24.3542
24.344	25.1209
24.428	26.2133
24.512	27.5314
24.596	29.0016
24.68	30.5505
24.764	32.0542
24.848	33.4356
24.932	34.4818
25.016	34.8504
25.1	34.2014
25.184	32.4574
25.268	29.927
25.352	27.1742
25.436	24.8211
25.52	23.296
25.604	22.7217
25.688	22.9881
25.772	23.7819
25.856	24.6745
25.94	25.1852
26.024	24.8272
26.108	23.2656
26.192	20.576
26.276	17.4369
26.36	14.9756
26.444	14.7736
26.528	18.2108
26.612	25.9953
26.696	37.3711
26.78	49.9845
26.864	60.4461
26.948	65.5883
27.028	64.0659