File: Bakgrunnsmateriale/MATLAB/FTIR/ftir_data/LPE454/Mapping_121/LPE454_t107_cm-1.asc
PE IR       SPECTRUM    SPECTRUM    ASCII       PEDS        1.60
  -1
LP0ADC~1.ASC
17/05/19
23:08:24.00
17/05/19
23:08:24.00
tln
$LPE454_t0107$<tbV0>[-5.2,10.4,8.0,0.0,27,1,0]
370
64

2002,4.07
MIRTGS : RIGHTBACK : INTERNAL 2
MIR : ON : INTERNAL 2
OPTKBR

0.200000
8
8.000000
FILLER
RATIO
SPECTRUM
UNLOCKED 256

DOUBLE
64
COMBINED
1
0
0

1.000000
RATIO

1
0
TRUE
51149
0
LEFT NOT FITTED RIGHT NOT FITTED 0
NONE
NONE
15600
12
4.427000
51148
TRUE
1 0 8 72 0 0 0 0

15798

#HDR
-1
-1
#GR
CM-1
%T
2.38419e-05
0.0
5000
-1.000000
4631
8
38.6063
-23.3485
#DATA
5000	-0.081825
4984	0.060439
4968	0.219368
4952	0.544953
4936	0.224709
4920	-0.442051
4904	0.185132
4888	0.123643
4872	-0.232934
4856	0.207519
4840	0.250768
4824	0.084757
4808	0.231575
4792	0.097799
4776	-0.062298
4760	0.218415
4744	0.433993
4728	0.949788
4712	0.545668
4696	0.177669
4680	0.580334
4664	-0.176239
4648	0.015926
4632	-0.489854
4616	0.106382
4600	-0.585293
4584	10.6273
4568	-0.677561
4552	-0.056385
4536	-0.247073
4520	-0.134396
4504	0.538682
4488	0.103306
4472	0.631475
4456	0.537419
4440	-0.018239
4424	0.429892
4408	0.566768
4392	0.443243
4376	0.653338
4360	-0.043654
4344	0.069928
4328	-0.155997
4312	-0.244617
4296	0.212311
4280	-0.050854
4264	-0.046038
4248	-0.097966
4232	0.299978
4216	0.095629
4200	0.217103
4184	0.106382
4168	0.231695
4152	0.146842
4136	0.101685
4120	0.017571
4104	-0.154733
4088	0.730252
4072	0.543570
4056	0.855159
4040	0.242400
4024	-0.029087
4008	0.052237
3992	0.091385
3976	0.425362
3960	-0.087833
3944	0.106120
3928	0.019502
3912	0.022006
3896	0.117301
3880	0.027608
3864	-0.095391
3848	0.027894
3832	-0.023961
3816	0.216603
3800	0.033211
3784	0.143432
3768	0.104475
3752	-0.021505
3736	0.037574
3720	-0.076246
3704	0.056219
3688	-0.116801
3672	-0.110363
3656	0.141239
3640	0.034308
3624	-0.014138
3608	0.144195
3592	0.186753
3576	-0.066566
3560	0.103735
3544	0.052189
3528	0.116848
3512	0.018835
3496	0.074696
3480	0.180912
3464	-0.055956
3448	0.054168
3432	-0.059890
3416	0.023317
3400	0.046920
3384	0.196266
3368	0.086092
3352	-0.005507
3336	0.047492
3320	0.046682
3304	0.073266
3288	-0.031566
3272	0.180983
3256	-0.028753
3240	0.088429
3224	-0.037145
3208	0.025486
3192	-0.015950
3176	-0.027370
3160	0.130915
3144	0.068163
3128	0.003480
3112	0.100350
3096	-0.081968
3080	-0.027704
3064	0.044345
3048	-0.050783
3032	0.040769
3016	-0.017237
3000	0.020098
2984	-0.044751
2968	0.154876
2952	-0.004768
2936	0.127911
2920	0.084924
2904	0.125622
2888	0.049114
2872	-0.008678
2856	0.051403
2840	-0.003767
2824	0.028300
2808	0.028705
2792	0.041222
2776	-0.020718
2760	0.042700
2744	0.060534
2728	0.021743
2712	0.039482
2696	0.179982
2680	0.024914
2664	0.043416
2648	0.088858
2632	-0.001859
2616	0.005459
2600	0.032663
2584	-0.030899
2568	0.052905
2552	-0.063180
2536	0.027394
2520	0.060772
2504	-0.082039
2488	0.110387
2472	0.020360
2456	0.024366
2440	0.123810
2424	0.208449
2408	0.033378
2392	0.127744
2376	0.380945
2360	0.544857
2344	0.674247
2328	0.877428
2312	1.304650
2296	1.752305
2280	2.410030
2264	3.111982
2248	4.138088
2232	5.347251
2216	6.744623
2200	8.341836
2184	10.1447
2168	12.202
2152	14.3993
2136	16.3985
2120	18.4732
2104	20.6111
2088	22.6552
2072	24.2413
2056	26.222
2040	27.7449
2024	29.0726
2008	30.3334
1992	31.2881
1976	32.1419
1960	33.2474
1944	34.0548
1928	34.4127
1912	34.924
1896	35.6001
1880	35.9792
1864	36.0513
1848	36.3504
1832	36.8625
1816	37.0422
1800	36.8908
1784	37.2105
1768	37.5951
1752	37.6009
1736	37.2299
1720	37.545
1704	37.9484
1688	37.8758
1672	37.6434
1656	37.8245
1640	38.2432
1624	38.0606
1608	37.7148
1592	37.8996
1576	38.1987
1560	38.3
1544	37.8817
1528	37.7783
1512	38.2983
1496	38.2699
1480	37.8422
1464	37.806
1448	38.2825
1432	38.5133
1416	37.9773
1400	37.6662
1384	38.2862
1368	38.6041
1352	38.1296
1336	37.6302
1320	38.1159
1304	38.56
1288	38.1988
1272	37.609
1256	37.8365
1240	38.4586
1224	38.1372
1208	37.5037
1192	37.6361
1176	38.3103
1160	38.2871
1144	37.4339
1128	37.3682
1112	37.9487
1096	38.0129
1080	37.0618
1064	36.9928
1048	37.5821
1032	37.9263
1016	37.082
1000	36.5907
984	 37.1799
968	 37.6035
952	 36.8864
936	 36.1459
920	 36.4097
904	 36.9951
888	 36.5538
872	 35.4511
856	 35.7182
840	 36.1415
824	 36.0678
808	 34.897
792	 34.7242
776	 35.4599
760	 35.455
744	 34.1208
728	 33.9129
712	 34.3542
696	 34.5375
680	 33.6257
664	 33.0945
648	 33.0245
632	 33.4703
616	 32.9451
600	 31.0763
584	 32.0993
568	 31.3994
552	 31.3431
536	 28.6407
520	 29.2175
504	 29.7016
488	 30.2517
472	 28.4858
456	 27.529
440	 27.0368
424	 24.0735
408	 28.7932
392	 22.2114
376	 -17.4029
370	 -13.8284