File: Bakgrunnsmateriale/MATLAB/FTIR/ftir_data/LPE454/Mapping_121/LPE454_t03.asc
PE IR       SPECTRUM    SPECTRUM    ASCII       PEDS        1.60
  -1
LPC390~1.ASC
17/05/19
14:38:34.00
17/05/19
14:39:00.00
tln
$LPE454_t0003$<tbV0>[7.8,-13.0,8.0,0.0,27,1,0]
27.028
64

2002,4.07
MIRTGS : RIGHTBACK : INTERNAL 2
MIR : ON : INTERNAL 2
OPTKBR

0.200000
8
8.000000
FILLER
RATIO
SPECTRUM
UNLOCKED 256

DOUBLE
64
COMBINED
1
0
0

0.002000
RATIO

1
0
TRUE
51149
0
LEFT NOT FITTED RIGHT NOT FITTED 0
NONE
NONE
15600
12
4.427000
51148
TRUE
1 0 8 72 0 0 0 0

15798

#HDR
-1
-1
#GR
µM
%T
2.38419e-05
0.0
2.000000
0.002000
12515
8
42.4836
-31.147
#DATA
2.000000	 -0.401926
2.084000	 0.697503
2.168000	 0.307057
2.252000	 -0.597364
2.336000	 -0.036597
2.420000	 0.335334
2.504000	 -0.078474
2.588000	 -0.025189
2.672000	 0.175455
2.756000	 0.107075
2.840000	 -0.174819
2.924000	 -0.038466
3.008000	 0.112578
3.092000	 0.016277
3.176000	 0.019416
3.260000	 0.003513
3.344000	 -0.025257
3.428000	 0.034660
3.512000	 0.113040
3.596000	 0.048440
3.680000	 -0.009778
3.764000	 0.020360
3.848000	 0.086824
3.932000	 0.004055
4.016000	 -0.009405
4.100000	 0.069844
4.184000	 0.237677
4.268000	 0.416344
4.352000	 1.101384
4.436000	 2.763500
4.520000	 5.532261
4.604000	 9.674280
4.688000	 14.3981
4.772000	 18.889
4.856000	 23.0569
4.940000	 26.7041
5.024000	 29.0206
5.108000	 31.2133
5.192000	 32.4603
5.276000	 33.7724
5.359999	 34.4253
5.444000	 35.1509
5.528000	 35.4202
5.612000	 36.1308
5.696000	 35.8543
5.780000	 36.6371
5.864000	 36.0728
5.948000	 36.4479
6.032000	 36.6953
6.116000	 36.2133
6.200000	 36.7198
6.284000	 36.5104
6.368000	 36.2416
6.452000	 36.7928
6.536000	 36.5712
6.620000	 36.1331
6.704000	 36.5803
6.788000	 36.5638
6.872000	 35.7905
6.956000	 35.8837
7.040000	 36.7252
7.124000	 36.2207
7.208000	 35.686
7.292000	 36.0879
7.376000	 36.6055
7.460000	 35.8884
7.544000	 35.4155
7.628000	 35.8619
7.712000	 36.3669
7.796000	 36.1561
7.880000	 35.3186
7.964000	 35.2796
8.048000	 35.9812
8.132000	 36.2908
8.216000	 35.7676
8.300000	 35.0792
8.384000	 35.1936
8.468000	 35.7082
8.552000	 36.2521
8.635999	 35.8012
8.719999	 35.1558
8.804000	 34.6586
8.888000	 35.0858
8.972000	 35.5709
9.056000	 35.9561
9.140000	 35.5649
9.224000	 34.8857
9.308000	 34.5666
9.391999	 34.7103
9.475999	 35.1751
9.560000	 35.6385
9.644000	 35.4715
9.728000	 35.1496
9.812000	 34.7204
9.896000	 34.2774
9.980000	 34.3332
10.064	34.5945
10.148	35.141
10.232	34.9393
10.316	34.7986
10.4	34.2477
10.484	33.6188
10.568	33.6314
10.652	33.9601
10.736	34.3736
10.82	34.7578
10.904	34.7518
10.988	34.6059
11.072	34.1985
11.156	33.8555
11.24	33.336
11.324	32.9248
11.408	33.0682
11.492	33.7593
11.576	33.9441
11.66	34.0127
11.744	34.1899
11.828	34.0484
11.912	33.6863
11.996	33.2923
12.08	32.9837
12.164	32.6576
12.248	32.5225
12.332	32.7219
12.416	32.951
12.5	33.2268
12.584	33.4585
12.668	33.4283
12.752	33.2305
12.836	32.8813
12.92	32.577
13.004	32.3515
13.088	31.9908
13.172	31.6406
13.256	31.2991
13.34	31.6947
13.424	32.1051
13.508	32.0789
13.592	32.3502
13.676	32.5842
13.76	32.4485
13.844	32.272
13.928	32.0902
14.012	31.8946
14.096	31.6846
14.18	31.2853
14.264	30.9099
14.348	30.7672
14.432	30.7364
14.516	30.7685
14.6	30.8928
14.684	30.972
14.768	30.9849
14.852	31.0833
14.936	31.2745
15.02	31.4783
15.104	31.5604
15.188	31.4584
15.272	31.3319
15.356	31.1798
15.44	30.7522
15.524	30.1228
15.608	29.7063
15.692	29.6182
15.776	29.6282
15.86	29.5775
15.944	29.4118
16.028	29.1731
16.112	29.0952
16.196	29.3424
16.28	29.7568
16.364	30.0839
16.448	30.2154
16.532	30.1595
16.616	30.0196
16.7	29.954
16.784	30.0205
16.868	30.1082
16.952	30.0314
17.036	29.6837
17.12	29.1557
17.204	28.6677
17.288	28.3562
17.372	28.1872
17.456	28.0919
17.54	28.0645
17.624	28.0782
17.708	28.0539
17.792	27.973
17.876	27.922
17.96	27.9499
18.044	27.9959
18.128	28.014
18.212	28.074
18.296	28.2821
18.38	28.6508
18.464	29.0721
18.548	29.3699
18.632	29.3831
18.716	29.0617
18.8	28.5188
18.884	27.9693
18.968	27.5948
19.052	27.449
19.136	27.4732
19.22	27.5632
19.304	27.6232
19.388	27.5852
19.472	27.4286
19.556	27.1892
19.64	26.9426
19.724	26.767
19.808	26.6875
19.892	26.6506
19.976	26.5783
20.06	26.4486
20.144	26.3131
20.228	26.2251
20.312	26.2027
20.396	26.2471
20.48	26.3915
20.564	26.6707
20.648	27.0562
20.732	27.4286
20.816	27.6536
20.9	27.7042
20.984	27.6888
21.068	27.7694
21.152	28.0181
21.236	28.3422
21.32	28.5325
21.404	28.3942
21.488	27.8695
21.572	27.053
21.656	26.127
21.74	25.2702
21.824	24.6073
21.908	24.2103
21.992	24.1276
22.076	24.3851
22.16	24.9453
22.244	25.6743
22.328	26.3524
22.412	26.7643
22.496	26.7986
22.58	26.4795
22.664	25.9349
22.748	25.3187
22.832	24.71
22.916	24.1555
23	23.6558
23.084	23.2289
23.168	22.9419
23.252	22.8684
23.336	23.0243
23.42	23.3011
23.504	23.4979
23.588	23.4076
23.672	22.9235
23.756	22.1071
23.84	21.1875
23.924	20.5032
24.008	20.4077
24.092	21.207
24.176	23.0738
24.26	26.0342
24.344	29.8943
24.428	34.2036
24.512	38.2444
24.596	41.1968
24.68	42.4503
24.764	41.9351
24.848	40.1208
24.932	37.815
25.016	35.7777
25.1	34.4289
25.184	33.814
25.268	33.6714
25.352	33.6492
25.436	33.4281
25.52	32.8512
25.604	31.9204
25.688	30.6282
25.772	29.0445
25.856	27.3527
25.94	25.6937
26.024	24.0057
26.108	21.9285
26.192	19.0456
26.276	14.8934
26.36	8.882770
26.444	0.934802
26.528	-8.284451
26.612	-17.524
26.696	-25.2161
26.78	-29.9372
26.864	-31.1008
26.948	-29.1779
27.028	-25.7992