File: Bakgrunnsmateriale/MATLAB/FTIR/ftir_data/LPE454/Mapping_121/LPE454_t17.asc
PE IR       SPECTRUM    SPECTRUM    ASCII       PEDS        1.60
  -1
LPD790~1.ASC
17/05/19
15:43:44.00
17/05/19
15:44:10.00
tln
$LPE454_t0017$<tbV0>[0.0,-10.4,8.0,0.0,27,1,0]
27.028
64

2002,4.07
MIRTGS : RIGHTBACK : INTERNAL 2
MIR : ON : INTERNAL 2
OPTKBR

0.200000
8
8.000000
FILLER
RATIO
SPECTRUM
UNLOCKED 256

DOUBLE
64
COMBINED
1
0
0

0.002000
RATIO

1
0
TRUE
51149
0
LEFT NOT FITTED RIGHT NOT FITTED 0
NONE
NONE
15600
12
4.427000
51148
TRUE
1 0 8 72 0 0 0 0

15798

#HDR
-1
-1
#GR
µM
%T
2.38419e-05
0.0
2.000000
0.002000
12515
8
45.5944
-3.493237
#DATA
2.000000	 0.143122
2.084000	 -0.271100
2.168000	 0.009550
2.252000	 -0.383612
2.336000	 0.058975
2.420000	 0.111505
2.504000	 0.103814
2.588000	 -0.003850
2.672000	 0.043210
2.756000	 -0.000752
2.840000	 -0.027828
2.924000	 0.111655
3.008000	 0.043713
3.092000	 0.182435
3.176000	 0.054067
3.260000	 0.103835
3.344000	 0.097166
3.428000	 0.043879
3.512000	 0.136353
3.596000	 -0.044667
3.680000	 0.186072
3.764000	 -0.008225
3.848000	 0.073697
3.932000	 0.002486
4.016000	 -0.078559
4.100000	 0.119053
4.184000	 -0.022089
4.268000	 0.109137
4.352000	 0.260417
4.436000	 0.935794
4.520000	 2.361105
4.604000	 4.935990
4.688000	 8.810133
4.772000	 12.7417
4.856000	 16.5726
4.940000	 20.0719
5.024000	 22.7264
5.108000	 24.8434
5.192000	 26.3136
5.276000	 27.4592
5.359999	 28.362
5.444000	 29.0193
5.528000	 29.454
5.612000	 29.6977
5.696000	 30.0532
5.780000	 30.4296
5.864000	 30.2577
5.948000	 30.5369
6.032000	 30.5249
6.116000	 30.5723
6.200000	 30.6428
6.284000	 30.4954
6.368000	 30.5144
6.452000	 30.5839
6.536000	 30.6152
6.620000	 30.7526
6.704000	 30.4413
6.788000	 30.5319
6.872000	 30.2447
6.956000	 30.5085
7.040000	 30.4532
7.124000	 30.338
7.208000	 30.5069
7.292000	 30.1983
7.376000	 30.2037
7.460000	 30.3882
7.544000	 30.3031
7.628000	 30.2117
7.712000	 30.1969
7.796000	 30.1961
7.880000	 29.9328
7.964000	 30.0271
8.048000	 30.0787
8.132000	 29.9372
8.216000	 29.9348
8.300000	 29.9403
8.384000	 29.8457
8.468000	 29.7805
8.552000	 29.7059
8.635999	 29.6055
8.719999	 29.6459
8.804000	 29.5447
8.888000	 29.665
8.972000	 29.4879
9.056000	 29.5363
9.140000	 29.4729
9.224000	 29.3601
9.308000	 28.9173
9.391999	 29.2053
9.475999	 29.0062
9.560000	 29.1841
9.644000	 29.1045
9.728000	 28.8723
9.812000	 28.5788
9.896000	 28.8479
9.980000	 28.5597
10.064	28.5366
10.148	28.7462
10.232	28.4349
10.316	28.4158
10.4	28.2218
10.484	28.0949
10.568	28.2315
10.652	28.2768
10.736	28.1383
10.82	27.9393
10.904	27.7735
10.988	27.7261
11.072	27.5142
11.156	27.5828
11.24	27.6656
11.324	27.62
11.408	27.5991
11.492	27.474
11.576	27.0837
11.66	27.0503
11.744	26.9534
11.828	27.0151
11.912	27.2606
11.996	27.2233
12.08	27.0258
12.164	26.5123
12.248	26.415
12.332	26.5025
12.416	26.3108
12.5	26.3252
12.584	26.3049
12.668	26.2466
12.752	26.136
12.836	26.0084
12.92	26.0221
13.004	25.8573
13.088	25.597
13.172	25.4371
13.256	25.3619
13.34	25.4912
13.424	25.5962
13.508	25.4904
13.592	25.5159
13.676	25.5754
13.76	25.4199
13.844	25.2379
13.928	24.9605
14.012	24.6785
14.096	24.6714
14.18	24.5346
14.264	24.1857
14.348	24.1581
14.432	24.3702
14.516	24.3583
14.6	24.1867
14.684	24.0998
14.768	24.1035
14.852	24.1777
14.936	24.1595
15.02	23.9296
15.104	23.6344
15.188	23.3976
15.272	23.3413
15.356	23.5133
15.44	23.6818
15.524	23.5989
15.608	23.289
15.692	23.0122
15.776	22.9302
15.86	22.9986
15.944	23.1406
16.028	23.229
16.112	23.1756
16.196	23.0425
16.28	22.8821
16.364	22.7027
16.448	22.5233
16.532	22.3515
16.616	22.2316
16.7	22.188
16.784	22.1596
16.868	22.1489
16.952	22.1648
17.036	22.1195
17.12	22.0408
17.204	22.0777
17.288	22.1539
17.372	22.0483
17.456	21.7958
17.54	21.595
17.624	21.4714
17.708	21.3271
17.792	21.163
17.876	21.0445
17.96	20.9561
18.044	20.8541
18.128	20.7888
18.212	20.8562
18.296	21.0581
18.38	21.2789
18.464	21.4006
18.548	21.4043
18.632	21.3384
18.716	21.2366
18.8	21.0841
18.884	20.8533
18.968	20.5568
19.052	20.244
19.136	19.9522
19.22	19.6771
19.304	19.4016
19.388	19.1664
19.472	19.0691
19.556	19.1647
19.64	19.3841
19.724	19.6056
19.808	19.7592
19.892	19.8357
19.976	19.8281
20.06	19.7209
20.144	19.546
20.228	19.4021
20.312	19.3805
20.396	19.4762
20.48	19.5888
20.564	19.5997
20.648	19.4474
20.732	19.1441
20.816	18.754
20.9	18.3798
20.984	18.1234
21.068	18.0356
21.152	18.0666
21.236	18.0873
21.32	17.9856
21.404	17.7515
21.488	17.4709
21.572	17.2226
21.656	16.996
21.74	16.7091
21.824	16.3229
21.908	15.9392
21.992	15.7705
22.076	16.0074
22.16	16.6722
22.244	17.5822
22.328	18.455
22.412	19.0475
22.496	19.2643
22.58	19.1529
22.664	18.8227
22.748	18.3865
22.832	17.9295
22.916	17.5149
23	17.1773
23.084	16.9221
23.168	16.7127
23.252	16.473
23.336	16.1072
23.42	15.5625
23.504	14.8179
23.588	13.9349
23.672	13.0599
23.756	12.3807
23.84	12.0347
23.924	12.0644
24.008	12.3774
24.092	12.7555
24.176	12.9562
24.26	12.8088
24.344	12.3032
24.428	11.6201
24.512	11.0611
24.596	10.9456
24.68	11.3756
24.764	12.0668
24.848	12.4589
24.932	11.8981
25.016	10.0096
25.1	6.896764
25.184	3.163621
25.268	-0.316835
25.352	-2.768691
25.436	-3.468153
25.52	-2.032549
25.604	1.427140
25.688	6.291774
25.772	11.466
25.856	15.7329
25.94	18.4601
26.024	19.8114
26.108	20.615
26.192	21.8697
26.276	24.2832
26.36	27.9165
26.444	32.3277
26.528	36.7955
26.612	40.7457
26.696	43.6976
26.78	45.3285
26.864	45.4744
26.948	43.9674
27.028	40.6934