File: Bakgrunnsmateriale/MATLAB/FTIR/ftir_data/LPE454/Mapping_121/LPE454_t18_cm-1.asc
PE IR       SPECTRUM    SPECTRUM    ASCII       PEDS        1.60
  -1
LPE7B9~1.ASC
17/05/19
15:48:21.00
17/05/19
15:48:21.00
tln
$LPE454_t0018$<tbV0>[-2.6,-10.4,8.0,0.0,27,1,0]
370
64

2002,4.07
MIRTGS : RIGHTBACK : INTERNAL 2
MIR : ON : INTERNAL 2
OPTKBR

0.200000
8
8.000000
FILLER
RATIO
SPECTRUM
UNLOCKED 256

DOUBLE
64
COMBINED
1
0
0

1.000000
RATIO

1
0
TRUE
51149
0
LEFT NOT FITTED RIGHT NOT FITTED 0
NONE
NONE
15600
12
4.427000
51148
TRUE
1 0 8 72 0 0 0 0

15798

#HDR
-1
-1
#GR
CM-1
%T
2.38419e-05
0.0
5000
-1.000000
4631
8
42.0396
-8.708095
#DATA
5000	0.446844
4984	0.311326
4968	-0.162935
4952	0.084877
4936	0.217723
4920	0.001215
4904	0.519156
4888	-0.169897
4872	-0.084257
4856	0.341606
4840	-0.084972
4824	0.238370
4808	0.166702
4792	0.038933
4776	-0.032210
4760	0.313901
4744	0.285840
4728	0.073194
4712	0.233411
4696	-0.977110
4680	0.078558
4664	-0.457882
4648	-0.691914
4632	0.185275
4616	1.084971
4600	-0.518751
4584	-0.203275
4568	-0.535321
4552	-0.296235
4536	-0.241756
4520	-0.880289
4504	2.290844
4488	17.5167
4472	-1.240515
4456	-1.018738
4440	-0.276327
4424	-0.407123
4408	-0.037169
4392	0.503897
4376	-0.142121
4360	0.547504
4344	0.107359
4328	0.419306
4312	-0.041508
4296	-0.049757
4280	0.518465
4264	0.007700
4248	-0.062417
4232	-0.023746
4216	0.000286
4200	-0.222110
4184	0.077033
4168	0.032734
4152	0.179028
4136	-0.288748
4120	-0.134277
4104	0.233983
4088	-0.002264
4072	0.197649
4056	0.095438
4040	-0.013518
4024	0.083136
4008	0.198316
3992	0.006294
3976	0.122427
3960	0.107407
3944	0.005197
3928	0.086283
3912	0.058126
3896	0.096678
3880	0.292372
3864	0.088024
3848	0.038409
3832	-0.202941
3816	0.127863
3800	-0.029802
3784	0.099182
3768	0.113296
3752	0.188493
3736	0.034809
3720	0.055289
3704	0.124549
3688	-0.159931
3672	-0.035500
3656	0.211548
3640	0.232577
3624	0.016665
3608	-0.072264
3592	0.135231
3576	0.254583
3560	0.110459
3544	0.129294
3528	0.021171
3512	0.039100
3496	-0.048375
3480	0.132155
3464	-0.071454
3448	-0.146770
3432	0.062155
3416	-0.053095
3400	0.103306
3384	-0.019025
3368	0.207376
3352	0.075101
3336	0.027728
3320	0.049424
3304	0.064301
3288	0.064420
3272	0.162434
3256	0.123667
3240	0.182700
3224	0.119233
3208	0.009417
3192	0.177574
3176	0.049471
3160	0.115823
3144	0.078463
3128	-0.058221
3112	-0.055813
3096	0.000357
3080	0.015759
3064	0.044941
3048	0.058221
3032	-0.009059
3016	0.276565
3000	0.028347
2984	0.050377
2968	-0.037550
2952	-0.037956
2936	0.205230
2920	-0.028109
2904	0.205421
2888	0.000023
2872	-0.103235
2856	0.161886
2840	0.010204
2824	0.056576
2808	0.064325
2792	0.020718
2776	-0.042629
2760	0.153470
2744	0.180935
2728	-0.005650
2712	0.005459
2696	-0.029850
2680	-0.036692
2664	0.128722
2648	-0.010800
2632	0.020933
2616	0.085973
2600	0.136590
2584	0.043034
2568	0.125837
2552	-0.001239
2536	0.077223
2520	-0.120711
2504	0.122308
2488	0.045561
2472	0.032591
2456	0.099062
2440	0.211501
2424	-0.027179
2408	-0.038027
2392	0.018501
2376	0.004434
2360	0.104331
2344	0.053167
2328	0.238180
2312	0.319337
2296	0.374221
2280	0.570845
2264	0.906181
2248	1.304817
2232	1.707553
2216	2.466201
2200	3.135752
2184	4.277205
2168	5.421233
2152	6.431555
2136	7.953357
2120	9.396553
2104	10.7835
2088	12.2838
2072	13.7989
2056	14.8413
2040	16.2289
2024	17.4339
2008	18.4657
1992	19.3909
1976	20.2407
1960	20.9351
1944	21.6272
1928	22.2297
1912	22.7711
1896	23.2596
1880	23.5562
1864	23.9302
1848	24.3078
1832	24.5598
1816	24.7559
1800	25.1468
1784	25.2857
1768	25.4471
1752	25.6461
1736	25.7704
1720	25.8445
1704	25.8755
1688	26.3391
1672	26.3289
1656	26.4855
1640	26.5221
1624	26.6762
1608	26.6354
1592	26.8646
1576	26.9288
1560	27.0326
1544	26.9675
1528	27.1621
1512	27.2213
1496	27.1078
1480	27.3312
1464	27.4199
1448	27.462
1432	27.481
1416	27.7547
1400	27.5149
1384	27.6138
1368	27.9857
1352	27.7588
1336	27.7875
1320	28.1012
1304	28.0363
1288	27.9042
1272	28.0189
1256	28.3695
1240	28.3422
1224	28.2295
1208	28.5821
1192	28.655
1176	28.1968
1160	28.4779
1144	28.7693
1128	28.5678
1112	28.4206
1096	28.7293
1080	29.0339
1064	28.5406
1048	28.5368
1032	28.8504
1016	28.8792
1000	28.3594
984	 28.6932
968	 28.7493
952	 28.1985
936	 28.3308
920	 29.1247
904	 28.2854
888	 27.8221
872	 28.5318
856	 28.3241
840	 27.8788
824	 27.614
808	 28.2206
792	 27.6056
776	 27.038
760	 27.6952
744	 27.2237
728	 26.2188
712	 26.3662
696	 26.6517
680	 26.4373
664	 25.0523
648	 25.8439
632	 25.6366
616	 24.9033
600	 24.8509
584	 24.9979
568	 24.0782
552	 23.7383
536	 24.5582
520	 23.6626
504	 22.3097
488	 21.2351
472	 22.3743
456	 18.8745
440	 18.1285
424	 16.9176
408	 17.1681
392	 -4.975628
376	 35.8433
370	 3.334999