File: Bakgrunnsmateriale/MATLAB/FTIR/ftir_data/LPE454/Mapping_121/LPE454_t109_cm-1.asc
PE IR       SPECTRUM    SPECTRUM    ASCII       PEDS        1.60
  -1
LP0CDC~1.ASC
17/05/19
23:17:37.00
17/05/19
23:17:37.00
tln
$LPE454_t0109$<tbV0>[-10.4,10.4,8.0,0.0,27,1,0]
370
64

2002,4.07
MIRTGS : RIGHTBACK : INTERNAL 2
MIR : ON : INTERNAL 2
OPTKBR

0.200000
8
8.000000
FILLER
RATIO
SPECTRUM
UNLOCKED 256

DOUBLE
64
COMBINED
1
0
0

1.000000
RATIO

1
0
TRUE
51149
0
LEFT NOT FITTED RIGHT NOT FITTED 0
NONE
NONE
15600
12
4.427000
51148
TRUE
1 0 8 72 0 0 0 0

15798

#HDR
-1
-1
#GR
CM-1
%T
2.38419e-05
0.0
5000
-1.000000
4631
8
58.8576
-20.7086
#DATA
5000	0.645756
4984	0.486159
4968	0.132846
4952	0.445246
4936	0.585055
4920	0.406622
4904	0.403952
4888	0.492382
4872	0.226879
4856	0.075149
4840	0.171685
4824	0.276827
4808	-0.171113
4792	0.252723
4776	0.703024
4760	0.451564
4744	0.698351
4728	0.588107
4712	0.895738
4696	0.374150
4680	-0.248265
4664	-0.723171
4648	-0.714230
4632	-1.741218
4616	-0.266504
4600	6.738424
4584	31.7961
4568	-2.447342
4552	-2.063488
4536	-2.699184
4520	-1.340770
4504	-1.122236
4488	-0.218248
4472	0.204801
4456	0.286793
4440	0.564670
4424	0.332021
4408	0.181722
4392	0.349307
4376	0.132918
4360	0.024056
4344	0.049090
4328	0.328683
4312	0.381112
4296	0.547003
4280	0.270509
4264	0.363254
4248	0.310373
4232	0.104427
4216	0.370573
4200	0.206685
4184	-0.009655
4168	0.543951
4152	0.188541
4136	0.255513
4120	0.184202
4104	0.397491
4088	0.314784
4072	0.279808
4056	-0.121855
4040	-0.048804
4024	0.011491
4008	0.329899
3992	0.179123
3976	-0.083088
3960	0.000190
3944	0.216150
3928	0.163102
3912	-0.070118
3896	-0.001049
3880	0.042700
3864	0.036692
3848	0.191640
3832	-0.073814
3816	0.235772
3800	0.067257
3784	0.141835
3768	0.087022
3752	0.016760
3736	0.029134
3720	0.170445
3704	-0.080752
3688	0.117611
3672	-0.087618
3656	0.204777
3640	0.207519
3624	0.077295
3608	0.134611
3592	0.076246
3576	0.008034
3560	-0.074601
3544	0.045132
3528	-0.014686
3512	0.071144
3496	-0.014948
3480	0.240540
3464	-0.098752
3448	0.116062
3432	0.046205
3416	-0.008130
3400	-0.052452
3384	0.090456
3368	0.089335
3352	0.093746
3336	-0.094246
3320	-0.003504
3304	0.058054
3288	-0.055241
3272	0.037765
3256	0.234341
3240	0.073957
3224	0.019884
3208	0.056171
3192	0.080752
3176	0.005412
3160	0.041770
3144	0.155520
3128	0.197720
3112	-0.083088
3096	0.169062
3080	-0.003838
3064	-0.027537
3048	0.025510
3032	0.154685
3016	0.051450
3000	0.064206
2984	0.032973
2968	0.192236
2952	-0.084495
2936	0.001716
2920	0.157690
2904	0.056886
2888	0.154376
2872	-0.040745
2856	0.108766
2840	-0.042128
2824	0.051903
2808	0.032639
2792	0.044417
2776	-0.048780
2760	0.061583
2744	-0.013518
2728	0.012230
2712	0.101661
2696	0.031089
2680	0.053358
2664	-0.028729
2648	0.023245
2632	0.075125
2616	0.143289
2600	0.056123
2584	0.060963
2568	-0.009775
2552	0.042200
2536	-0.084042
2520	0.020790
2504	0.058007
2488	0.014066
2472	-0.005722
2456	0.193595
2440	0.019645
2424	0.165009
2408	0.149917
2392	0.075936
2376	0.161361
2360	0.115966
2344	0.417542
2328	0.500392
2312	0.775218
2296	1.043844
2280	1.407027
2264	2.056527
2248	2.690458
2232	3.474116
2216	4.495501
2200	5.736541
2184	7.093691
2168	8.567833
2152	10.0226
2136	11.8887
2120	13.5925
2104	15.1906
2088	16.6933
2072	18.2486
2056	19.8712
2040	20.9962
2024	22.0925
2008	23.3343
1992	24.0963
1976	24.8253
1960	25.6125
1944	26.3258
1928	26.6287
1912	26.9423
1896	27.6172
1880	27.861
1864	27.8763
1848	28.0645
1832	28.5595
1816	28.5686
1800	28.5403
1784	28.808
1768	29.0525
1752	29.0764
1736	28.7092
1720	28.9372
1704	29.2232
1688	29.0347
1672	28.9175
1656	29.0746
1640	29.2696
1624	29.1427
1608	28.8436
1592	28.9692
1576	29.3766
1560	28.9868
1544	28.8504
1528	29.1197
1512	29.32
1496	28.9486
1480	28.6362
1464	29.2096
1448	29.3043
1432	28.6448
1416	28.4542
1400	28.8041
1384	29.0467
1368	28.5221
1352	28.1265
1336	28.7624
1320	28.9724
1304	28.5088
1288	28.0235
1272	28.5511
1256	28.7814
1240	28.3033
1224	28.0371
1208	28.2962
1192	28.4609
1176	27.9567
1160	27.6098
1144	27.9669
1128	28.1745
1112	27.7096
1096	27.3124
1080	27.6888
1064	27.9501
1048	27.523
1032	26.8755
1016	27.1111
1000	27.5154
984	 27.1715
968	 26.0957
952	 26.5709
936	 26.7961
920	 26.4786
904	 25.8939
888	 25.8485
872	 26.1371
856	 25.7449
840	 24.9061
824	 25.1158
808	 25.2825
792	 24.9671
776	 23.9142
760	 24.1588
744	 24.2309
728	 23.7039
712	 22.9416
696	 23.1744
680	 23.2771
664	 22.5276
648	 21.9082
632	 21.4334
616	 21.9247
600	 21.4101
584	 20.3577
568	 20.1467
552	 21.1483
536	 21.7107
520	 16.711
504	 16.806
488	 18.7753
472	 18.2016
456	 14.4357
440	 16.9644
424	 13.1232
408	 9.634971
392	 31.027
376	 -19.4634
370	 1.837730