File: Bakgrunnsmateriale/MATLAB/FTIR/ftir_data/LPE454/Mapping_121/LPE454_t118.asc
PE IR       SPECTRUM    SPECTRUM    ASCII       PEDS        1.60
  -1
LP931E~1.ASC
17/05/20
00:19:49.00
17/05/20
00:20:15.00
tln
$LPE454_t0118$<tbV0>[-5.2,13.0,8.0,0.0,27,1,0]
27.028
64

2002,4.07
MIRTGS : RIGHTBACK : INTERNAL 2
MIR : ON : INTERNAL 2
OPTKBR

0.200000
8
8.000000
FILLER
RATIO
SPECTRUM
UNLOCKED 256

DOUBLE
64
COMBINED
1
0
0

0.002000
RATIO

1
0
TRUE
51149
0
LEFT NOT FITTED RIGHT NOT FITTED 0
NONE
NONE
15600
12
4.427000
51148
TRUE
1 0 8 72 0 0 0 0

15798

#HDR
-1
-1
#GR
µM
%T
2.38419e-05
0.0
2.000000
0.002000
12515
8
34.3058
-2.216630
#DATA
2.000000	 -0.100803
2.084000	 0.338481
2.168000	 0.230173
2.252000	 0.510622
2.336000	 0.425324
2.420000	 -0.083107
2.504000	 0.153546
2.588000	 0.204206
2.672000	 -0.004062
2.756000	 0.160106
2.840000	 -0.082754
2.924000	 0.013677
3.008000	 0.024213
3.092000	 0.026532
3.176000	 0.069768
3.260000	 -0.036327
3.344000	 0.059701
3.428000	 -0.042518
3.512000	 0.052582
3.596000	 0.095059
3.680000	 0.038612
3.764000	 0.135553
3.848000	 -0.033539
3.932000	 -0.022682
4.016000	 -0.062385
4.100000	 0.014903
4.184000	 0.147787
4.268000	 0.374183
4.352000	 0.894452
4.436000	 2.335706
4.520000	 4.884942
4.604000	 8.558937
4.688000	 12.85
4.772000	 17.039
4.856000	 20.6799
4.940000	 23.9509
5.024000	 26.2498
5.108000	 28.1106
5.192000	 29.6764
5.276000	 30.6101
5.359999	 31.5676
5.444000	 32.1441
5.528000	 32.7655
5.612000	 33.0414
5.696000	 33.269
5.780000	 33.6428
5.864000	 33.4718
5.948000	 33.8468
6.032000	 33.8757
6.116000	 34.0053
6.200000	 34.0635
6.284000	 33.9989
6.368000	 34.1199
6.452000	 34.1017
6.536000	 33.9582
6.620000	 34.2574
6.704000	 33.9376
6.788000	 33.994
6.872000	 33.8989
6.956000	 34.1703
7.040000	 33.9006
7.124000	 33.7575
7.208000	 34.0818
7.292000	 33.9248
7.376000	 33.8714
7.460000	 33.8814
7.544000	 34.0058
7.628000	 34.007
7.712000	 33.9022
7.796000	 33.7385
7.880000	 33.8077
7.964000	 33.9518
8.048000	 33.8027
8.132000	 33.5015
8.216000	 33.5562
8.300000	 33.8311
8.384000	 33.8007
8.468000	 33.5242
8.552000	 33.3294
8.635999	 33.3788
8.719999	 33.3668
8.804000	 33.5842
8.888000	 33.3905
8.972000	 33.1756
9.056000	 32.9637
9.140000	 33.0829
9.224000	 33.2482
9.308000	 33.4223
9.391999	 33.3038
9.475999	 32.9567
9.560000	 32.8054
9.644000	 32.8204
9.728000	 32.8808
9.812000	 32.8383
9.896000	 32.8878
9.980000	 32.8603
10.064	32.7735
10.148	32.5953
10.232	32.2041
10.316	32.3599
10.4	32.5409
10.484	32.6879
10.568	32.5595
10.652	32.3713
10.736	32.075
10.82	31.8225
10.904	31.7946
10.988	31.8581
11.072	32.1632
11.156	32.2381
11.24	32.0253
11.324	32.0463
11.408	32.0803
11.492	31.5739
11.576	31.4311
11.66	31.5
11.744	31.4968
11.828	31.3763
11.912	31.4044
11.996	31.3268
12.08	31.422
12.164	31.2409
12.248	31.3521
12.332	31.3662
12.416	30.9294
12.5	30.6217
12.584	30.6849
12.668	30.7025
12.752	30.6557
12.836	30.6703
12.92	30.7384
13.004	30.7863
13.088	30.8442
13.172	30.7323
13.256	30.5669
13.34	30.4721
13.424	30.1606
13.508	29.8975
13.592	29.7505
13.676	29.5324
13.76	29.4316
13.844	29.5086
13.928	29.6935
14.012	29.9595
14.096	30.1287
14.18	30.0394
14.264	29.8915
14.348	29.8583
14.432	29.7479
14.516	29.4424
14.6	29.2175
14.684	29.0448
14.768	28.8807
14.852	28.9109
14.936	28.9685
15.02	28.9913
15.104	29.1729
15.188	29.3896
15.272	29.3653
15.356	29.1934
15.44	29.1093
15.524	29.0675
15.608	28.953
15.692	28.7544
15.776	28.4949
15.86	28.3041
15.944	28.2894
16.028	28.3313
16.112	28.272
16.196	28.0905
16.28	27.8066
16.364	27.4899
16.448	27.3255
16.532	27.419
16.616	27.6543
16.7	27.8176
16.784	27.7555
16.868	27.5008
16.952	27.2939
17.036	27.313
17.12	27.4473
17.204	27.4924
17.288	27.4117
17.372	27.3088
17.456	27.2561
17.54	27.2125
17.624	27.097
17.708	26.9136
17.792	26.7497
17.876	26.6437
17.96	26.5478
18.044	26.4371
18.128	26.3438
18.212	26.2784
18.296	26.2055
18.38	26.1198
18.464	26.07
18.548	26.0798
18.632	26.0965
18.716	26.0481
18.8	25.9371
18.884	25.8522
18.968	25.9042
19.052	26.1278
19.136	26.4108
19.22	26.5551
19.304	26.4486
19.388	26.1662
19.472	25.8689
19.556	25.6485
19.64	25.5029
19.724	25.438
19.808	25.469
19.892	25.5062
19.976	25.3442
20.06	24.861
20.144	24.2063
20.228	23.7249
20.312	23.6744
20.396	24.0195
20.48	24.5112
20.564	24.896
20.648	25.0387
20.732	24.9194
20.816	24.6043
20.9	24.2189
20.984	23.9101
21.068	23.7852
21.152	23.8799
21.236	24.1684
21.32	24.572
21.404	24.9759
21.488	25.2244
21.572	25.1769
21.656	24.81
21.74	24.2543
21.824	23.7228
21.908	23.3542
21.992	23.1162
22.076	22.8618
22.16	22.462
22.244	21.925
22.328	21.415
22.412	21.1753
22.496	21.4012
22.58	22.1366
22.664	23.256
22.748	24.4608
22.832	25.3851
22.916	25.6879
23	25.2151
23.084	24.0527
23.168	22.5422
23.252	21.1321
23.336	20.2487
23.42	20.1315
23.504	20.7987
23.588	22.0136
23.672	23.3847
23.756	24.4789
23.84	24.9703
23.924	24.7365
24.008	23.8673
24.092	22.6137
24.176	21.3041
24.26	20.2052
24.344	19.4567
24.428	19.0153
24.512	18.6735
24.596	18.1554
24.68	17.2482
24.764	15.929
24.848	14.3672
24.932	12.9312
25.016	12.0352
25.1	11.9461
25.184	12.7088
25.268	14.1096
25.352	15.7753
25.436	17.3412
25.52	18.6042
25.604	19.5524
25.688	20.3621
25.772	21.2489
25.856	22.3063
25.94	23.5475
26.024	24.8752
26.108	26.0988
26.192	27.0017
26.276	27.4009
26.36	27.2838
26.444	26.5991
26.528	25.2404
26.612	23.2218
26.696	20.6058
26.78	17.5
26.864	14.1137
26.948	10.7183
27.028	7.745909