File: Bakgrunnsmateriale/MATLAB/FTIR/ftir_data/LPE454/Mapping_121/LPE454_t11.asc
PE IR       SPECTRUM    SPECTRUM    ASCII       PEDS        1.60
  -1
LPC798~1.ASC
17/05/19
15:15:27.00
17/05/19
15:15:54.00
tln
$LPE454_t0011$<tbV0>[-13.0,-13.0,8.0,0.0,27,1,0]
27.028
64

2002,4.07
MIRTGS : RIGHTBACK : INTERNAL 2
MIR : ON : INTERNAL 2
OPTKBR

0.200000
8
8.000000
FILLER
RATIO
SPECTRUM
UNLOCKED 256

DOUBLE
64
COMBINED
1
0
0

0.002000
RATIO

1
0
TRUE
51149
0
LEFT NOT FITTED RIGHT NOT FITTED 0
NONE
NONE
15600
12
4.427000
51148
TRUE
1 0 8 72 0 0 0 0

15798

#HDR
-1
-1
#GR
µM
%T
2.38419e-05
0.0
2.000000
0.002000
12515
8
15.6062
-64.8042
#DATA
2.000000	 0.265979
2.084000	 1.649646
2.168000	 0.875773
2.252000	 -0.901883
2.336000	 0.102456
2.420000	 0.134440
2.504000	 0.009763
2.588000	 -0.018820
2.672000	 0.195586
2.756000	 0.129511
2.840000	 0.152472
2.924000	 0.133646
3.008000	 0.105724
3.092000	 0.119092
3.176000	 0.012719
3.260000	 -0.028164
3.344000	 0.169844
3.428000	 0.034598
3.512000	 0.073975
3.596000	 0.079530
3.680000	 0.036362
3.764000	 0.039247
3.848000	 0.163106
3.932000	 -0.020118
4.016000	 0.011112
4.100000	 0.142306
4.184000	 0.004871
4.268000	 -0.096243
4.352000	 0.029308
4.436000	 0.066513
4.520000	 0.119445
4.604000	 0.204528
4.688000	 0.275508
4.772000	 0.300695
4.856000	 0.545990
4.940000	 0.530614
5.024000	 0.537474
5.108000	 0.526485
5.192000	 0.555069
5.276000	 0.645624
5.359999	 0.623368
5.444000	 0.657991
5.528000	 0.615469
5.612000	 0.746617
5.696000	 0.654082
5.780000	 0.740876
5.864000	 0.621911
5.948000	 0.701426
6.032000	 0.770084
6.116000	 0.611278
6.200000	 0.708179
6.284000	 0.752495
6.368000	 0.805303
6.452000	 0.909911
6.536000	 0.756612
6.620000	 0.763296
6.704000	 0.740481
6.788000	 0.802616
6.872000	 0.892582
6.956000	 0.993803
7.040000	 0.807058
7.124000	 0.755613
7.208000	 0.801402
7.292000	 0.943366
7.376000	 0.813421
7.460000	 0.778201
7.544000	 0.878012
7.628000	 0.875715
7.712000	 0.940776
7.796000	 0.973146
7.880000	 1.173547
7.964000	 1.094084
8.048000	 0.893631
8.132000	 1.079956
8.216000	 1.127456
8.300000	 1.026117
8.384000	 1.066578
8.468000	 1.008222
8.552000	 1.199969
8.635999	 1.001322
8.719999	 1.066699
8.804000	 1.024699
8.888000	 1.186525
8.972000	 1.188572
9.056000	 1.073010
9.140000	 1.055001
9.224000	 1.168938
9.308000	 1.385422
9.391999	 1.227278
9.475999	 1.117177
9.560000	 1.008641
9.644000	 1.240753
9.728000	 1.401368
9.812000	 1.068135
9.896000	 1.233874
9.980000	 1.331217
10.064	1.196275
10.148	1.082096
10.232	1.150651
10.316	1.332495
10.4	1.216385
10.484	1.414368
10.568	1.562973
10.652	1.394561
10.736	1.412250
10.82	1.296996
10.904	1.314787
10.988	1.331941
11.072	1.379908
11.156	1.533257
11.24	1.415488
11.324	1.449550
11.408	1.543843
11.492	1.612901
11.576	1.406954
11.66	1.473868
11.744	1.480153
11.828	1.329532
11.912	1.293416
11.996	1.432659
12.08	1.692447
12.164	1.730832
12.248	1.646796
12.332	1.648697
12.416	1.559368
12.5	1.374745
12.584	1.318717
12.668	1.410019
12.752	1.697352
12.836	1.796900
12.92	1.695606
13.004	1.694146
13.088	1.680073
13.172	1.961860
13.256	2.095779
13.34	1.824351
13.424	1.673588
13.508	1.646616
13.592	1.612621
13.676	1.726159
13.76	1.838660
13.844	1.851492
13.928	1.849747
14.012	1.782581
14.096	1.788027
14.18	1.898817
14.264	2.040801
14.348	2.231895
14.432	2.402998
14.516	2.315631
14.6	2.020331
14.684	1.910010
14.768	2.063054
14.852	2.229430
14.936	2.076878
15.02	1.657181
15.104	1.473455
15.188	1.690076
15.272	1.930184
15.356	1.968936
15.44	1.937153
15.524	1.873667
15.608	1.846245
15.692	2.062143
15.776	2.381472
15.86	2.494793
15.944	2.396634
16.028	2.258350
16.112	2.170943
16.196	2.123692
16.28	2.094302
16.364	2.100198
16.448	2.144087
16.532	2.250338
16.616	2.419091
16.7	2.526104
16.784	2.483484
16.868	2.380609
16.952	2.319070
17.036	2.274200
17.12	2.174397
17.204	1.994726
17.288	1.802937
17.372	1.713042
17.456	1.761443
17.54	1.877923
17.624	2.008181
17.708	2.182165
17.792	2.417204
17.876	2.618205
17.96	2.638426
18.044	2.432549
18.128	2.129703
18.212	1.925036
18.296	1.897231
18.38	1.942334
18.464	1.910266
18.548	1.794346
18.632	1.749235
18.716	1.897308
18.8	2.177755
18.884	2.434141
18.968	2.589039
19.052	2.671453
19.136	2.705162
19.22	2.672824
19.304	2.601151
19.388	2.583992
19.472	2.671631
19.556	2.786747
19.64	2.790062
19.724	2.631131
19.808	2.401315
19.892	2.258861
19.976	2.303622
20.06	2.505729
20.144	2.719489
20.228	2.776249
20.312	2.624164
20.396	2.394400
20.48	2.308890
20.564	2.491493
20.648	2.842659
20.732	3.112937
20.816	3.106557
20.9	2.836735
20.984	2.505626
21.068	2.344466
21.152	2.460794
21.236	2.790136
21.32	3.152034
21.404	3.368028
21.488	3.362863
21.572	3.195320
21.656	3.011063
21.74	2.951538
21.824	3.066834
21.908	3.286677
21.992	3.491578
22.076	3.598977
22.16	3.593861
22.244	3.517164
22.328	3.405751
22.412	3.280594
22.496	3.167039
22.58	3.113105
22.664	3.176771
22.748	3.388076
22.832	3.721820
22.916	4.114527
23	4.461297
23.084	4.690255
23.168	4.749985
23.252	4.584417
23.336	4.130409
23.42	3.376241
23.504	2.377315
23.588	1.301366
23.672	0.374675
23.756	-0.215691
23.84	-0.352692
23.924	-0.089559
24.008	0.360930
24.092	0.729566
24.176	0.837871
24.26	0.838310
24.344	1.190495
24.428	2.379295
24.512	4.716042
24.596	7.997412
24.68	11.5065
24.764	14.2754
24.848	15.5666
24.932	14.9977
25.016	12.6796
25.1	9.115588
25.184	4.904916
25.268	0.480597
25.352	-3.950136
25.436	-8.283672
25.52	-12.3579
25.604	-15.888
25.688	-18.6078
25.772	-20.508
25.856	-21.9608
25.94	-23.547
26.024	-25.9398
26.108	-29.6351
26.192	-35
26.276	-41.96
26.36	-49.8364
26.444	-57.3267
26.528	-62.8202
26.612	-64.8001
26.696	-62.3592
26.78	-55.6166
26.864	-45.9143
26.948	-35.4102
27.028	-26.8717