File: Bakgrunnsmateriale/MATLAB/FTIR/ftir_data/LPE454/Mapping_121/LPE454_t09.asc
PE IR       SPECTRUM    SPECTRUM    ASCII       PEDS        1.60
  -1
LPE398~1.ASC
17/05/19
15:06:14.00
17/05/19
15:06:40.00
tln
$LPE454_t0009$<tbV0>[-7.8,-13.0,8.0,0.0,27,1,0]
27.028
64

2002,4.07
MIRTGS : RIGHTBACK : INTERNAL 2
MIR : ON : INTERNAL 2
OPTKBR

0.200000
8
8.000000
FILLER
RATIO
SPECTRUM
UNLOCKED 256

DOUBLE
64
COMBINED
1
0
0

0.002000
RATIO

1
0
TRUE
51149
0
LEFT NOT FITTED RIGHT NOT FITTED 0
NONE
NONE
15600
12
4.427000
51148
TRUE
1 0 8 72 0 0 0 0

15798

#HDR
-1
-1
#GR
µM
%T
2.38419e-05
0.0
2.000000
0.002000
12515
8
59.9537
-2.041336
#DATA
2.000000	 -0.031042
2.084000	 2.625069
2.168000	 0.225963
2.252000	 -1.834083
2.336000	 0.225518
2.420000	 0.181733
2.504000	 0.052938
2.588000	 -0.010088
2.672000	 -0.072975
2.756000	 0.027386
2.840000	 -0.102059
2.924000	 -0.066657
3.008000	 0.037127
3.092000	 0.053628
3.176000	 -0.029703
3.260000	 0.124973
3.344000	 -0.018467
3.428000	 0.116086
3.512000	 0.021126
3.596000	 0.058413
3.680000	 0.089443
3.764000	 -0.015378
3.848000	 0.060234
3.932000	 -0.029124
4.016000	 0.122041
4.100000	 -0.030278
4.184000	 0.006354
4.268000	 0.151368
4.352000	 0.601229
4.436000	 1.437492
4.520000	 3.277073
4.604000	 6.084365
4.688000	 9.414696
4.772000	 13.0469
4.856000	 16.1069
4.940000	 18.8528
5.024000	 20.8163
5.108000	 22.6955
5.192000	 23.679
5.276000	 24.822
5.359999	 25.5635
5.444000	 26.1007
5.528000	 26.6886
5.612000	 26.9802
5.696000	 27.5869
5.780000	 27.7224
5.864000	 27.848
5.948000	 28.2657
6.032000	 28.2947
6.116000	 28.8335
6.200000	 28.6214
6.284000	 28.8566
6.368000	 29.0994
6.452000	 28.9094
6.536000	 29.395
6.620000	 29.4654
6.704000	 29.0915
6.788000	 29.8216
6.872000	 29.6001
6.956000	 29.2245
7.040000	 29.8548
7.124000	 30.0538
7.208000	 29.6569
7.292000	 29.7247
7.376000	 30.2671
7.460000	 30.086
7.544000	 29.6755
7.628000	 29.9426
7.712000	 30.2054
7.796000	 30.11
7.880000	 29.5353
7.964000	 29.9738
8.048000	 30.4393
8.132000	 30.2333
8.216000	 29.9302
8.300000	 29.7511
8.384000	 30.2476
8.468000	 30.4213
8.552000	 30.04
8.635999	 29.6964
8.719999	 29.6682
8.804000	 29.9794
8.888000	 30.3685
8.972000	 30.1355
9.056000	 29.7171
9.140000	 29.4366
9.224000	 29.5491
9.308000	 29.9194
9.391999	 30.1796
9.475999	 29.7744
9.560000	 29.4527
9.644000	 29.3565
9.728000	 29.297
9.812000	 29.831
9.896000	 29.9389
9.980000	 29.884
10.064	29.3827
10.148	29.2191
10.232	29.0543
10.316	29.3254
10.4	29.6216
10.484	29.7194
10.568	29.6129
10.652	29.3965
10.736	28.9595
10.82	28.7012
10.904	28.3616
10.988	28.6875
11.072	29.2298
11.156	29.4511
11.24	29.2462
11.324	28.9528
11.408	28.5025
11.492	28.3494
11.576	28.2051
11.66	28.3428
11.744	28.3962
11.828	28.6483
11.912	29.01
11.996	29.0723
12.08	28.7342
12.164	28.3047
12.248	27.9912
12.332	27.7031
12.416	27.6
12.5	27.8509
12.584	27.9119
12.668	27.96
12.752	28.1605
12.836	28.3139
12.92	28.3103
13.004	27.9332
13.088	27.4963
13.172	27.0216
13.256	26.668
13.34	26.6223
13.424	26.6822
13.508	26.7124
13.592	26.7839
13.676	27.1549
13.76	27.3465
13.844	27.2623
13.928	27.256
14.012	27.2173
14.096	27.1539
14.18	26.8832
14.264	26.6315
14.348	26.6059
14.432	26.4694
14.516	26.263
14.6	26.0284
14.684	25.8772
14.768	26.058
14.852	26.3378
14.936	26.5181
15.02	26.6998
15.104	26.8608
15.188	26.8575
15.272	26.6944
15.356	26.4784
15.44	26.199
15.524	25.7666
15.608	25.2874
15.692	24.974
15.776	24.8249
15.86	24.7974
15.944	24.8989
16.028	25.0446
16.112	25.227
16.196	25.4852
16.28	25.667
16.364	25.6989
16.448	25.7468
16.532	25.8132
16.616	25.711
16.7	25.4897
16.784	25.3474
16.868	25.2149
16.952	24.8664
17.036	24.3639
17.12	24.0195
17.204	23.9511
17.288	23.988
17.372	23.9279
17.456	23.734
17.54	23.5412
17.624	23.5188
17.708	23.7122
17.792	24.0409
17.876	24.4044
17.96	24.6823
18.044	24.7272
18.128	24.5163
18.212	24.2362
18.296	24.1018
18.38	24.1317
18.464	24.1568
18.548	24.0069
18.632	23.6504
18.716	23.207
18.8	22.8506
18.884	22.674
18.968	22.6418
19.052	22.6677
19.136	22.7047
19.22	22.7402
19.304	22.7553
19.388	22.7351
19.472	22.7278
19.556	22.831
19.64	23.0897
19.724	23.4331
19.808	23.7226
19.892	23.8583
19.976	23.8474
20.06	23.7681
20.144	23.6629
20.228	23.4826
20.312	23.1731
20.396	22.7842
20.48	22.47
20.564	22.3601
20.648	22.4508
20.732	22.6094
20.816	22.6819
20.9	22.598
20.984	22.3979
21.068	22.1789
21.152	22.0393
21.236	22.0291
21.32	22.1143
21.404	22.201
21.488	22.1788
21.572	21.9897
21.656	21.6581
21.74	21.2704
21.824	20.9319
21.908	20.7203
21.992	20.6579
22.076	20.7063
22.16	20.7734
22.244	20.7458
22.328	20.5595
22.412	20.2687
22.496	20.0764
22.58	20.2152
22.664	20.8233
22.748	21.8217
22.832	22.917
22.916	23.7431
23	24.0362
23.084	23.7519
23.168	23.0782
23.252	22.3082
23.336	21.7139
23.42	21.3995
23.504	21.3238
23.588	21.3536
23.672	21.3705
23.756	21.3512
23.84	21.3746
23.924	21.5934
24.008	22.1779
24.092	23.2656
24.176	24.8995
24.26	26.9468
24.344	29.1074
24.428	31.0155
24.512	32.2606
24.596	32.5988
24.68	32.0502
24.764	30.9225
24.848	29.6762
24.932	28.8364
25.016	28.7655
25.1	29.4548
25.184	30.7727
25.268	32.4794
25.352	34.1466
25.436	35.4166
25.52	36.0784
25.604	36.0518
25.688	35.4375
25.772	34.5965
25.856	34.1324
25.94	34.4632
26.024	36.0224
26.108	39.3626
26.192	44.4174
26.276	50.3827
26.36	55.539
26.444	58.755
26.528	59.7968
26.612	59.9392
26.696	59.7729
26.78	58.1997
26.864	51.926
26.948	37.3844
27.028	15.4579