File: Bakgrunnsmateriale/MATLAB/FTIR/ftir_data/LPE454/Mapping_121/LPE454_e125_cm-1.asc
PE IR       SPECTRUM    SPECTRUM    ASCII       PEDS        1.60
  -1
LP081C~1.ASC
17/05/19
19:50:42.00
17/05/19
19:50:42.00
tln
$LPE454_e0125$<ebV0>[-23.3,12.1,10.0,0.0,27,1,0]
370
64

2002,4.07
MIRTGS : RIGHTBACK : INTERNAL 2
MIR : ON : INTERNAL 2
OPTKBR

0.200000
8
8.000000
FILLER
SINGLE
SPECTRUM
UNLOCKED 256

DOUBLE

COMBINED
1
0
0

1.000000
BACKG

1
0
TRUE
51149
0
LEFT NOT FITTED RIGHT NOT FITTED 0
NONE
NONE
15600
12
4.427000
51148
TRUE
1 0 8 72 0 0 0 0

15798

#HDR
-1
-1
#GR
CM-1
EGY
2.38419e-05
0.0
5000
-1.000000
4631
8
2.427363
0.005984
#DATA
5000	0.772905
4984	0.779151
4968	0.786280
4952	0.794148
4936	0.798988
4920	0.810790
4904	0.809478
4888	0.815415
4872	0.824451
4856	0.835418
4840	0.847196
4824	0.854992
4808	0.865459
4792	0.872516
4776	0.880193
4760	0.889825
4744	0.897240
4728	0.897431
4712	0.898361
4696	0.898051
4680	0.904846
4664	0.903224
4648	0.902938
4632	0.912046
4616	0.913953
4600	0.930404
4584	0.949406
4568	1.058816
4552	0.971174
4536	0.962376
4520	0.970840
4504	0.987958
4488	0.992965
4472	1.000332
4456	1.004648
4440	1.003789
4424	1.003980
4408	1.012611
4392	1.024198
4376	1.029515
4360	1.045179
4344	1.061558
4328	1.084709
4312	1.102828
4296	1.118898
4280	1.146245
4264	1.156997
4248	1.159787
4232	1.177453
4216	1.185560
4200	1.192593
4184	1.200580
4168	1.208496
4152	1.217818
4136	1.228785
4120	1.241683
4104	1.255941
4088	1.278281
4072	1.297998
4056	1.317763
4040	1.339459
4024	1.357984
4008	1.376104
3992	1.389908
3976	1.402330
3960	1.407957
3944	1.412415
3928	1.420521
3912	1.424455
3896	1.429128
3880	1.437211
3864	1.444482
3848	1.456499
3832	1.476073
3816	1.487469
3800	1.506280
3784	1.535010
3768	1.547193
3752	1.538825
3736	1.550364
3720	1.569151
3704	1.569247
3688	1.562285
3672	1.554775
3656	1.563549
3640	1.574039
3624	1.567673
3608	1.575922
3592	1.584267
3576	1.596546
3560	1.607561
3544	1.615619
3528	1.615548
3512	1.615428
3496	1.612687
3480	1.605105
3464	1.599454
3448	1.587343
3432	1.576304
3416	1.578164
3400	1.589250
3384	1.599693
3368	1.612496
3352	1.637339
3336	1.657605
3320	1.682829
3304	1.705098
3288	1.725912
3272	1.743245
3256	1.757836
3240	1.769137
3224	1.775670
3208	1.777362
3192	1.781845
3176	1.786351
3160	1.792407
3144	1.801609
3128	1.816463
3112	1.843094
3096	1.869821
3080	1.899623
3064	1.922488
3048	1.949095
3032	1.963734
3016	1.951146
3000	2.009010
2984	2.012920
2968	1.945900
2952	1.908636
2936	1.804494
2920	1.790595
2904	1.931619
2888	1.981329
2872	1.970529
2856	1.909160
2840	2.050447
2824	2.109432
2808	2.148675
2792	2.177715
2776	2.206945
2760	2.226281
2744	2.236199
2728	2.239537
2712	2.233648
2696	2.227711
2680	2.220654
2664	2.206802
2648	2.197933
2632	2.199888
2616	2.201700
2600	2.206254
2584	2.219724
2568	2.244615
2552	2.264714
2536	2.284193
2520	2.299070
2504	2.302813
2488	2.307629
2472	2.299118
2456	2.283668
2440	2.269077
2424	2.252984
2408	2.239131
2392	2.229642
2376	2.217054
2360	2.214360
2344	2.240991
2328	2.261519
2312	2.293515
2296	2.318143
2280	2.337908
2264	2.349948
2248	2.355408
2232	2.355980
2216	2.346611
2200	2.332592
2184	2.318215
2168	2.310943
2152	2.306365
2136	2.308154
2120	2.308440
2104	2.309846
2088	2.310228
2072	2.328658
2056	2.361774
2040	2.394533
2024	2.414035
2008	2.423715
1992	2.425861
1976	2.416539
1960	2.401638
1944	2.387380
1928	2.373600
1912	2.354860
1896	2.340316
1880	2.343463
1864	2.350306
1848	2.357912
1832	2.373337
1816	2.391695
1800	2.396345
1784	2.396965
1768	2.379131
1752	2.352094
1736	2.291560
1720	2.273178
1704	2.242159
1688	2.215814
1672	2.193450
1656	2.144193
1640	2.121400
1624	2.074790
1608	1.946473
1592	1.987075
1576	1.955056
1560	1.897883
1544	1.924991
1528	2.074432
1512	2.059364
1496	1.678586
1480	1.932215
1464	1.907896
1448	1.759648
1432	1.843214
1416	1.817107
1400	1.706528
1384	1.762342
1368	1.789879
1352	1.791286
1336	1.801419
1320	1.826667
1304	1.830363
1288	1.831197
1272	1.781511
1256	1.733183
1240	1.812028
1224	1.791071
1208	1.727008
1192	1.721477
1176	1.681852
1160	1.613092
1144	1.580047
1128	1.524591
1112	1.442742
1096	1.409387
1080	1.413726
1064	1.421451
1048	1.293635
1032	1.363301
1016	1.348257
1000	1.382470
984	 1.365065
968	 1.328158
952	 1.272821
936	 1.238107
920	 1.199889
904	 1.146960
888	 1.107001
872	 1.028013
856	 1.081466
840	 1.045608
824	 0.837326
808	 0.935316
792	 0.949192
776	 0.968360
760	 0.952553
744	 0.932240
728	 0.895142
712	 0.848650
696	 0.783371
680	 0.726699
664	 0.695824
648	 0.657391
632	 0.615763
616	 0.569534
600	 0.520324
584	 0.500059
568	 0.485181
552	 0.461363
536	 0.431895
520	 0.394916
504	 0.356554
488	 0.300240
472	 0.248122
456	 0.193715
440	 0.147366
424	 0.098276
408	 0.049662
392	 0.026559
376	 0.009131
370	 0.005984