File: Bakgrunnsmateriale/MATLAB/FTIR/ftir_data/LPE454/Mapping_121/LPE454_t104.asc
PE IR       SPECTRUM    SPECTRUM    ASCII       PEDS        1.60
  -1
LP9308~1.ASC
17/05/19
22:54:34.00
17/05/19
22:55:00.00
tln
$LPE454_t0104$<tbV0>[2.6,10.4,8.0,0.0,27,1,0]
27.028
64

2002,4.07
MIRTGS : RIGHTBACK : INTERNAL 2
MIR : ON : INTERNAL 2
OPTKBR

0.200000
8
8.000000
FILLER
RATIO
SPECTRUM
UNLOCKED 256

DOUBLE
64
COMBINED
1
0
0

0.002000
RATIO

1
0
TRUE
51149
0
LEFT NOT FITTED RIGHT NOT FITTED 0
NONE
NONE
15600
12
4.427000
51148
TRUE
1 0 8 72 0 0 0 0

15798

#HDR
-1
-1
#GR
µM
%T
2.38419e-05
0.0
2.000000
0.002000
12515
8
40.5442
-53.4773
#DATA
2.000000	 0.268959
2.084000	 0.488653
2.168000	 0.431938
2.252000	 -0.202201
2.336000	 0.114576
2.420000	 -0.045383
2.504000	 0.209547
2.588000	 0.043527
2.672000	 0.056524
2.756000	 0.136855
2.840000	 0.204706
2.924000	 0.119891
3.008000	 -0.011145
3.092000	 0.013712
3.176000	 -0.042346
3.260000	 0.003453
3.344000	 -0.126913
3.428000	 0.071954
3.512000	 -0.039464
3.596000	 0.062821
3.680000	 -0.055790
3.764000	 0.104864
3.848000	 0.056979
3.932000	 0.110124
4.016000	 0.140436
4.100000	 0.020755
4.184000	 0.146325
4.268000	 0.381035
4.352000	 1.132223
4.436000	 2.786752
4.520000	 5.688421
4.604000	 9.854914
4.688000	 14.6583
4.772000	 19.5346
4.856000	 23.7368
4.940000	 26.9184
5.024000	 29.5558
5.108000	 31.1772
5.192000	 32.8256
5.276000	 33.7152
5.359999	 34.4791
5.444000	 34.8193
5.528000	 35.2012
5.612000	 35.485
5.696000	 35.8196
5.780000	 36.0241
5.864000	 36.0786
5.948000	 36.3613
6.032000	 36.2752
6.116000	 36.4066
6.200000	 36.392
6.284000	 36.3521
6.368000	 36.4697
6.452000	 36.3229
6.536000	 36.3873
6.620000	 36.5777
6.704000	 36.4285
6.788000	 36.4351
6.872000	 36.3628
6.956000	 36.5102
7.040000	 36.4308
7.124000	 36.2989
7.208000	 36.5558
7.292000	 36.4583
7.376000	 36.2581
7.460000	 36.3386
7.544000	 36.5203
7.628000	 36.3143
7.712000	 36.3579
7.796000	 36.2411
7.880000	 36.4247
7.964000	 36.539
8.048000	 36.192
8.132000	 36.1062
8.216000	 36.1855
8.300000	 36.265
8.384000	 36.3706
8.468000	 36.0508
8.552000	 35.9072
8.635999	 36.0172
8.719999	 36.0762
8.804000	 36.0645
8.888000	 36.054
8.972000	 35.993
9.056000	 35.939
9.140000	 35.9461
9.224000	 35.8587
9.308000	 36.1574
9.391999	 35.9795
9.475999	 35.7213
9.560000	 35.2889
9.644000	 35.3973
9.728000	 35.5893
9.812000	 35.7424
9.896000	 35.678
9.980000	 35.6201
10.064	35.2393
10.148	35.033
10.232	34.9677
10.316	35.004
10.4	35.2617
10.484	35.0218
10.568	35.3085
10.652	35.0914
10.736	34.9181
10.82	34.6651
10.904	34.6046
10.988	34.3208
11.072	34.45
11.156	34.9139
11.24	34.7493
11.324	34.4938
11.408	34.2883
11.492	33.9444
11.576	33.9481
11.66	33.6839
11.744	33.4978
11.828	33.6364
11.912	33.8161
11.996	34.0139
12.08	34.0982
12.164	33.9079
12.248	33.7556
12.332	33.5896
12.416	33.3861
12.5	32.9919
12.584	32.6917
12.668	32.7519
12.752	32.8133
12.836	32.9556
12.92	33.271
13.004	33.5273
13.088	33.3899
13.172	33.0918
13.256	32.9671
13.34	32.9339
13.424	32.6546
13.508	32.1083
13.592	31.8475
13.676	31.6232
13.76	31.4409
13.844	31.6269
13.928	31.922
14.012	32.224
14.096	32.3419
14.18	32.3071
14.264	32.3141
14.348	32.2149
14.432	31.939
14.516	31.6655
14.6	31.4936
14.684	31.328
14.768	31.2781
14.852	31.2728
14.936	31.1088
15.02	30.8497
15.104	30.6457
15.188	30.6813
15.272	30.9504
15.356	31.1445
15.44	31.0807
15.524	30.956
15.608	30.9899
15.692	31.0439
15.776	30.9058
15.86	30.6676
15.944	30.511
16.028	30.3789
16.112	30.147
16.196	29.9245
16.28	29.8819
16.364	29.9241
16.448	29.8586
16.532	29.7134
16.616	29.5906
16.7	29.5073
16.784	29.5627
16.868	29.8221
16.952	29.9826
17.036	29.7011
17.12	29.2019
17.204	29.0515
17.288	29.4436
17.372	29.9706
17.456	30.0821
17.54	29.6388
17.624	28.9707
17.708	28.4875
17.792	28.3649
17.876	28.5099
17.96	28.649
18.044	28.4948
18.128	27.9991
18.212	27.4566
18.296	27.2222
18.38	27.3665
18.464	27.7271
18.548	28.1714
18.632	28.6216
18.716	28.9359
18.8	28.9914
18.884	28.8962
18.968	28.8948
19.052	29.0129
19.136	28.9787
19.22	28.5582
19.304	27.8794
19.388	27.316
19.472	27.1119
19.556	27.1818
19.64	27.2319
19.724	27.0198
19.808	26.5325
19.892	26.004
19.976	25.7261
20.06	25.7889
20.144	25.9943
20.228	26.044
20.312	25.8171
20.396	25.4735
20.48	25.2936
20.564	25.4373
20.648	25.839
20.732	26.2976
20.816	26.6265
20.9	26.7517
20.984	26.7142
21.068	26.6073
21.152	26.5043
21.236	26.4346
21.32	26.4069
21.404	26.4439
21.488	26.5902
21.572	26.8627
21.656	27.202
21.74	27.4757
21.824	27.5485
21.908	27.3845
21.992	27.0789
22.076	26.7951
22.16	26.6659
22.244	26.7159
22.328	26.8584
22.412	26.9584
22.496	26.9063
22.58	26.6663
22.664	26.2762
22.748	25.8245
22.832	25.3963
22.916	25.0651
23	24.866
23.084	24.7968
23.168	24.8268
23.252	24.9128
23.336	25.0044
23.42	25.0548
23.504	25.0385
23.588	24.9404
23.672	24.7592
23.756	24.5327
23.84	24.3208
23.924	24.2024
24.008	24.2811
24.092	24.6709
24.176	25.4222
24.26	26.51
24.344	27.8014
24.428	29.0823
24.512	30.1021
24.596	30.6756
24.68	30.737
24.764	30.3782
24.848	29.7419
24.932	29.1516
25.016	29.0286
25.1	29.6253
25.184	31.0472
25.268	33.1984
25.352	35.8184
25.436	38.3747
25.52	40.1463
25.604	40.4404
25.688	38.8675
25.772	35.6447
25.856	31.5337
25.94	27.2051
26.024	23.0677
26.108	19.2091
26.192	16.076
26.276	14.3251
26.36	14.9241
26.444	17.4636
26.528	19.9372
26.612	19.0256
26.696	11.9423
26.78	-2.075329
26.864	-20.6967
26.948	-39.499
27.028	-53.4773