File: Bakgrunnsmateriale/MATLAB/FTIR/ftir_data/LPE454/Mapping_121/LPE454_t116.asc
PE IR       SPECTRUM    SPECTRUM    ASCII       PEDS        1.60
  -1
LP9B0E~1.ASC
17/05/20
00:10:35.00
17/05/20
00:11:02.00
tln
$LPE454_t0116$<tbV0>[0.0,13.0,8.0,0.0,27,1,0]
27.028
64

2002,4.07
MIRTGS : RIGHTBACK : INTERNAL 2
MIR : ON : INTERNAL 2
OPTKBR

0.200000
8
8.000000
FILLER
RATIO
SPECTRUM
UNLOCKED 256

DOUBLE
64
COMBINED
1
0
0

0.002000
RATIO

1
0
TRUE
51149
0
LEFT NOT FITTED RIGHT NOT FITTED 0
NONE
NONE
15600
12
4.427000
51148
TRUE
1 0 8 72 0 0 0 0

15798

#HDR
-1
-1
#GR
µM
%T
2.38419e-05
0.0
2.000000
0.002000
12515
8
45.6675
-21.7255
#DATA
2.000000	 0.403785
2.084000	 0.154350
2.168000	 -1.600112
2.252000	 0.046535
2.336000	 0.346694
2.420000	 1.195946
2.504000	 -0.001140
2.588000	 -0.162537
2.672000	 0.122047
2.756000	 0.024635
2.840000	 0.203920
2.924000	 0.089792
3.008000	 0.102742
3.092000	 0.114694
3.176000	 -0.007775
3.260000	 -0.139131
3.344000	 0.031598
3.428000	 0.078541
3.512000	 0.083816
3.596000	 0.007042
3.680000	 0.018778
3.764000	 -0.038729
3.848000	 0.073271
3.932000	 0.014175
4.016000	 0.011273
4.100000	 0.089634
4.184000	 0.054799
4.268000	 0.396497
4.352000	 1.053657
4.436000	 2.565040
4.520000	 5.174745
4.604000	 8.696747
4.688000	 12.9349
4.772000	 17.0205
4.856000	 20.6184
4.940000	 23.3939
5.024000	 25.6356
5.108000	 27.4566
5.192000	 28.7494
5.276000	 29.9154
5.359999	 30.5431
5.444000	 31.3775
5.528000	 31.7689
5.612000	 32.3622
5.696000	 32.4474
5.780000	 33.0392
5.864000	 33.0775
5.948000	 33.3875
6.032000	 33.7021
6.116000	 33.6612
6.200000	 33.9591
6.284000	 34.1025
6.368000	 34.0984
6.452000	 34.2901
6.536000	 34.4472
6.620000	 34.3253
6.704000	 34.6097
6.788000	 34.6694
6.872000	 34.4699
6.956000	 34.446
7.040000	 34.7757
7.124000	 34.6389
7.208000	 34.4796
7.292000	 34.5227
7.376000	 34.8997
7.460000	 34.6762
7.544000	 34.4593
7.628000	 34.6378
7.712000	 34.8392
7.796000	 34.7901
7.880000	 34.4128
7.964000	 34.3239
8.048000	 34.5754
8.132000	 34.6897
8.216000	 34.4789
8.300000	 34.2207
8.384000	 34.1574
8.468000	 34.4056
8.552000	 34.5084
8.635999	 34.5155
8.719999	 34.1881
8.804000	 33.9553
8.888000	 33.9832
8.972000	 34.3059
9.056000	 34.3955
9.140000	 34.3099
9.224000	 34.042
9.308000	 33.7277
9.391999	 33.593
9.475999	 33.591
9.560000	 34.1442
9.644000	 34.1634
9.728000	 33.9442
9.812000	 33.4412
9.896000	 33.0989
9.980000	 33.4624
10.064	33.7178
10.148	33.9052
10.232	33.9588
10.316	33.7258
10.4	33.4341
10.484	33.0613
10.568	32.8467
10.652	33.0039
10.736	33.0838
10.82	33.1539
10.904	33.332
10.988	33.456
11.072	33.332
11.156	32.8399
11.24	32.4943
11.324	32.3084
11.408	32.5184
11.492	32.5356
11.576	32.625
11.66	32.8398
11.744	32.7852
11.828	32.6853
11.912	32.6812
11.996	32.517
12.08	32.0646
12.164	31.8909
12.248	31.9216
12.332	31.7504
12.416	31.7006
12.5	31.8918
12.584	31.9381
12.668	31.9175
12.752	32.0613
12.836	31.9683
12.92	31.8344
13.004	31.7252
13.088	31.3357
13.172	30.856
13.256	30.6691
13.34	30.6537
13.424	30.8404
13.508	31.1132
13.592	31.2175
13.676	31.0732
13.76	31.1282
13.844	31.3068
13.928	31.3415
14.012	31.1632
14.096	30.8811
14.18	30.6145
14.264	30.2294
14.348	29.8145
14.432	29.6255
14.516	29.7151
14.6	29.9615
14.684	30.0413
14.768	29.9656
14.852	30.08
14.936	30.3661
15.02	30.6412
15.104	30.6941
15.188	30.3882
15.272	29.978
15.356	29.7834
15.44	29.7903
15.524	29.8016
15.608	29.7703
15.692	29.7042
15.776	29.5518
15.86	29.4438
15.944	29.4289
16.028	29.3186
16.112	29.1315
16.196	29.0436
16.28	29.025
16.364	29.0187
16.448	29.0964
16.532	29.2568
16.616	29.3826
16.7	29.4296
16.784	29.4415
16.868	29.3706
16.952	29.1219
17.036	28.7651
17.12	28.5154
17.204	28.4641
17.288	28.4813
17.372	28.4329
17.456	28.3345
17.54	28.2333
17.624	28.0936
17.708	27.8983
17.792	27.7472
17.876	27.7659
17.96	27.9516
18.044	28.1576
18.128	28.2114
18.212	28.113
18.296	28.0549
18.38	28.1791
18.464	28.3854
18.548	28.4402
18.632	28.2261
18.716	27.8517
18.8	27.5392
18.884	27.4474
18.968	27.5938
19.052	27.8714
19.136	28.1153
19.22	28.1633
19.304	27.9316
19.388	27.4816
19.472	26.9957
19.556	26.6307
19.64	26.384
19.724	26.1446
19.808	25.8801
19.892	25.734
19.976	25.8885
20.06	26.3398
20.144	26.8705
20.228	27.2256
20.312	27.2704
20.396	26.9978
20.48	26.4779
20.564	25.8283
20.648	25.2111
20.732	24.797
20.816	24.6914
20.9	24.8859
20.984	25.2921
21.068	25.8102
21.152	26.3875
21.236	27.0153
21.32	27.6885
21.404	28.3494
21.488	28.8654
21.572	29.0681
21.656	28.8469
21.74	28.2401
21.824	27.4486
21.908	26.7428
21.992	26.3014
22.076	26.1184
22.16	26.0346
22.244	25.8828
22.328	25.6181
22.412	25.3162
22.496	25.0896
22.58	24.9762
22.664	24.9129
22.748	24.7806
22.832	24.5156
22.916	24.1557
23	23.8277
23.084	23.6721
23.168	23.7561
23.252	24.0164
23.336	24.2926
23.42	24.4196
23.504	24.2859
23.588	23.935
23.672	23.5532
23.756	23.3757
23.84	23.5432
23.924	24.0454
24.008	24.7075
24.092	25.2582
24.176	25.503
24.26	25.4059
24.344	25.1179
24.428	24.921
24.512	25.1712
24.596	26.0751
24.68	27.5854
24.764	29.3759
24.848	30.8966
24.932	31.48
25.016	30.6288
25.1	28.138
25.184	24.3287
25.268	20.0231
25.352	16.2515
25.436	14.0502
25.52	14.106
25.604	16.6137
25.688	21.2531
25.772	27.2714
25.856	33.7119
25.94	39.5391
26.024	43.7572
26.108	45.6191
26.192	44.7687
26.276	41.2326
26.36	35.384
26.444	27.9839
26.528	19.9436
26.612	12.1938
26.696	5.208820
26.78	-1.117823
26.864	-7.455554
26.948	-14.4749
27.028	-21.7255