File: Bakgrunnsmateriale/MATLAB/FTIR/ftir_data/LPE454/Mapping_121/LPE454_t05.asc
PE IR       SPECTRUM    SPECTRUM    ASCII       PEDS        1.60
  -1
LPD398~1.ASC
17/05/19
14:47:47.00
17/05/19
14:48:13.00
tln
$LPE454_t0005$<tbV0>[2.6,-13.0,8.0,0.0,27,1,0]
27.028
64

2002,4.07
MIRTGS : RIGHTBACK : INTERNAL 2
MIR : ON : INTERNAL 2
OPTKBR

0.200000
8
8.000000
FILLER
RATIO
SPECTRUM
UNLOCKED 256

DOUBLE
64
COMBINED
1
0
0

0.002000
RATIO

1
0
TRUE
51149
0
LEFT NOT FITTED RIGHT NOT FITTED 0
NONE
NONE
15600
12
4.427000
51148
TRUE
1 0 8 72 0 0 0 0

15798

#HDR
-1
-1
#GR
µM
%T
2.38419e-05
0.0
2.000000
0.002000
12515
8
52.6527
-50.1082
#DATA
2.000000	 0.102663
2.084000	 0.396714
2.168000	 0.036253
2.252000	 0.287408
2.336000	 0.248227
2.420000	 0.250389
2.504000	 0.043308
2.588000	 0.105430
2.672000	 0.121473
2.756000	 0.167580
2.840000	 -0.024381
2.924000	 0.002977
3.008000	 0.034283
3.092000	 0.032564
3.176000	 0.030203
3.260000	 -0.026548
3.344000	 0.013478
3.428000	 -0.052888
3.512000	 0.102989
3.596000	 -0.028804
3.680000	 0.016133
3.764000	 -0.003244
3.848000	 0.035127
3.932000	 -0.039736
4.016000	 0.109366
4.100000	 0.174155
4.184000	 0.059914
4.268000	 0.146429
4.352000	 0.748219
4.436000	 1.818417
4.520000	 4.216254
4.604000	 7.903258
4.688000	 12.129
4.772000	 16.9331
4.856000	 20.7145
4.940000	 24.5234
5.024000	 27.1751
5.108000	 29.0412
5.192000	 30.5495
5.276000	 31.5847
5.359999	 32.2841
5.444000	 32.8544
5.528000	 33.3203
5.612000	 33.694
5.696000	 33.6619
5.780000	 33.956
5.864000	 33.9384
5.948000	 34.1119
6.032000	 34.1337
6.116000	 34.1744
6.200000	 34.108
6.284000	 34.0284
6.368000	 34.1383
6.452000	 34.1996
6.536000	 34.0263
6.620000	 34.1959
6.704000	 33.9789
6.788000	 34.0607
6.872000	 34.064
6.956000	 33.9581
7.040000	 33.816
7.124000	 33.7752
7.208000	 33.8585
7.292000	 33.6446
7.376000	 33.7106
7.460000	 33.669
7.544000	 33.6144
7.628000	 33.5754
7.712000	 33.4904
7.796000	 33.6081
7.880000	 33.314
7.964000	 33.486
8.048000	 33.4095
8.132000	 33.4012
8.216000	 33.3865
8.300000	 33.2955
8.384000	 33.1933
8.468000	 33.1455
8.552000	 33.1245
8.635999	 33.0723
8.719999	 33.0244
8.804000	 32.8697
8.888000	 32.9061
8.972000	 32.7553
9.056000	 32.7964
9.140000	 33.0342
9.224000	 32.5456
9.308000	 32.7278
9.391999	 32.4847
9.475999	 32.4145
9.560000	 32.4466
9.644000	 32.4423
9.728000	 32.3926
9.812000	 32.4828
9.896000	 32.3431
9.980000	 32.0975
10.064	32.1033
10.148	32.1842
10.232	32.2134
10.316	32.047
10.4	31.8975
10.484	31.6746
10.568	31.5221
10.652	31.6574
10.736	31.6128
10.82	31.6776
10.904	31.6345
10.988	31.5799
11.072	31.357
11.156	31.4108
11.24	31.5024
11.324	31.001
11.408	30.7763
11.492	31.1424
11.576	31.1876
11.66	30.9324
11.744	30.8654
11.828	30.6908
11.912	30.766
11.996	30.7994
12.08	30.6373
12.164	30.5086
12.248	30.533
12.332	30.4233
12.416	30.153
12.5	30.2046
12.584	30.2522
12.668	30.0574
12.752	29.984
12.836	29.9837
12.92	29.9021
13.004	29.9325
13.088	30.0333
13.172	29.8442
13.256	29.2683
13.34	29.2256
13.424	29.4555
13.508	29.597
13.592	29.7626
13.676	29.8284
13.76	29.526
13.844	29.0502
13.928	28.9519
14.012	28.9855
14.096	28.7868
14.18	28.5685
14.264	28.4694
14.348	28.5615
14.432	28.7008
14.516	28.6648
14.6	28.5535
14.684	28.5133
14.768	28.5098
14.852	28.524
14.936	28.5671
15.02	28.5832
15.104	28.5365
15.188	28.3959
15.272	28.1498
15.356	27.8695
15.44	27.6783
15.524	27.6057
15.608	27.4392
15.692	27.0809
15.776	26.8766
15.86	27.0257
15.944	27.1987
16.028	27.1753
16.112	27.1491
16.196	27.2769
16.28	27.445
16.364	27.4433
16.448	27.2141
16.532	26.9257
16.616	26.7414
16.7	26.6413
16.784	26.5677
16.868	26.5334
16.952	26.5265
17.036	26.4956
17.12	26.429
17.204	26.3357
17.288	26.2254
17.372	26.139
17.456	26.1404
17.54	26.2502
17.624	26.3942
17.708	26.4603
17.792	26.4025
17.876	26.2701
17.96	26.1086
18.044	25.8865
18.128	25.5755
18.212	25.2675
18.296	25.1547
18.38	25.3625
18.464	25.7826
18.548	26.1187
18.632	26.1514
18.716	25.9292
18.8	25.664
18.884	25.4801
18.968	25.3322
19.052	25.1271
19.136	24.8648
19.22	24.6309
19.304	24.4899
19.388	24.4311
19.472	24.3981
19.556	24.3486
19.64	24.2786
19.724	24.2361
19.808	24.2904
19.892	24.4896
19.976	24.8259
20.06	25.245
20.144	25.6705
20.228	26.0236
20.312	26.2377
20.396	26.276
20.48	26.1301
20.564	25.8115
20.648	25.358
20.732	24.8372
20.816	24.3488
20.9	23.9948
20.984	23.8261
21.068	23.8113
21.152	23.8664
21.236	23.9111
21.32	23.9311
21.404	23.9758
21.488	24.0989
21.572	24.2818
21.656	24.408
21.74	24.3148
21.824	23.905
21.908	23.2462
21.992	22.5608
22.076	22.1116
22.16	22.0481
22.244	22.2892
22.328	22.5847
22.412	22.6669
22.496	22.4301
22.58	21.9791
22.664	21.5402
22.748	21.3234
22.832	21.3809
22.916	21.6233
23	21.8467
23.084	21.8872
23.168	21.6884
23.252	21.3106
23.336	20.8805
23.42	20.5196
23.504	20.2586
23.588	20.0711
23.672	19.9402
23.756	19.8874
23.84	19.9987
23.924	20.4102
24.008	21.2068
24.092	22.3675
24.176	23.8327
24.26	25.5067
24.344	27.2984
24.428	29.1796
24.512	31.2145
24.596	33.4262
24.68	35.6669
24.764	37.576
24.848	38.5902
24.932	38.1634
25.016	36.059
25.1	32.3683
25.184	27.5333
25.268	22.2321
25.352	17.1647
25.436	13.2871
25.52	11.5824
25.604	12.7478
25.688	17.066
25.772	24.1833
25.856	33.1405
25.94	42.0666
26.024	48.8994
26.108	52.3536
26.192	51.9522
26.276	47.7643
26.36	39.9698
26.444	29.2308
26.528	16.5912
26.612	4.095334
26.696	-6.829241
26.78	-16.037
26.864	-25.4305
26.948	-37.2201
27.028	-50.1082