File: Bakgrunnsmateriale/MATLAB/FTIR/ftir_data/LPE454/Mapping_121/LPE454_t19.asc
PE IR       SPECTRUM    SPECTRUM    ASCII       PEDS        1.60
  -1
LPE798~1.ASC
17/05/19
15:52:57.00
17/05/19
15:53:24.00
tln
$LPE454_t0019$<tbV0>[-5.2,-10.4,8.0,0.0,27,1,0]
27.028
64

2002,4.07
MIRTGS : RIGHTBACK : INTERNAL 2
MIR : ON : INTERNAL 2
OPTKBR

0.200000
8
8.000000
FILLER
RATIO
SPECTRUM
UNLOCKED 256

DOUBLE
64
COMBINED
1
0
0

0.002000
RATIO

1
0
TRUE
51149
0
LEFT NOT FITTED RIGHT NOT FITTED 0
NONE
NONE
15600
12
4.427000
51148
TRUE
1 0 8 72 0 0 0 0

15798

#HDR
-1
-1
#GR
µM
%T
2.38419e-05
0.0
2.000000
0.002000
12515
8
32.4759
-15.1128
#DATA
2.000000	 0.212788
2.084000	 -0.362210
2.168000	 1.277711
2.252000	 -0.073106
2.336000	 -0.099825
2.420000	 0.192066
2.504000	 -0.092971
2.588000	 0.066385
2.672000	 -0.115478
2.756000	 0.091022
2.840000	 0.147094
2.924000	 0.073700
3.008000	 -0.023452
3.092000	 -0.037736
3.176000	 0.036373
3.260000	 -0.009390
3.344000	 -0.003780
3.428000	 -0.023919
3.512000	 0.099484
3.596000	 0.004777
3.680000	 0.138628
3.764000	 0.016889
3.848000	 -0.051177
3.932000	 -0.026441
4.016000	 -0.173773
4.100000	 0.021553
4.184000	 0.012767
4.268000	 0.225857
4.352000	 0.515402
4.436000	 1.809969
4.520000	 3.666366
4.604000	 6.698005
4.688000	 10.7553
4.772000	 14.6011
4.856000	 18.3779
4.940000	 21.3318
5.024000	 23.7903
5.108000	 25.6853
5.192000	 26.6858
5.276000	 28.1691
5.359999	 28.4719
5.444000	 29.5297
5.528000	 29.4793
5.612000	 30.3476
5.696000	 30.084
5.780000	 30.8138
5.864000	 30.232
5.948000	 31.1317
6.032000	 30.9019
6.116000	 30.972
6.200000	 31.4037
6.284000	 30.939
6.368000	 31.4725
6.452000	 31.5804
6.536000	 30.9668
6.620000	 31.7224
6.704000	 31.7729
6.788000	 31.1571
6.872000	 31.5391
6.956000	 32.0606
7.040000	 31.2983
7.124000	 31.477
7.208000	 32.208
7.292000	 31.7389
7.376000	 31.1756
7.460000	 31.8153
7.544000	 32.2479
7.628000	 31.6773
7.712000	 31.2887
7.796000	 31.7658
7.880000	 32.1782
7.964000	 31.6591
8.048000	 31.5669
8.132000	 31.6529
8.216000	 32.2569
8.300000	 32.3649
8.384000	 31.7652
8.468000	 31.3522
8.552000	 31.7173
8.635999	 32.1148
8.719999	 32.3342
8.804000	 31.7953
8.888000	 31.391
8.972000	 31.4586
9.056000	 31.9463
9.140000	 32.3943
9.224000	 32.2113
9.308000	 31.7901
9.391999	 31.2085
9.475999	 31.547
9.560000	 31.5907
9.644000	 32.0358
9.728000	 32.0912
9.812000	 31.5962
9.896000	 31.3539
9.980000	 31.1393
10.064	31.4001
10.148	31.6891
10.232	32.1712
10.316	32.0825
10.4	31.6586
10.484	31.025
10.568	30.7515
10.652	30.8187
10.736	31.1217
10.82	31.6283
10.904	31.581
10.988	31.5116
11.072	31.2925
11.156	30.9653
11.24	30.4831
11.324	30.3208
11.408	30.4643
11.492	30.8229
11.576	31.2067
11.66	31.3705
11.744	31.0922
11.828	30.551
11.912	30.4847
11.996	30.4256
12.08	29.9496
12.164	29.8617
12.248	30.03
12.332	30.1245
12.416	30.3113
12.5	30.703
12.584	30.7888
12.668	30.5281
12.752	30.3189
12.836	30.0496
12.92	29.4818
13.004	29.1258
13.088	29.1855
13.172	29.2363
13.256	29.0318
13.34	29.3237
13.424	29.7706
13.508	30.1252
13.592	30.3313
13.676	29.8229
13.76	29.2361
13.844	28.7778
13.928	28.3114
14.012	28.1875
14.096	28.2393
14.18	28.2865
14.264	28.3228
14.348	28.2626
14.432	28.358
14.516	28.6583
14.6	28.7574
14.684	28.7607
14.768	28.9236
14.852	29.0336
14.936	28.9381
15.02	28.6887
15.104	28.2764
15.188	27.745
15.272	27.3131
15.356	27.1312
15.44	27.1656
15.524	27.205
15.608	27.1132
15.692	27.1118
15.776	27.2521
15.86	27.2838
15.944	27.2194
16.028	27.267
16.112	27.4544
16.196	27.662
16.28	27.7127
16.364	27.5022
16.448	27.1636
16.532	26.9243
16.616	26.8093
16.7	26.6567
16.784	26.3989
16.868	26.1631
16.952	26.05
17.036	25.9917
17.12	25.9037
17.204	25.8089
17.288	25.7571
17.372	25.7889
17.456	25.9714
17.54	26.2898
17.624	26.5484
17.708	26.5804
17.792	26.4634
17.876	26.3687
17.96	26.2859
18.044	26.0931
18.128	25.7945
18.212	25.5134
18.296	25.3311
18.38	25.2595
18.464	25.278
18.548	25.2966
18.632	25.1836
18.716	24.9102
18.8	24.6245
18.884	24.5036
18.968	24.5758
19.052	24.7306
19.136	24.8843
19.22	25.0593
19.304	25.2986
19.388	25.5474
19.472	25.6663
19.556	25.5594
19.64	25.2819
19.724	25.0124
19.808	24.9088
19.892	24.9815
19.976	25.1101
20.06	25.1772
20.144	25.1599
20.228	25.0966
20.312	25.0049
20.396	24.8563
20.48	24.6321
20.564	24.381
20.648	24.2097
20.732	24.1999
20.816	24.3394
20.9	24.5228
20.984	24.6262
21.068	24.5951
21.152	24.4791
21.236	24.3843
21.32	24.3923
21.404	24.5021
21.488	24.6407
21.572	24.7223
21.656	24.7036
21.74	24.5914
21.824	24.4231
21.908	24.2364
21.992	24.057
22.076	23.91
22.16	23.8142
22.244	23.7589
22.328	23.7044
22.412	23.602
22.496	23.4281
22.58	23.216
22.664	23.0349
22.748	22.9425
22.832	22.9377
22.916	22.9492
23	22.8397
23.084	22.5035
23.168	21.9004
23.252	21.0767
23.336	20.1699
23.42	19.387
23.504	18.9426
23.588	18.9466
23.672	19.3459
23.756	19.9348
23.84	20.4918
23.924	20.8141
24.008	20.7659
24.092	20.2913
24.176	19.3926
24.26	18.284
24.344	17.4261
24.428	17.3225
24.512	18.3343
24.596	20.4446
24.68	23.2041
24.764	25.8611
24.848	27.7671
24.932	28.549
25.016	28.26
25.1	27.242
25.184	26.0524
25.268	25.1084
25.352	24.4039
25.436	23.553
25.52	22.0325
25.604	19.4788
25.688	15.6125
25.772	10.3557
25.856	3.927484
25.94	-2.947754
26.024	-9.126878
26.108	-13.4013
26.192	-15.0994
26.276	-14.1686
26.36	-11.3322
26.444	-7.131257
26.528	-1.788197
26.612	5.069043
26.696	13.0704
26.78	20.5116
26.864	24.2714
26.948	21.092
27.028	10.2085