File: Bakgrunnsmateriale/MATLAB/FTIR/ftir_data/LPE454/Mapping_121/LPE454_t100_cm-1.asc
PE IR       SPECTRUM    SPECTRUM    ASCII       PEDS        1.60
  -1
LP03DC~1.ASC
17/05/19
22:36:08.00
17/05/19
22:36:08.00
tln
$LPE454_t0100$<tbV0>[13.0,10.4,8.0,0.0,27,1,0]
370
64

2002,4.07
MIRTGS : RIGHTBACK : INTERNAL 2
MIR : ON : INTERNAL 2
OPTKBR

0.200000
8
8.000000
FILLER
RATIO
SPECTRUM
UNLOCKED 256

DOUBLE
64
COMBINED
1
0
0

1.000000
RATIO

1
0
TRUE
51149
0
LEFT NOT FITTED RIGHT NOT FITTED 0
NONE
NONE
15600
12
4.427000
51148
TRUE
1 0 8 72 0 0 0 0

15798

#HDR
-1
-1
#GR
CM-1
%T
2.38419e-05
0.0
5000
-1.000000
4631
8
32.2249
-12.9941
#DATA
5000	0.303506
4984	-0.106954
4968	0.396704
4952	0.202941
4936	0.549125
4920	0.310564
4904	0.473332
4888	-0.133109
4872	0.089335
4856	0.187873
4840	0.201797
4824	0.030922
4808	0.379014
4792	0.373291
4776	0.247240
4760	0.044417
4744	0.273251
4728	0.200176
4712	0.200819
4696	0.432467
4680	-0.314426
4664	0.025796
4648	0.088381
4632	-0.368380
4616	0.083065
4600	9.120130
4584	9.500503
4568	-0.197577
4552	-0.825476
4536	-0.778293
4520	-1.079368
4504	-0.612711
4488	-0.199627
4472	0.071024
4456	0.289607
4440	0.258588
4424	0.320029
4408	0.132799
4392	0.369954
4376	0.118637
4360	0.049185
4344	-0.072336
4328	0.443387
4312	-0.007915
4296	0.282549
4280	0.332164
4264	0.083446
4248	0.317525
4232	0.279712
4216	0.069928
4200	0.056004
4184	-0.006818
4168	0.351762
4152	0.484108
4136	0.146579
4120	0.014090
4104	-0.257730
4088	-0.339484
4072	0.615143
4056	0.373029
4040	0.837898
4024	0.830316
4008	0.014114
3992	0.589251
3976	-0.062584
3960	-0.020456
3944	-0.011587
3928	0.179815
3912	0.364565
3896	-0.030326
3880	-0.115990
3864	0.297188
3848	0.074195
3832	-0.013184
3816	0.073027
3800	0.073623
3784	-0.008082
3768	0.176119
3752	0.246500
3736	0.036239
3720	0.087285
3704	0.095486
3688	0.020623
3672	0.040745
3656	0.052952
3640	0.103592
3624	0.053954
3608	0.154781
3592	0.023531
3576	-0.027465
3560	0.027751
3544	0.121617
3528	-0.045847
3512	-0.063991
3496	0.104117
3480	0.045180
3464	0.049424
3448	0.068712
3432	0.108766
3416	0.347328
3400	0.102424
3384	0.058865
3368	0.094079
3352	0.042200
3336	0.131583
3320	0.014519
3304	0.124835
3288	0.041866
3272	0.116968
3256	0.056385
3240	-0.082159
3224	0.148129
3208	0.053954
3192	0.070905
3176	0.046730
3160	0.085496
3144	0.102758
3128	0.211238
3112	0.196409
3096	0.107932
3080	-0.046801
3064	-0.044226
3048	0.059080
3032	-0.055003
3016	0.128388
3000	0.034260
2984	0.067973
2968	0.047945
2952	0.112891
2936	0.114202
2920	0.135588
2904	0.065207
2888	0.088047
2872	0.055360
2856	0.057196
2840	0.154972
2824	0.123739
2808	0.082349
2792	0.012183
2776	-0.046825
2760	0.027608
2744	0.059199
2728	0.003266
2712	0.008654
2696	0.064969
2680	0.004053
2664	-0.007152
2648	0.103616
2632	0.074410
2616	-0.026345
2600	0.042176
2584	0.090765
2568	0.133252
2552	0.052475
2536	0.060391
2520	0.044274
2504	-0.005006
2488	0.035047
2472	0.043559
2456	-0.006484
2440	-0.014066
2424	0.091409
2408	0.054621
2392	0.020146
2376	0.003862
2360	0.179767
2344	0.203371
2328	0.094485
2312	0.284266
2296	0.381302
2280	0.633454
2264	0.960326
2248	1.414537
2232	2.004003
2216	2.849268
2200	3.748726
2184	4.978179
2168	6.158256
2152	7.716226
2136	9.513688
2120	11.1637
2104	13.0806
2088	14.717
2072	16.3644
2056	18.0498
2040	19.6203
2024	21.0825
2008	22.3283
1992	23.6231
1976	24.5209
1960	25.5177
1944	26.5041
1928	27.2954
1912	27.975
1896	28.5429
1880	29.0355
1864	29.5579
1848	30.1033
1832	30.2469
1816	30.7824
1800	30.8733
1784	31.1104
1768	31.3049
1752	31.4408
1736	31.7343
1720	31.796
1704	31.8995
1688	31.8421
1672	32.0669
1656	32.1297
1640	32.1471
1624	32.2192
1608	32.028
1592	32.1584
1576	32.1644
1560	32.1052
1544	32.0091
1528	31.903
1512	31.9513
1496	31.882
1480	31.8838
1464	31.829
1448	31.7483
1432	31.7273
1416	31.7624
1400	31.539
1384	31.5104
1368	31.3751
1352	31.4293
1336	31.2967
1320	31.189
1304	31.1114
1288	31.1374
1272	31.0323
1256	30.908
1240	30.9282
1224	30.7288
1208	30.6612
1192	30.5517
1176	30.3235
1160	30.4407
1144	30.3647
1128	30.21
1112	30.1451
1096	29.8274
1080	29.8366
1064	29.7154
1048	29.5208
1032	29.6277
1016	29.2091
1000	29.3667
984	 29.1569
968	 28.8208
952	 28.8587
936	 28.7095
920	 28.6349
904	 28.187
888	 27.9829
872	 27.9045
856	 27.5923
840	 27.5949
824	 27.4667
808	 27.0495
792	 26.9409
776	 26.4778
760	 26.6856
744	 26.1273
728	 25.7469
712	 25.4429
696	 25.1642
680	 24.7809
664	 24.322
648	 24.4599
632	 23.3439
616	 23.6802
600	 23.3302
584	 23.1663
568	 22.7226
552	 22.7584
536	 21.5035
520	 21.743
504	 22.0921
488	 19.7494
472	 20.482
456	 18.5317
440	 18.4032
424	 18.0832
408	 13.4263
392	 6.702232
376	 -10.9963
370	 13.4183