File: Bakgrunnsmateriale/MATLAB/FTIR/ftir_data/LPE454/Mapping_121/LPE454_t102_cm-1.asc
PE IR       SPECTRUM    SPECTRUM    ASCII       PEDS        1.60
  -1
LP05DC~1.ASC
17/05/19
22:45:21.00
17/05/19
22:45:21.00
tln
$LPE454_t0102$<tbV0>[7.8,10.4,8.0,0.0,27,1,0]
370
64

2002,4.07
MIRTGS : RIGHTBACK : INTERNAL 2
MIR : ON : INTERNAL 2
OPTKBR

0.200000
8
8.000000
FILLER
RATIO
SPECTRUM
UNLOCKED 256

DOUBLE
64
COMBINED
1
0
0

1.000000
RATIO

1
0
TRUE
51149
0
LEFT NOT FITTED RIGHT NOT FITTED 0
NONE
NONE
15600
12
4.427000
51148
TRUE
1 0 8 72 0 0 0 0

15798

#HDR
-1
-1
#GR
CM-1
%T
2.38419e-05
0.0
5000
-1.000000
4631
8
48.4326
-2.170038
#DATA
5000	0.127458
4984	0.142145
4968	0.099158
4952	0.224661
4936	0.362348
4920	0.302243
4904	0.311040
4888	0.260782
4872	0.144696
4856	0.356054
4840	0.462126
4824	0.080227
4808	0.211715
4792	0.381112
4776	0.118827
4760	0.628471
4744	0.354576
4728	0.343799
4712	1.001882
4696	0.648903
4680	1.005482
4664	-0.103187
4648	-0.664806
4632	-0.193023
4616	-1.668834
4600	-0.311064
4584	17.4522
4568	-1.273202
4552	-0.896835
4536	-0.345802
4520	-0.909233
4504	-0.812530
4488	0.231623
4472	-0.156545
4456	0.516319
4440	0.728464
4424	0.194025
4408	0.464200
4392	0.439667
4376	0.030922
4360	0.159072
4344	0.154519
4328	-0.017333
4312	0.304150
4296	-0.033640
4280	0.063371
4264	0.175881
4248	0.138092
4232	0.122308
4216	0.023746
4200	-0.035119
4184	-0.585627
4168	0.128841
4152	0.258040
4136	0.206732
4120	0.243687
4104	0.119686
4088	-0.278234
4072	0.054144
4056	1.809883
4040	0.507593
4024	0.039839
4008	-0.131273
3992	0.018739
3976	0.129127
3960	0.052809
3944	0.133275
3928	0.018477
3912	0.231027
3896	-0.083732
3880	0.120162
3864	-0.091624
3848	0.170588
3832	0.048565
3816	-0.043749
3800	0.018620
3784	0.033783
3768	0.127291
3752	-0.016880
3736	0.029540
3720	0.034666
3704	0.000691
3688	-0.010943
3672	0.116133
3656	0.050950
3640	0.069165
3624	0.131416
3608	0.024986
3592	0.060796
3576	-0.134992
3560	0.048565
3544	-0.034213
3528	0.008416
3512	-0.143694
3496	0.073838
3480	-0.030469
3464	-0.016427
3448	0.129771
3432	0.115180
3416	0.216841
3400	-0.021123
3384	-0.030088
3368	0.163698
3352	0.091099
3336	0.089001
3320	0.100135
3304	0.128293
3288	-0.048923
3272	-0.027060
3256	0.078582
3240	0.005626
3224	-0.015997
3208	-0.023007
3192	0.044274
3176	0.128674
3160	0.110387
3144	-0.039887
3128	-0.071692
3112	0.142025
3096	-0.014781
3080	0.098299
3064	0.139951
3048	0.044798
3032	-0.085020
3016	-0.006580
3000	-0.004124
2984	0.147080
2968	0.105404
2952	-0.099706
2936	-0.006222
2920	0.100731
2904	-0.017023
2888	0.059580
2872	0.066542
2856	0.052309
2840	-0.088024
2824	0.028443
2808	0.075674
2792	0.002121
2776	0.034904
2760	-0.005817
2744	0.071096
2728	0.093460
2712	0.040197
2696	-0.057220
2680	0.056982
2664	0.074648
2648	-0.023937
2632	-0.059604
2616	-0.020980
2600	0.131773
2584	-0.000309
2568	0.027179
2552	0.038242
2536	-0.024986
2520	-0.071144
2504	0.176286
2488	0.030326
2472	0.090765
2456	0.051927
2440	0.140070
2424	0.153112
2408	0.295782
2392	0.275540
2376	0.422143
2360	0.692820
2344	0.840091
2328	1.183915
2312	1.580357
2296	2.023029
2280	2.835559
2264	3.667783
2248	4.742908
2232	6.008863
2216	7.669329
2200	9.279799
2184	11.2895
2168	13.2864
2152	15.4657
2136	17.7756
2120	19.9924
2104	22.1427
2088	24.2118
2072	26.1128
2056	28.0706
2040	29.4667
2024	30.9822
2008	32.2828
1992	33.3997
1976	34.3758
1960	35.3041
1944	36.0737
1928	36.7228
1912	37.2482
1896	37.7301
1880	38.1157
1864	38.5151
1848	38.7551
1832	39.0021
1816	39.2535
1800	39.2952
1784	39.4326
1768	39.7755
1752	39.7395
1736	39.7253
1720	39.9803
1704	39.9817
1688	40.0604
1672	40.0256
1656	39.9613
1640	40.1551
1624	40.2348
1608	40.0901
1592	39.9951
1576	40.1829
1560	40.289
1544	40.0922
1528	40.1258
1512	40.1834
1496	40.2235
1480	40.209
1464	40.0634
1448	39.9737
1432	40.3269
1416	40.2789
1400	40.0566
1384	40.0711
1368	39.9768
1352	40.1683
1336	40.1832
1320	40.1173
1304	39.942
1288	40.0976
1272	39.9071
1256	39.8689
1240	39.7542
1224	39.8744
1208	39.8024
1192	39.8209
1176	39.6584
1160	39.854
1144	39.7393
1128	39.6464
1112	39.5461
1096	39.5389
1080	39.5515
1064	39.262
1048	39.3548
1032	39.4248
1016	39.3643
1000	38.9956
984	 38.8776
968	 38.942
952	 38.833
936	 38.9224
920	 38.4875
904	 38.324
888	 38.375
872	 38.5741
856	 37.9941
840	 37.6709
824	 37.466
808	 37.8081
792	 37.2225
776	 36.4428
760	 37.1684
744	 36.9812
728	 36.6806
712	 36.3221
696	 35.8855
680	 35.9977
664	 36.3816
648	 35.0627
632	 34.7026
616	 34.4809
600	 34.7867
584	 35.0816
568	 33.1855
552	 32.6711
536	 34.2466
520	 33.1857
504	 31.602
488	 31.6128
472	 30.6744
456	 32.3725
440	 30.4075
424	 27.7209
408	 29.4072
392	 20.2854
376	 43.9002
370	 13.9906