File: Bakgrunnsmateriale/MATLAB/FTIR/ftir_data/LPE454/Mapping_121/LPE454_e126_cm-1.asc
PE IR       SPECTRUM    SPECTRUM    ASCII       PEDS        1.60
  -1
LP091C~1.ASC
17/05/19
21:39:18.00
17/05/19
21:39:18.00
tln
$LPE454_e0126$<ebV0>[-23.3,12.1,10.0,0.0,27,1,0]
370
64

2002,4.07
MIRTGS : RIGHTBACK : INTERNAL 2
MIR : ON : INTERNAL 2
OPTKBR

0.200000
8
8.000000
FILLER
SINGLE
SPECTRUM
UNLOCKED 256

DOUBLE

COMBINED
1
0
0

1.000000
BACKG

1
0
TRUE
51149
0
LEFT NOT FITTED RIGHT NOT FITTED 0
NONE
NONE
15600
12
4.427000
51148
TRUE
1 0 8 72 0 0 0 0

15798

#HDR
-1
-1
#GR
CM-1
EGY
2.38419e-05
0.0
5000
-1.000000
4631
8
2.426052
0.005221
#DATA
5000	0.768780
4984	0.775575
4968	0.783681
4952	0.792884
4936	0.795888
4920	0.801086
4904	0.809240
4888	0.816416
4872	0.821638
4856	0.830864
4840	0.839304
4824	0.851917
4808	0.862479
4792	0.873303
4776	0.880765
4760	0.891280
4744	0.896143
4728	0.902605
4712	0.907683
4696	0.909805
4680	0.904369
4664	0.912141
4648	0.912189
4632	0.922799
4616	0.935721
4600	0.943589
4584	0.719833
4568	0.953173
4552	0.961303
4536	0.981402
4520	0.988101
4504	0.997066
4488	1.007080
4472	1.007962
4456	1.011943
4440	1.013159
4424	1.018953
4408	1.021575
4392	1.024293
4376	1.034355
4360	1.046371
4344	1.060175
4328	1.078724
4312	1.096868
4296	1.116442
4280	1.135444
4264	1.152443
4248	1.166534
4232	1.177930
4216	1.184248
4200	1.191759
4184	1.202487
4168	1.208281
4152	1.221370
4136	1.222610
4120	1.252317
4104	1.257658
4088	1.294755
4072	1.300120
4056	1.318836
4040	1.343393
4024	1.365232
4008	1.376962
3992	1.392388
3976	1.402068
3960	1.409101
3944	1.413512
3928	1.415872
3912	1.426267
3896	1.428413
3880	1.434779
3864	1.442837
3848	1.453804
3832	1.469373
3816	1.486253
3800	1.507854
3784	1.532626
3768	1.542663
3752	1.531958
3736	1.550126
3720	1.565861
3704	1.569795
3688	1.561021
3672	1.554298
3656	1.564407
3640	1.570081
3624	1.569080
3608	1.577854
3592	1.586985
3576	1.595997
3560	1.607847
3544	1.609802
3528	1.615452
3512	1.617312
3496	1.615834
3480	1.602673
3464	1.595520
3448	1.584601
3432	1.575732
3416	1.577520
3400	1.585817
3384	1.595640
3368	1.611614
3352	1.631546
3336	1.656699
3320	1.684093
3304	1.703357
3288	1.723289
3272	1.743292
3256	1.755905
3240	1.767706
3224	1.773571
3208	1.775312
3192	1.779794
3176	1.784133
3160	1.791548
3144	1.805567
3128	1.817202
3112	1.839733
3096	1.866030
3080	1.901507
3064	1.919174
3048	1.949453
3032	1.962661
3016	1.948142
3000	2.008366
2984	2.012085
2968	1.948428
2952	1.905941
2936	1.800560
2920	1.789426
2904	1.933002
2888	1.982760
2872	1.968669
2856	1.910543
2840	2.050805
2824	2.111887
2808	2.147483
2792	2.173733
2776	2.208757
2760	2.228140
2744	2.236652
2728	2.239632
2712	2.236032
2696	2.227950
2680	2.218866
2664	2.209472
2648	2.200245
2632	2.198934
2616	2.202725
2600	2.205157
2584	2.217698
2568	2.243518
2552	2.267479
2536	2.281546
2520	2.296209
2504	2.305126
2488	2.305984
2472	2.297377
2456	2.285361
2440	2.267551
2424	2.252483
2408	2.238273
2392	2.229905
2376	2.222108
2360	2.212190
2344	2.238345
2328	2.260613
2312	2.292418
2296	2.319574
2280	2.336478
2264	2.348732
2248	2.354073
2232	2.354049
2216	2.345061
2200	2.332448
2184	2.319359
2168	2.308058
2152	2.306628
2136	2.304673
2120	2.310514
2104	2.309608
2088	2.306866
2072	2.331781
2056	2.359986
2040	2.392148
2024	2.410650
2008	2.422428
1992	2.424120
1976	2.415156
1960	2.401995
1944	2.385282
1928	2.372527
1912	2.353620
1896	2.338910
1880	2.343535
1864	2.348279
1848	2.359175
1832	2.373790
1816	2.390909
1800	2.398133
1784	2.394938
1768	2.379417
1752	2.352285
1736	2.293324
1720	2.274537
1704	2.240681
1688	2.216792
1672	2.193951
1656	2.143406
1640	2.121639
1624	2.074050
1608	1.947021
1592	1.988792
1576	1.952910
1560	1.896977
1544	1.925158
1528	2.075529
1512	2.059578
1496	1.677465
1480	1.933884
1464	1.906776
1448	1.758909
1432	1.844453
1416	1.816344
1400	1.707959
1384	1.760530
1368	1.790714
1352	1.789975
1336	1.801228
1320	1.825118
1304	1.827979
1288	1.830077
1272	1.780176
1256	1.733660
1240	1.813340
1224	1.790666
1208	1.728010
1192	1.721191
1176	1.681303
1160	1.610207
1144	1.579952
1128	1.522850
1112	1.440215
1096	1.409745
1080	1.411485
1064	1.420331
1048	1.292943
1032	1.361536
1016	1.352286
1000	1.382517
984	 1.366615
968	 1.327514
952	 1.273298
936	 1.236510
920	 1.200056
904	 1.148867
888	 1.107716
872	 1.025462
856	 1.080465
840	 1.047849
824	 0.835466
808	 0.937867
792	 0.952649
776	 0.968003
760	 0.953412
744	 0.934433
728	 0.894308
712	 0.845885
696	 0.783872
680	 0.723958
664	 0.697040
648	 0.657939
632	 0.614500
616	 0.569677
600	 0.518298
584	 0.499963
568	 0.486731
552	 0.459146
536	 0.429582
520	 0.393104
504	 0.356507
488	 0.303602
472	 0.251436
456	 0.194644
440	 0.145220
424	 0.097489
408	 0.053882
392	 0.024771
376	 0.007867
370	 0.005602