File: Bakgrunnsmateriale/MATLAB/FTIR/ftir_data/LPE454/Mapping_121/LPE454_t119.asc
PE IR       SPECTRUM    SPECTRUM    ASCII       PEDS        1.60
  -1
LP971E~1.ASC
17/05/20
00:24:25.00
17/05/20
00:24:52.00
tln
$LPE454_t0119$<tbV0>[-7.8,13.0,8.0,0.0,27,1,0]
27.028
64

2002,4.07
MIRTGS : RIGHTBACK : INTERNAL 2
MIR : ON : INTERNAL 2
OPTKBR

0.200000
8
8.000000
FILLER
RATIO
SPECTRUM
UNLOCKED 256

DOUBLE
64
COMBINED
1
0
0

0.002000
RATIO

1
0
TRUE
51149
0
LEFT NOT FITTED RIGHT NOT FITTED 0
NONE
NONE
15600
12
4.427000
51148
TRUE
1 0 8 72 0 0 0 0

15798

#HDR
-1
-1
#GR
µM
%T
2.38419e-05
0.0
2.000000
0.002000
12515
8
40.3521
-3.555420
#DATA
2.000000	 0.004339
2.084000	 -0.058911
2.168000	 -2.731546
2.252000	 1.003712
2.336000	 0.187059
2.420000	 -0.067635
2.504000	 0.332688
2.588000	 0.203393
2.672000	 0.188875
2.756000	 0.002222
2.840000	 0.121674
2.924000	 0.056314
3.008000	 -0.005803
3.092000	 0.016748
3.176000	 -0.007839
3.260000	 0.110088
3.344000	 -0.063046
3.428000	 -0.001566
3.512000	 0.185613
3.596000	 -0.026867
3.680000	 0.130867
3.764000	 0.035640
3.848000	 0.055363
3.932000	 -0.033594
4.016000	 0.017875
4.100000	 -0.024202
4.184000	 0.013848
4.268000	 0.303651
4.352000	 0.797795
4.436000	 2.174556
4.520000	 4.431766
4.604000	 7.455757
4.688000	 11.3477
4.772000	 15.2156
4.856000	 18.7742
4.940000	 21.5499
5.024000	 23.6504
5.108000	 25.4048
5.192000	 26.8195
5.276000	 27.7941
5.359999	 28.5783
5.444000	 29.1861
5.528000	 29.6545
5.612000	 29.9311
5.696000	 30.1497
5.780000	 30.3755
5.864000	 30.4881
5.948000	 30.7827
6.032000	 30.6369
6.116000	 30.8019
6.200000	 30.8972
6.284000	 30.7249
6.368000	 31.0001
6.452000	 31.012
6.536000	 30.8554
6.620000	 31.1088
6.704000	 31.1892
6.788000	 31.0474
6.872000	 30.9899
6.956000	 31.2239
7.040000	 31.1765
7.124000	 30.886
7.208000	 31.2004
7.292000	 31.2751
7.376000	 31.1272
7.460000	 30.8976
7.544000	 31.2835
7.628000	 31.3721
7.712000	 31.0554
7.796000	 31.0517
7.880000	 31.2739
7.964000	 31.3337
8.048000	 31.1482
8.132000	 30.8426
8.216000	 31.0464
8.300000	 31.2009
8.384000	 31.3258
8.468000	 31.0801
8.552000	 30.8981
8.635999	 30.8608
8.719999	 31.1554
8.804000	 31.3431
8.888000	 31.2505
8.972000	 30.8953
9.056000	 30.542
9.140000	 30.5872
9.224000	 30.8864
9.308000	 31.2559
9.391999	 31.0655
9.475999	 30.9511
9.560000	 30.5082
9.644000	 30.4817
9.728000	 30.7155
9.812000	 31.08
9.896000	 31.0077
9.980000	 31.0828
10.064	30.7155
10.148	30.5257
10.232	30.2412
10.316	30.4855
10.4	30.7248
10.484	30.6542
10.568	30.6383
10.652	30.5153
10.736	30.4195
10.82	30.138
10.904	29.7599
10.988	29.8691
11.072	30.2126
11.156	30.3085
11.24	30.4857
11.324	30.2823
11.408	30.1613
11.492	29.9919
11.576	29.775
11.66	29.7454
11.744	29.631
11.828	29.3961
11.912	29.5914
11.996	29.9591
12.08	29.9559
12.164	29.9015
12.248	29.8955
12.332	29.7049
12.416	29.4617
12.5	29.17
12.584	29.035
12.668	29.1292
12.752	29.045
12.836	29.0882
12.92	29.3346
13.004	29.5074
13.088	29.3539
13.172	29.0944
13.256	29.217
13.34	29.3775
13.424	29.1478
13.508	28.8271
13.592	28.5154
13.676	28.1922
13.76	28.2066
13.844	28.4562
13.928	28.6482
14.012	28.7319
14.096	28.7531
14.18	28.827
14.264	28.8704
14.348	28.7426
14.432	28.4142
14.516	28.1329
14.6	28.0031
14.684	27.8186
14.768	27.5908
14.852	27.5378
14.936	27.6239
15.02	27.6677
15.104	27.69
15.188	27.759
15.272	27.8591
15.356	27.9478
15.44	28.012
15.524	28.0725
15.608	28.1105
15.692	28.0706
15.776	27.9171
15.86	27.7468
15.944	27.6616
16.028	27.5484
16.112	27.2919
16.196	27.0087
16.28	26.8546
16.364	26.8029
16.448	26.7092
16.532	26.5745
16.616	26.5875
16.7	26.8172
16.784	27.0474
16.868	27.0443
16.952	26.8497
17.036	26.6984
17.12	26.7236
17.204	26.8361
17.288	26.8838
17.372	26.8131
17.456	26.6649
17.54	26.5112
17.624	26.3963
17.708	26.3003
17.792	26.1733
17.876	26.0246
17.96	25.9386
18.044	25.9788
18.128	26.0995
18.212	26.1721
18.296	26.0931
18.38	25.8777
18.464	25.6455
18.548	25.5136
18.632	25.493
18.716	25.5027
18.8	25.4658
18.884	25.367
18.968	25.2366
19.052	25.1045
19.136	24.9871
19.22	24.8893
19.304	24.8143
19.388	24.7804
19.472	24.8251
19.556	24.9728
19.64	25.2082
19.724	25.4952
19.808	25.8025
19.892	26.0768
19.976	26.1973
20.06	26.0279
20.144	25.5579
20.228	24.9876
20.312	24.5985
20.396	24.5291
20.48	24.6671
20.564	24.7938
20.648	24.7855
20.732	24.6879
20.816	24.6036
20.9	24.5273
20.984	24.3178
21.068	23.8231
21.152	23.0484
21.236	22.1806
21.32	21.4606
21.404	21.0602
21.488	21.0503
21.572	21.4526
21.656	22.2527
21.74	23.3473
21.824	24.4996
21.908	25.3945
21.992	25.7804
22.076	25.5733
22.16	24.8856
22.244	23.9439
22.328	22.9803
22.412	22.2076
22.496	21.8164
22.58	21.9588
22.664	22.6918
22.748	23.8705
22.832	25.1537
22.916	26.1129
23	26.4283
23.084	26.0837
23.168	25.3758
23.252	24.7196
23.336	24.478
23.42	24.736
23.504	25.314
23.588	25.8495
23.672	25.9938
23.756	25.5613
23.84	24.5837
23.924	23.2821
24.008	21.9279
24.092	20.7288
24.176	19.7882
24.26	19.2074
24.344	19.1274
24.428	19.7037
24.512	21.1159
24.596	23.4064
24.68	26.4355
24.764	29.8828
24.848	33.3419
24.932	36.3707
25.016	38.6303
25.1	39.9446
25.184	40.3508
25.268	40.0895
25.352	39.5006
25.436	38.9822
25.52	38.8143
25.604	39.0263
25.688	39.3404
25.772	39.2219
25.856	38.0726
25.94	35.3955
26.024	30.9904
26.108	25.1197
26.192	18.4843
26.276	12.0635
26.36	6.917493
26.444	3.782489
26.528	2.844142
26.612	3.685335
26.696	5.525917
26.78	7.523367
26.864	8.981590
26.948	9.429388
27.028	8.616161