File: Bakgrunnsmateriale/MATLAB/FTIR/ftir_data/LPE454/Mapping_121/LPE454_t03_cm-1.asc
PE IR       SPECTRUM    SPECTRUM    ASCII       PEDS        1.60
  -1
LP5730~1.ASC
17/05/19
14:38:34.00
17/05/19
14:38:34.00
tln
$LPE454_t0003$<tbV0>[7.8,-13.0,8.0,0.0,27,1,0]
370
64

2002,4.07
MIRTGS : RIGHTBACK : INTERNAL 2
MIR : ON : INTERNAL 2
OPTKBR

0.200000
8
8.000000
FILLER
RATIO
SPECTRUM
UNLOCKED 256

DOUBLE
64
COMBINED
1
0
0

1.000000
RATIO

1
0
TRUE
51149
0
LEFT NOT FITTED RIGHT NOT FITTED 0
NONE
NONE
15600
12
4.427000
51148
TRUE
1 0 8 72 0 0 0 0

15798

#HDR
-1
-1
#GR
CM-1
%T
2.38419e-05
0.0
5000
-1.000000
4631
8
42.4808
-30.9342
#DATA
5000	-0.401926
4984	0.326657
4968	0.431609
4952	0.592970
4936	-0.466084
4920	0.094437
4904	0.380349
4888	1.028418
4872	1.051282
4856	1.620888
4840	0.797104
4824	0.163316
4808	1.602649
4792	0.298976
4776	0.281834
4760	0.142145
4744	0.320243
4728	-0.094175
4712	-0.003290
4696	-0.005388
4680	0.349426
4664	-0.068783
4648	0.283432
4632	0.341343
4616	0.296139
4600	0.612139
4584	0.165915
4568	0.372266
4552	-0.033998
4536	0.173807
4520	0.316762
4504	-0.783991
4488	-0.408315
4472	3.236556
4456	11.857
4440	-0.584149
4424	-1.281452
4408	-0.707483
4392	-0.678062
4376	-0.711321
4360	0.087761
4344	0.171828
4328	0.113296
4312	0.117993
4296	0.042819
4280	-0.044989
4264	0.148105
4248	0.843811
4232	-0.034642
4216	0.190901
4200	0.499200
4184	0.778412
4168	-0.043630
4152	0.051379
4136	0.069832
4120	0.103187
4104	0.193667
4088	0.108957
4072	0.301885
4056	0.320625
4040	0.240778
4024	0.100398
4008	-0.222229
3992	-0.038599
3976	0.182175
3960	0.063085
3944	0.136518
3928	0.062227
3912	0.078821
3896	0.262618
3880	-0.138545
3864	-0.024867
3848	0.040626
3832	0.180482
3816	0.255942
3800	-0.111699
3784	-0.028324
3768	0.048875
3752	0.012779
3736	0.249290
3720	-0.176310
3704	0.078725
3688	0.028634
3672	0.181698
3656	0.084328
3640	0.197029
3624	0.073075
3608	0.277972
3592	-0.013995
3576	-0.087499
3560	-0.021362
3544	0.123071
3528	0.004959
3512	0.218296
3496	-0.016450
3480	0.198292
3464	0.085854
3448	-0.057697
3432	0.021600
3416	-0.078654
3400	-0.011968
3384	0.076460
3368	0.149464
3352	0.092411
3336	0.061774
3320	0.053238
3304	0.097084
3288	0.035262
3272	-0.054526
3256	0.052785
3240	-0.034141
3224	0.025463
3208	0.049543
3192	0.101661
3176	0.215363
3160	0.065946
3144	-0.008082
3128	0.221776
3112	0.063371
3096	-0.106525
3080	-0.033283
3064	0.021553
3048	-0.040054
3032	0.054430
3016	0.015735
3000	0.038194
2984	-0.009298
2968	0.034618
2952	0.079250
2936	0.020813
2920	0.038933
2904	0.102877
2888	0.114679
2872	0.096130
2856	-0.058436
2840	0.098204
2824	0.031542
2808	0.009942
2792	0.066304
2776	0.081038
2760	-0.026011
2744	-0.040435
2728	0.060820
2712	-0.045442
2696	0.057458
2680	0.099921
2664	0.014185
2648	0.017690
2632	0.036025
2616	0.023889
2600	0.093317
2584	0.075793
2568	0.025916
2552	0.000095
2536	0.067305
2520	-0.037097
2504	0.070166
2488	0.010108
2472	0.094580
2456	0.163149
2440	0.067687
2424	0.108122
2408	0.108814
2392	0.233268
2376	0.197625
2360	0.306606
2344	0.384449
2328	0.578832
2312	0.618124
2296	1.163244
2280	1.635622
2264	2.233934
2248	3.099918
2232	4.015970
2216	5.226111
2200	6.582689
2184	8.258390
2168	10.0841
2152	12.0845
2136	14.06
2120	15.9566
2104	17.8229
2088	20.0461
2072	21.7868
2056	23.3786
2040	25.0588
2024	26.7315
2008	27.7742
1992	28.8893
1976	30.1902
1960	31.1357
1944	31.5977
1928	32.3416
1912	33.2743
1896	33.7738
1880	33.7925
1864	34.495
1848	35.1304
1832	35.2091
1816	35.1433
1800	35.7169
1784	36.1476
1768	35.8128
1752	35.9107
1736	36.5633
1720	36.6868
1704	36.0502
1688	36.2883
1672	36.7284
1656	36.6463
1640	36.1359
1624	36.3195
1608	36.7153
1592	36.53
1576	36.1737
1560	36.523
1544	36.9879
1528	36.465
1512	36.0895
1496	36.4688
1480	36.769
1464	36.113
1448	35.5815
1432	36.2681
1416	36.7427
1400	35.9736
1384	35.6765
1368	36.1856
1352	36.5058
1336	35.7146
1320	35.4698
1304	36.1903
1288	36.3292
1272	35.4536
1256	35.261
1240	36.087
1224	36.094
1208	35.1647
1192	35.2068
1176	36.1147
1160	35.9307
1144	34.9218
1128	35.002
1112	35.7325
1096	35.7072
1080	34.6629
1064	34.722
1048	35.6432
1032	35.3936
1016	34.7005
1000	34.3524
984	 35.1236
968	 34.7307
952	 33.5677
936	 34.0894
920	 34.7252
904	 34.2385
888	 33.1958
872	 33.5666
856	 34.0594
840	 33.7153
824	 32.774
808	 32.8425
792	 33.4789
776	 32.6681
760	 31.7116
744	 32.1101
728	 32.5046
712	 31.8261
696	 30.7554
680	 30.9754
664	 31.5424
648	 30.8063
632	 29.6117
616	 29.5253
600	 29.9634
584	 29.1345
568	 28.0756
552	 28.0114
536	 29.3216
520	 27.5743
504	 26.6725
488	 26.4223
472	 28.1528
456	 24.157
440	 25.4725
424	 23.4178
408	 38.1507
392	 32.937
376	 -15.8213
370	 -25.7992