File: Bakgrunnsmateriale/MATLAB/FTIR/ftir_data/LPE454/Mapping_121/LPE454_t102.asc
PE IR       SPECTRUM    SPECTRUM    ASCII       PEDS        1.60
  -1
LP9BF7~1.ASC
17/05/19
22:45:21.00
17/05/19
22:45:47.00
tln
$LPE454_t0102$<tbV0>[7.8,10.4,8.0,0.0,27,1,0]
27.028
64

2002,4.07
MIRTGS : RIGHTBACK : INTERNAL 2
MIR : ON : INTERNAL 2
OPTKBR

0.200000
8
8.000000
FILLER
RATIO
SPECTRUM
UNLOCKED 256

DOUBLE
64
COMBINED
1
0
0

0.002000
RATIO

1
0
TRUE
51149
0
LEFT NOT FITTED RIGHT NOT FITTED 0
NONE
NONE
15600
12
4.427000
51148
TRUE
1 0 8 72 0 0 0 0

15798

#HDR
-1
-1
#GR
µM
%T
2.38419e-05
0.0
2.000000
0.002000
12515
8
48.8637
-2.157963
#DATA
2.000000	 0.127458
2.084000	 0.211704
2.168000	 -1.598284
2.252000	 0.746123
2.336000	 0.054688
2.420000	 0.301239
2.504000	 0.001534
2.588000	 -0.091941
2.672000	 0.004322
2.756000	 0.064413
2.840000	 -0.060135
2.924000	 0.069447
3.008000	 0.136922
3.092000	 0.082224
3.176000	 -0.050378
3.260000	 0.105542
3.344000	 0.023489
3.428000	 0.087281
3.512000	 -0.033462
3.596000	 -0.039146
3.680000	 0.055647
3.764000	 0.016137
3.848000	 0.135433
3.932000	 0.026196
4.016000	 0.036542
4.100000	 0.135363
4.184000	 0.310905
4.268000	 0.860414
4.352000	 1.938973
4.436000	 4.307463
4.520000	 8.057704
4.604000	 12.7722
4.688000	 18.1814
4.772000	 23.2426
4.856000	 27.7575
4.940000	 30.9532
5.024000	 33.5159
5.108000	 35.4105
5.192000	 36.7711
5.276000	 37.7456
5.359999	 38.456
5.444000	 38.9247
5.528000	 39.217
5.612000	 39.4512
5.696000	 39.7903
5.780000	 39.7326
5.864000	 39.9869
5.948000	 40.0843
6.032000	 39.9966
6.116000	 40.2533
6.200000	 40.109
6.284000	 39.9843
6.368000	 40.1808
6.452000	 40.2035
6.536000	 40.1283
6.620000	 40.1688
6.704000	 40.2012
6.788000	 40.17
6.872000	 39.9616
6.956000	 40.2422
7.040000	 40.2444
7.124000	 40.0918
7.208000	 40.0586
7.292000	 40.0177
7.376000	 40.1044
7.460000	 40.2155
7.544000	 40.0885
7.628000	 39.9138
7.712000	 39.9993
7.796000	 40.0305
7.880000	 39.9077
7.964000	 39.8667
8.048000	 39.7569
8.132000	 39.8551
8.216000	 39.8746
8.300000	 39.8156
8.384000	 39.8211
8.468000	 39.7256
8.552000	 39.6109
8.635999	 39.8121
8.719999	 39.7631
8.804000	 39.8193
8.888000	 39.5605
8.972000	 39.5094
9.056000	 39.4794
9.140000	 39.5648
9.224000	 39.5696
9.308000	 39.4545
9.391999	 39.2538
9.475999	 39.3517
9.560000	 39.4256
9.644000	 39.4409
9.728000	 39.4499
9.812000	 39.3272
9.896000	 39.4533
9.980000	 39.0739
10.064	39.0141
10.148	38.8713
10.232	38.8773
10.316	38.9143
10.4	39.0253
10.484	38.8454
10.568	38.8949
10.652	38.9484
10.736	38.8018
10.82	38.5334
10.904	38.4413
10.988	38.3056
11.072	38.3376
11.156	38.4107
11.24	38.3995
11.324	38.4073
11.408	38.6638
11.492	38.4636
11.576	38.2227
11.66	38.0812
11.744	37.7903
11.828	37.6783
11.912	37.675
11.996	37.6296
12.08	37.4789
12.164	37.5004
12.248	37.8177
12.332	37.8974
12.416	37.7648
12.5	37.6083
12.584	37.3081
12.668	37.1701
12.752	36.979
12.836	36.5872
12.92	36.4424
13.004	36.7558
13.088	37.0975
13.172	37.1672
13.256	37.0682
13.34	36.9323
13.424	36.9635
13.508	37.0344
13.592	36.9198
13.676	36.6848
13.76	36.7012
13.844	36.5998
13.928	36.3448
14.012	36.3387
14.096	36.2035
14.18	35.9789
14.264	35.9569
14.348	35.9085
14.432	35.837
14.516	35.8805
14.6	35.9574
14.684	35.9904
14.768	36.0415
14.852	36.1758
14.936	36.3479
15.02	36.4218
15.104	36.2809
15.188	35.9895
15.272	35.6485
15.356	35.3026
15.44	35.0429
15.524	34.8483
15.608	34.6168
15.692	34.4747
15.776	34.5878
15.86	34.7744
15.944	34.8417
16.028	34.8827
16.112	34.8712
16.196	34.6368
16.28	34.3074
16.364	34.1674
16.448	34.2678
16.532	34.5123
16.616	34.7383
16.7	34.776
16.784	34.6884
16.868	34.6705
16.952	34.7395
17.036	34.8683
17.12	35.0742
17.204	35.1621
17.288	34.9272
17.372	34.5143
17.456	34.117
17.54	33.6403
17.624	33.0658
17.708	32.7497
17.792	32.9556
17.876	33.4156
17.96	33.6015
18.044	33.2551
18.128	32.5688
18.212	32.0231
18.296	32.0648
18.38	32.734
18.464	33.6032
18.548	34.1698
18.632	34.2781
18.716	34.1188
18.8	33.9135
18.884	33.7248
18.968	33.5405
19.052	33.3779
19.136	33.2623
19.22	33.1919
19.304	33.1618
19.388	33.1679
19.472	33.1496
19.556	33.0006
19.64	32.6663
19.724	32.2114
19.808	31.7584
19.892	31.3979
19.976	31.158
20.06	31.0448
20.144	31.0577
20.228	31.1666
20.312	31.3078
20.396	31.4409
20.48	31.5876
20.564	31.8051
20.648	32.1044
20.732	32.4029
20.816	32.5522
20.9	32.4356
20.984	32.0427
21.068	31.4752
21.152	30.8874
21.236	30.42
21.32	30.1676
21.404	30.1733
21.488	30.4341
21.572	30.8911
21.656	31.4328
21.74	31.9198
21.824	32.2421
21.908	32.368
21.992	32.3406
22.076	32.2357
22.16	32.1045
22.244	31.9485
22.328	31.741
22.412	31.464
22.496	31.1383
22.58	30.8135
22.664	30.546
22.748	30.3749
22.832	30.3036
22.916	30.3083
23	30.3451
23.084	30.347
23.168	30.2367
23.252	29.9576
23.336	29.4846
23.42	28.872
23.504	28.2342
23.588	27.7048
23.672	27.3759
23.756	27.2593
23.84	27.3137
23.924	27.4558
24.008	27.6284
24.092	27.8435
24.176	28.1465
24.26	28.552
24.344	29.0005
24.428	29.3561
24.512	29.4028
24.596	29.0001
24.68	28.0883
24.764	26.6876
24.848	24.9358
24.932	23.1462
25.016	21.7026
25.1	20.8384
25.184	20.6063
25.268	20.8254
25.352	21.1396
25.436	21.0591
25.52	20.1163
25.604	18.0313
25.688	15.041
25.772	11.8925
25.856	9.511399
25.94	8.416097
26.024	8.604314
26.108	9.654588
26.192	11.5449
26.276	14.7385
26.36	20.1969
26.444	28.0955
26.528	37.2821
26.612	45.1457
26.696	48.8075
26.78	46.3655
26.864	38.0483
26.948	26.0252
27.028	13.9906