File: Bakgrunnsmateriale/MATLAB/FTIR/ftir_data/LPE454/Mapping_121/LPE454_t14_cm-1.asc
PE IR       SPECTRUM    SPECTRUM    ASCII       PEDS        1.60
  -1
LPE7BB~1.ASC
17/05/19
15:29:54.00
17/05/19
15:29:54.00
tln
$LPE454_t0014$<tbV0>[7.8,-10.4,8.0,0.0,27,1,0]
370
64

2002,4.07
MIRTGS : RIGHTBACK : INTERNAL 2
MIR : ON : INTERNAL 2
OPTKBR

0.200000
8
8.000000
FILLER
RATIO
SPECTRUM
UNLOCKED 256

DOUBLE
64
COMBINED
1
0
0

1.000000
RATIO

1
0
TRUE
51149
0
LEFT NOT FITTED RIGHT NOT FITTED 0
NONE
NONE
15600
12
4.427000
51148
TRUE
1 0 8 72 0 0 0 0

15798

#HDR
-1
-1
#GR
CM-1
%T
2.38419e-05
0.0
5000
-1.000000
4631
8
34.1235
-20.5526
#DATA
5000	0.327444
4984	0.251936
4968	0.541996
4952	0.443220
4936	0.009369
4920	0.068044
4904	-0.214076
4888	-0.116920
4872	0.775671
4856	0.185155
4840	0.067615
4824	0.269031
4808	0.197768
4792	0.605249
4776	1.907873
4760	0.212836
4744	1.816654
4728	-0.541090
4712	0.071907
4696	0.495409
4680	0.390458
4664	0.366520
4648	0.282979
4632	0.701308
4616	0.711369
4600	0.746297
4584	0.377988
4568	-0.576424
4552	-0.909209
4536	-1.406836
4520	-0.658369
4504	-0.586843
4488	14.5637
4472	5.822944
4456	-1.179194
4440	-1.480889
4424	-0.448369
4408	0.425434
4392	0.691103
4376	0.789070
4360	0.989127
4344	0.465512
4328	0.495982
4312	0.227546
4296	0.147294
4280	0.027108
4264	-0.049328
4248	0.325298
4232	0.343728
4216	0.307059
4200	0.120663
4184	0.535345
4168	0.483655
4152	-0.138092
4136	0.144100
4120	0.114107
4104	0.024056
4088	0.226593
4072	-0.187635
4056	0.135207
4040	-0.136613
4024	0.133633
4008	0.084185
3992	0.192427
3976	0.194478
3960	0.366926
3944	0.183296
3928	0.121903
3912	0.138187
3896	0.169610
3880	-0.049471
3864	0.298571
3848	-0.074100
3832	0.243258
3816	0.091123
3800	0.035500
3784	0.074434
3768	-0.106549
3752	0.123095
3736	0.190687
3720	0.131750
3704	-0.006318
3688	0.021147
3672	-0.012183
3656	0.119709
3640	0.111150
3624	-0.056457
3608	-0.004816
3592	-0.138640
3576	-0.155806
3560	0.121974
3544	0.127840
3528	0.091266
3512	0.056838
3496	0.107598
3480	0.042390
3464	0.258278
3448	-0.047349
3432	-0.166106
3416	-0.048422
3400	0.008845
3384	-0.103998
3368	0.120234
3352	-0.050139
3336	0.027036
3320	0.035810
3304	-0.044703
3288	-0.057697
3272	0.046300
3256	0.021243
3240	-0.025224
3224	0.051784
3208	0.044131
3192	-0.033664
3176	0.011730
3160	0.113248
3144	-0.031304
3128	0.188183
3112	-0.038003
3096	0.019359
3080	0.087594
3064	0.172805
3048	-0.011014
3032	-0.073289
3016	0.042128
3000	-0.042486
2984	0.028610
2968	0.174307
2952	0.061440
2936	0.075387
2920	0.184965
2904	0.059080
2888	-0.094461
2872	0.041890
2856	0.105905
2840	0.126385
2824	0.011944
2808	0.071454
2792	0.112390
2776	0.031805
2760	0.058507
2744	0.144481
2728	-0.061178
2712	0.022292
2696	-0.078082
2680	0.028777
2664	-0.013422
2648	0.039958
2632	0.004553
2616	0.008893
2600	-0.050330
2584	0.084066
2568	0.088357
2552	-0.007748
2536	-0.020599
2520	0.035047
2504	-0.014901
2488	-0.018143
2472	0.017881
2456	0.029635
2440	-0.021672
2424	0.156664
2408	0.052452
2392	0.051927
2376	0.080633
2360	0.054454
2344	0.186395
2328	0.310611
2312	0.458359
2296	0.760102
2280	1.008605
2264	1.458311
2248	2.152490
2232	2.884507
2216	3.784489
2200	4.983472
2184	6.409502
2168	7.958507
2152	9.582519
2136	11.5167
2120	13.4184
2104	15.3844
2088	17.2555
2072	19.2803
2056	21.1097
2040	22.501
2024	23.9325
2008	25.3007
1992	26.4237
1976	27.614
1960	28.4923
1944	29.2859
1928	29.8973
1912	30.6337
1896	31.1778
1880	31.561
1864	32.0053
1848	32.3705
1832	32.6318
1816	32.888
1800	33.1575
1784	33.277
1768	33.423
1752	33.6148
1736	33.6935
1720	33.7442
1704	33.7616
1688	33.9403
1672	33.9494
1656	33.9902
1640	33.9599
1624	33.8754
1608	33.8198
1592	33.7854
1576	34.0369
1560	34.1087
1544	33.9484
1528	33.8485
1512	33.9148
1496	33.7934
1480	33.8352
1464	33.8971
1448	33.711
1432	33.7998
1416	33.7479
1400	33.7709
1384	33.8025
1368	33.5801
1352	33.698
1336	33.711
1320	33.5047
1304	33.5162
1288	33.4889
1272	33.2878
1256	33.3153
1240	33.3071
1224	33.3069
1208	33.2271
1192	33.2788
1176	33.2259
1160	33.1522
1144	32.8572
1128	32.8855
1112	32.906
1096	32.8478
1080	32.4065
1064	32.5641
1048	32.468
1032	32.3954
1016	32.1728
1000	32.4558
984	 32.1577
968	 31.8943
952	 31.8878
936	 31.6797
920	 31.2595
904	 31.2071
888	 31.1015
872	 31.1361
856	 30.5155
840	 30.4828
824	 30.5377
808	 30.0531
792	 29.7195
776	 29.9105
760	 29.4097
744	 28.9461
728	 28.5927
712	 28.5973
696	 27.8076
680	 27.8964
664	 28.1119
648	 27.6461
632	 26.6218
616	 26.3574
600	 26.5452
584	 25.9818
568	 24.9922
552	 24.6911
536	 25.2122
520	 24.6721
504	 24.0922
488	 24.0877
472	 23.9119
456	 22.1796
440	 20.6338
424	 23.4567
408	 30.1328
392	 21.2268
376	 12.2482
370	 33.1081