File: Bakgrunnsmateriale/MATLAB/FTIR/ftir_data/LPE454/Mapping_121/LPE454_t105_cm-1.asc
PE IR       SPECTRUM    SPECTRUM    ASCII       PEDS        1.60
  -1
LP08DC~1.ASC
17/05/19
22:59:11.00
17/05/19
22:59:11.00
tln
$LPE454_t0105$<tbV0>[0.0,10.4,8.0,0.0,27,1,0]
370
64

2002,4.07
MIRTGS : RIGHTBACK : INTERNAL 2
MIR : ON : INTERNAL 2
OPTKBR

0.200000
8
8.000000
FILLER
RATIO
SPECTRUM
UNLOCKED 256

DOUBLE
64
COMBINED
1
0
0

1.000000
RATIO

1
0
TRUE
51149
0
LEFT NOT FITTED RIGHT NOT FITTED 0
NONE
NONE
15600
12
4.427000
51148
TRUE
1 0 8 72 0 0 0 0

15798

#HDR
-1
-1
#GR
CM-1
%T
2.38419e-05
0.0
5000
-1.000000
4631
8
37.2225
-1.558661
#DATA
5000	0.302457
4984	0.357604
4968	0.134897
4952	0.146102
4936	0.169491
4920	-0.256919
4904	0.224137
4888	0.238275
4872	0.402617
4856	-0.033617
4840	0.566983
4824	0.443673
4808	0.338459
4792	-0.101494
4776	0.110220
4760	0.416374
4744	0.548219
4728	1.035213
4712	0.099658
4696	0.377368
4680	0.028896
4664	0.048208
4648	-0.196099
4632	-0.214076
4616	-0.756359
4600	2.498769
4584	13.1342
4568	0.050997
4552	-1.022601
4536	-1.217055
4520	-0.950169
4504	0.140380
4488	0.004458
4472	0.469803
4456	0.919461
4440	0.538349
4424	0.453925
4408	0.138807
4392	0.464177
4376	-0.124430
4360	0.099563
4344	-0.204133
4328	-0.126576
4312	0.135159
4296	0.513601
4280	0.138235
4264	0.396800
4248	0.078201
4232	-0.081467
4216	0.003790
4200	-0.181388
4184	0.070214
4168	0.183987
4152	0.210642
4136	0.023150
4120	0.238943
4104	-0.121784
4088	-0.232243
4072	0.067567
4056	1.521015
4040	-0.082921
4024	0.300455
4008	0.050878
3992	0.027394
3976	0.182938
3960	0.231814
3944	0.212597
3928	-0.111770
3912	0.015282
3896	0.018143
3880	-0.056743
3864	0.077939
3848	0.203394
3832	0.052595
3816	-0.058197
3800	0.120258
3784	0.188446
3768	0.108671
3752	-0.215935
3736	0.082969
3720	0.102353
3704	0.030660
3688	-0.034832
3672	0.106167
3656	0.028014
3640	0.034642
3624	-0.059723
3608	0.045561
3592	-0.071001
3576	0.105690
3560	0.194764
3544	0.076723
3528	0.108718
3512	0.137448
3496	0.105357
3480	0.059270
3464	0.126767
3448	-0.073146
3432	0.180983
3416	0.035643
3400	0.080132
3384	0.041031
3368	0.027465
3352	0.115227
3336	0.089669
3320	0.108337
3304	0.039744
3288	0.047159
3272	0.101780
3256	0.107097
3240	0.115704
3224	0.087523
3208	0.129795
3192	0.082826
3176	0.098657
3160	0.149488
3144	-0.019121
3128	0.027489
3112	-0.010895
3096	0.025343
3080	0.127029
3064	-0.028562
3048	0.025820
3032	0.125336
3016	0.068497
3000	0.110840
2984	0.042104
2968	-0.010490
2952	0.172805
2936	0.048613
2920	0.126600
2904	0.116229
2888	0.046086
2872	0.040745
2856	0.027871
2840	0.143146
2824	-0.045061
2808	0.045561
2792	0.004625
2776	0.041222
2760	0.078392
2744	0.056076
2728	0.075149
2712	0.013160
2696	0.061774
2680	0.095200
2664	-0.044441
2648	0.048995
2632	0.008964
2616	0.049090
2600	0.072598
2584	-0.019526
2568	-0.069570
2552	0.090742
2536	0.081706
2520	0.056982
2504	0.074696
2488	0.074267
2472	0.016856
2456	0.077891
2440	0.052261
2424	0.166559
2408	0.163245
2392	0.116896
2376	0.193119
2360	0.295281
2344	0.475335
2328	0.597763
2312	0.897336
2296	1.252317
2280	1.810836
2264	2.482247
2248	3.379082
2232	4.347896
2216	5.757379
2200	7.197785
2184	8.957028
2168	10.7294
2152	12.7567
2136	14.7893
2120	16.812
2104	18.9484
2088	20.908
2072	22.5549
2056	24.317
2040	25.984
2024	27.3377
2008	28.4111
1992	29.8969
1976	30.7891
1960	31.2507
1944	32.3511
1928	33.2226
1912	33.3822
1896	33.7379
1880	34.5779
1864	34.9927
1848	34.8552
1832	35.261
1816	35.7126
1800	35.6112
1784	35.5541
1768	36.0275
1752	36.4872
1736	36.0233
1720	35.9991
1704	36.5392
1688	36.7036
1672	36.2841
1656	36.3771
1640	37.0599
1624	36.7185
1608	36.1224
1592	36.5873
1576	37.029
1560	36.6423
1544	36.2769
1528	36.7974
1512	37.1069
1496	36.5889
1480	36.2969
1464	36.9894
1448	37.0928
1432	36.3652
1416	36.4032
1400	37.0747
1384	36.9346
1368	36.2087
1352	36.398
1336	37.1546
1320	36.8584
1304	36.1959
1288	36.3424
1272	37.129
1256	36.6989
1240	35.84
1224	36.5022
1208	36.9889
1192	36.3212
1176	35.7028
1160	36.4707
1144	36.7499
1128	35.9483
1112	35.4841
1096	36.2777
1080	36.7801
1064	35.4903
1048	35.307
1032	35.9756
1016	36.196
1000	35.1519
984	 34.6793
968	 35.7869
952	 35.5427
936	 34.4638
920	 34.3027
904	 35.1146
888	 34.8578
872	 33.8267
856	 33.964
840	 34.6208
824	 34.3404
808	 32.8988
792	 33.0258
776	 33.7701
760	 33.3941
744	 32.0568
728	 32.3281
712	 33.0554
696	 32.1214
680	 30.9507
664	 31.3005
648	 31.3991
632	 31.1008
616	 30.0301
600	 30.0294
584	 30.7068
568	 28.6142
552	 29.0932
536	 30.5098
520	 29.7348
504	 27.9958
488	 26.9482
472	 26.8618
456	 26.5533
440	 24.3885
424	 26.8905
408	 23.9132
392	 19.414
376	 17.1899
370	 5.231332