File: Bakgrunnsmateriale/MATLAB/FTIR/ftir_data/LPE454/Mapping_121/LPE454_t13.asc
PE IR       SPECTRUM    SPECTRUM    ASCII       PEDS        1.60
  -1
LPC790~1.ASC
17/05/19
15:25:18.00
17/05/19
15:25:44.00
tln
$LPE454_t0013$<tbV0>[10.4,-10.4,8.0,0.0,27,1,0]
27.028
64

2002,4.07
MIRTGS : RIGHTBACK : INTERNAL 2
MIR : ON : INTERNAL 2
OPTKBR

0.200000
8
8.000000
FILLER
RATIO
SPECTRUM
UNLOCKED 256

DOUBLE
64
COMBINED
1
0
0

0.002000
RATIO

1
0
TRUE
51149
0
LEFT NOT FITTED RIGHT NOT FITTED 0
NONE
NONE
15600
12
4.427000
51148
TRUE
1 0 8 72 0 0 0 0

15798

#HDR
-1
-1
#GR
µM
%T
2.38419e-05
0.0
2.000000
0.002000
12515
8
121.224
-3.775029
#DATA
2.000000	 0.424432
2.084000	 -0.304292
2.168000	 0.255785
2.252000	 -0.875942
2.336000	 0.422947
2.420000	 0.191955
2.504000	 -0.013198
2.588000	 0.013151
2.672000	 -0.105404
2.756000	 -0.031789
2.840000	 0.023996
2.924000	 -0.096474
3.008000	 0.156399
3.092000	 0.107115
3.176000	 -0.043931
3.260000	 0.025606
3.344000	 0.124479
3.428000	 -0.053831
3.512000	 0.146239
3.596000	 0.027891
3.680000	 0.016054
3.764000	 -0.008915
3.848000	 0.016004
3.932000	 0.120402
4.016000	 0.129721
4.100000	 -0.008349
4.184000	 0.035200
4.268000	 -0.006809
4.352000	 0.300333
4.436000	 1.336286
4.520000	 3.221810
4.604000	 6.194044
4.688000	 10.0844
4.772000	 14.1428
4.856000	 17.9784
4.940000	 21.0984
5.024000	 23.5058
5.108000	 25.3879
5.192000	 26.9282
5.276000	 28.0678
5.359999	 29.0307
5.444000	 29.8258
5.528000	 30.3397
5.612000	 30.6825
5.696000	 30.954
5.780000	 31.2093
5.864000	 31.4846
5.948000	 31.5298
6.032000	 31.6523
6.116000	 31.7224
6.200000	 31.6528
6.284000	 31.5579
6.368000	 31.6349
6.452000	 31.7598
6.536000	 31.728
6.620000	 31.6983
6.704000	 31.5291
6.788000	 31.6498
6.872000	 31.5879
6.956000	 31.553
7.040000	 31.5887
7.124000	 31.4634
7.208000	 31.4984
7.292000	 31.5696
7.376000	 31.4128
7.460000	 31.4291
7.544000	 31.3987
7.628000	 31.4106
7.712000	 31.2724
7.796000	 31.2246
7.880000	 31.2805
7.964000	 31.1261
8.048000	 31.1514
8.132000	 31.0843
8.216000	 31.1786
8.300000	 31.1106
8.384000	 30.9671
8.468000	 30.904
8.552000	 30.9152
8.635999	 30.9471
8.719999	 30.9492
8.804000	 30.7015
8.888000	 30.6311
8.972000	 30.5807
9.056000	 30.9036
9.140000	 30.3967
9.224000	 30.5397
9.308000	 30.2324
9.391999	 30.3673
9.475999	 30.1546
9.560000	 30.0926
9.644000	 30.1605
9.728000	 30.0186
9.812000	 29.7617
9.896000	 29.7797
9.980000	 29.9805
10.064	29.6291
10.148	29.8123
10.232	29.8498
10.316	29.6089
10.4	29.4426
10.484	29.3556
10.568	29.4192
10.652	29.5296
10.736	29.3686
10.82	29.2639
10.904	28.9868
10.988	28.886
11.072	29.0562
11.156	29.069
11.24	28.9754
11.324	28.9584
11.408	28.7433
11.492	28.6501
11.576	28.3775
11.66	28.2422
11.744	28.2496
11.828	28.4669
11.912	28.5107
11.996	28.1981
12.08	28.1226
12.164	27.9298
12.248	28.118
12.332	28.0811
12.416	27.7742
12.5	27.5473
12.584	27.3174
12.668	27.1984
12.752	27.3902
12.836	27.391
12.92	27.2618
13.004	27.1578
13.088	26.8066
13.172	26.6258
13.256	26.8386
13.34	27.0359
13.424	26.9574
13.508	26.6104
13.592	26.5589
13.676	26.635
13.76	26.6313
13.844	26.7091
13.928	26.6795
14.012	26.3722
14.096	26.0612
14.18	25.8951
14.264	25.7123
14.348	25.6202
14.432	25.7886
14.516	25.923
14.6	25.7314
14.684	25.5257
14.768	25.4853
14.852	25.4426
14.936	25.4855
15.02	25.6136
15.104	25.5925
15.188	25.3658
15.272	25.0784
15.356	24.9434
15.44	24.9758
15.524	24.9259
15.608	24.7103
15.692	24.4904
15.776	24.3983
15.86	24.3948
15.944	24.3848
16.028	24.3821
16.112	24.4438
16.196	24.5546
16.28	24.6188
16.364	24.5327
16.448	24.3465
16.532	24.1339
16.616	23.8883
16.7	23.7067
16.784	23.7163
16.868	23.8026
16.952	23.7488
17.036	23.5625
17.12	23.4208
17.204	23.4202
17.288	23.5134
17.372	23.5871
17.456	23.5303
17.54	23.3106
17.624	23.0204
17.708	22.7885
17.792	22.6704
17.876	22.6756
17.96	22.8135
18.044	23.0346
18.128	23.1871
18.212	23.122
18.296	22.8487
18.38	22.5517
18.464	22.4224
18.548	22.476
18.632	22.5495
18.716	22.4789
18.8	22.25
18.884	21.9811
18.968	21.791
19.052	21.7157
19.136	21.736
19.22	21.8227
19.304	21.9392
19.388	22.0347
19.472	22.0804
19.556	22.096
19.64	22.1201
19.724	22.1508
19.808	22.1385
19.892	22.0415
19.976	21.8692
20.06	21.6663
20.144	21.4708
20.228	21.2945
20.312	21.1446
20.396	21.0313
20.48	20.9583
20.564	20.9067
20.648	20.8506
20.732	20.7704
20.816	20.6577
20.9	20.5138
20.984	20.3638
21.068	20.2627
21.152	20.2593
21.236	20.3427
21.32	20.4186
21.404	20.3587
21.488	20.0865
21.572	19.6406
21.656	19.1487
21.74	18.7446
21.824	18.4834
21.908	18.3278
21.992	18.2166
22.076	18.134
22.16	18.1272
22.244	18.2543
22.328	18.5042
22.412	18.7968
22.496	19.0228
22.58	19.1261
22.664	19.1388
22.748	19.1528
22.832	19.2321
22.916	19.3918
23	19.5693
23.084	19.7045
23.168	19.7985
23.252	19.9054
23.336	20.0746
23.42	20.3371
23.504	20.6154
23.588	20.7374
23.672	20.5241
23.756	19.8714
23.84	18.8516
23.924	17.7203
24.008	16.8111
24.092	16.425
24.176	16.7444
24.26	17.8432
24.344	19.7171
24.428	22.2469
24.512	25.1157
24.596	27.8152
24.68	29.6336
24.764	29.81
24.848	27.9567
24.932	24.0049
25.016	18.322
25.1	11.8483
25.184	5.735053
25.268	0.887753
25.352	-2.289772
25.436	-3.681089
25.52	-3.477452
25.604	-2.128149
25.688	-0.301339
25.772	1.263631
25.856	1.983651
25.94	1.823947
26.024	1.232453
26.108	0.875083
26.192	0.916210
26.276	1.116776
26.36	0.835854
26.444	0.265981
26.528	0.895385
26.612	5.304265
26.696	16.284
26.78	35.6275
26.864	62.6291
26.948	93.6421
27.028	121.224