File: Bakgrunnsmateriale/MATLAB/FTIR/ftir_data/LPE454/Mapping_121/LPE454_t111_cm-1.asc
PE IR       SPECTRUM    SPECTRUM    ASCII       PEDS        1.60
  -1
LP0458~1.ASC
17/05/19
23:33:04.00
17/05/19
23:33:04.00
tln
$LPE454_t0111$<tbV0>[13.0,13.0,8.0,0.0,27,1,0]
370
64

2002,4.07
MIRTGS : RIGHTBACK : INTERNAL 2
MIR : ON : INTERNAL 2
OPTKBR

0.200000
8
8.000000
FILLER
RATIO
SPECTRUM
UNLOCKED 256

DOUBLE
64
COMBINED
1
0
0

1.000000
RATIO

1
0
TRUE
51149
0
LEFT NOT FITTED RIGHT NOT FITTED 0
NONE
NONE
15600
12
4.427000
51148
TRUE
1 0 8 72 0 0 0 0

15798

#HDR
-1
-1
#GR
CM-1
%T
2.38419e-05
0.0
5000
-1.000000
4631
8
32.1743
-7.616257
#DATA
5000	0.378704
4984	0.289130
4968	-0.257110
4952	0.491237
4936	0.308108
4920	0.059556
4904	-0.065016
4888	0.283455
4872	0.417470
4856	0.037550
4840	0.466108
4824	0.126767
4808	0.435924
4792	-0.026488
4776	0.388312
4760	0.285148
4744	0.117444
4728	0.021862
4712	0.142002
4696	-0.094890
4680	-0.091767
4664	-0.105762
4648	0.237274
4632	0.240397
4616	0.007462
4600	2.264380
4584	15.8826
4568	-0.738906
4552	-0.455260
4536	-0.888490
4520	-0.584459
4504	-0.328278
4488	-0.164532
4472	-0.166821
4456	0.125241
4440	0.016236
4424	0.259304
4408	0.019168
4392	0.027728
4376	-0.161433
4360	0.148677
4344	0.475859
4328	0.301551
4312	0.163578
4296	0.233769
4280	0.083184
4264	0.088405
4248	0.196957
4232	0.288009
4216	-0.009083
4200	0.252628
4184	0.095939
4168	-0.070691
4152	-0.588822
4136	0.087428
4120	0.342988
4104	0.216245
4088	1.850175
4072	-0.127744
4056	0.585508
4040	0.278925
4024	0.005936
4008	0.065350
3992	-0.043249
3976	0.279331
3960	-0.022578
3944	0.237083
3928	-0.039434
3912	-0.004291
3896	-0.011062
3880	0.076150
3864	0.048351
3848	0.117492
3832	-0.000667
3816	0.176525
3800	0.158739
3784	0.026988
3768	0.055289
3752	-0.005841
3736	0.137400
3720	0.073504
3704	0.006985
3688	-0.100731
3672	0.049948
3656	-0.026226
3640	-0.021696
3624	0.030994
3608	0.109243
3592	0.133752
3576	-0.145149
3560	0.063037
3544	0.098967
3528	0.076818
3512	-0.087237
3496	-0.064110
3480	0.058054
3464	0.077366
3448	-0.037908
3432	0.032997
3416	0.020694
3400	-0.044465
3384	0.081110
3368	0.161075
3352	-0.045633
3336	0.142550
3320	0.029897
3304	0.077033
3288	0.031566
3272	0.123739
3256	-0.112390
3240	0.082898
3224	0.176310
3208	0.141429
3192	0.057697
3176	0.044512
3160	-0.037264
3144	0.091624
3128	0.080776
3112	0.042319
3096	0.045871
3080	0.058507
3064	-0.078129
3048	-0.049161
3032	0.026512
3016	-0.004649
3000	0.084543
2984	0.010967
2968	-0.010085
2952	-0.040006
2936	0.078630
2920	-0.011706
2904	0.031352
2888	0.019216
2872	0.052285
2856	0.003552
2840	0.033330
2824	0.086665
2808	0.053501
2792	0.080895
2776	0.079631
2760	0.095748
2744	-0.000452
2728	0.022387
2712	-0.021290
2696	0.018239
2680	0.038385
2664	-0.031733
2648	0.074219
2632	0.063419
2616	0.108957
2600	-0.030708
2584	0.064539
2568	0.049400
2552	-0.037360
2536	0.074291
2520	0.095248
2504	0.087261
2488	-0.005674
2472	0.080227
2456	0.056290
2440	-0.036501
2424	-0.000834
2408	0.022053
2392	0.061559
2376	0.024127
2360	0.037837
2344	0.036525
2328	0.048303
2312	0.037837
2296	0.130367
2280	0.227141
2264	0.430893
2248	0.628376
2232	0.882840
2216	1.360058
2200	2.037405
2184	2.717852
2168	3.601384
2152	4.578948
2136	5.898928
2120	7.087302
2104	8.399319
2088	9.755611
2072	11.0709
2056	12.3463
2040	13.5724
2024	14.7512
2008	15.9175
1992	16.795
1976	17.7925
1960	18.6143
1944	19.3858
1928	20.0173
1912	20.6236
1896	21.2199
1880	21.5727
1864	22.0766
1848	22.4558
1832	22.8225
1816	23.1503
1800	23.427
1784	23.5166
1768	23.8312
1752	23.9038
1736	24.0932
1720	24.2171
1704	24.3907
1688	24.5957
1672	24.623
1656	24.8818
1640	24.9848
1624	25.0884
1608	25.0149
1592	25.207
1576	25.1072
1560	25.2369
1544	25.1763
1528	25.1178
1512	25.2156
1496	25.1868
1480	25.1167
1464	25.0764
1448	25.0863
1432	24.9826
1416	25.1524
1400	25.0767
1384	24.9814
1368	24.9195
1352	24.9178
1336	24.8161
1320	24.6955
1304	24.5579
1288	24.4548
1272	24.4125
1256	24.3086
1240	23.948
1224	23.954
1208	23.8323
1192	23.8855
1176	23.7322
1160	23.5868
1144	23.4055
1128	23.1772
1112	23.0159
1096	22.6741
1080	22.7993
1064	22.6582
1048	22.4714
1032	22.3051
1016	22.0279
1000	21.8473
984	 21.7602
968	 21.5095
952	 21.2397
936	 21.1058
920	 20.815
904	 20.8194
888	 20.4639
872	 20.3568
856	 20.1411
840	 19.8271
824	 19.4767
808	 19.5831
792	 19.0168
776	 18.8367
760	 18.659
744	 18.286
728	 18.3435
712	 17.7651
696	 17.5426
680	 16.9134
664	 16.7424
648	 16.6696
632	 16.2863
616	 15.771
600	 15.2913
584	 15.6004
568	 14.706
552	 14.2695
536	 13.7367
520	 13.473
504	 13.7353
488	 11.8825
472	 12.9254
456	 13.7181
440	 10.5311
424	 10.1887
408	 15.0752
392	 15.9457
376	 6.854224
370	 -6.044316