File: Bakgrunnsmateriale/MATLAB/FTIR/ftir_data/LPE454/Mapping_121/LPE454_t121_cm-1.asc
PE IR       SPECTRUM    SPECTRUM    ASCII       PEDS        1.60
  -1
LP04D7~1.ASC
17/05/20
00:33:39.00
17/05/20
00:33:39.00
tln
$LPE454_t0121$<tbV0>[-13.0,13.0,8.0,0.0,27,1,0]
370
64

2002,4.07
MIRTGS : RIGHTBACK : INTERNAL 2
MIR : ON : INTERNAL 2
OPTKBR

0.200000
8
8.000000
FILLER
RATIO
SPECTRUM
UNLOCKED 256

DOUBLE
64
COMBINED
1
0
0

1.000000
RATIO

1
0
TRUE
51149
0
LEFT NOT FITTED RIGHT NOT FITTED 0
NONE
NONE
15600
12
4.427000
51148
TRUE
1 0 8 72 0 0 0 0

15798

#HDR
-1
-1
#GR
CM-1
%T
2.38419e-05
0.0
5000
-1.000000
4631
8
45.6232
-3.468084
#DATA
5000	0.707340
4984	-0.209903
4968	0.611233
4952	0.052928
4936	0.266838
4920	0.329589
4904	0.225353
4888	0.661540
4872	0.020837
4856	0.345039
4840	-0.017642
4824	0.106811
4808	0.118565
4792	0.159382
4776	0.102543
4760	0.590300
4744	0.609612
4728	0.686359
4712	0.839853
4696	0.975537
4680	0.976300
4664	-0.025391
4648	-0.498127
4632	-1.047158
4616	-0.957918
4600	0.259995
4584	9.933328
4568	8.979630
4552	-3.156304
4536	-2.155160
4520	-0.486803
4504	-1.195025
4488	0.249838
4472	0.356554
4456	0.578999
4440	0.414085
4424	0.536394
4408	0.359940
4392	0.421929
4376	0.147056
4360	0.207543
4344	0.217151
4328	0.223016
4312	0.378155
4296	0.329613
4280	0.445938
4264	0.164031
4248	0.248169
4232	0.590682
4216	0.118160
4200	0.286173
4184	0.166678
4168	0.033783
4152	0.345492
4136	1.827836
4120	-0.004959
4104	0.617504
4088	0.696754
4072	0.266218
4056	0.250506
4040	-0.052833
4024	-0.070118
4008	-0.195479
3992	0.151014
3976	-0.006747
3960	0.017189
3944	0.061583
3928	0.004935
3912	-0.028038
3896	0.297927
3880	-0.069069
3864	0.175929
3848	0.062465
3832	0.192308
3816	0.080943
3800	0.018477
3784	0.012922
3768	0.063967
3752	0.029516
3736	0.129699
3720	-0.024533
3704	0.250554
3688	0.159883
3672	0.144124
3656	0.053834
3640	0.097608
3624	0.101542
3608	0.068211
3592	-0.005459
3576	0.040006
3560	0.006914
3544	0.051307
3528	0.004053
3512	0.070834
3496	0.168466
3480	-0.172972
3464	0.007486
3448	0.084280
3432	0.027441
3416	0.090837
3400	0.112581
3384	0.103878
3368	0.099945
3352	-0.047588
3336	-0.021171
3320	0.075316
3304	0.019145
3288	0.029277
3272	-0.087022
3256	-0.011777
3240	0.123143
3224	0.003504
3208	-0.001239
3192	0.177168
3176	0.040721
3160	-0.025987
3144	-0.005817
3128	0.019049
3112	-0.041675
3096	0.163412
3080	0.031828
3064	0.016617
3048	0.088691
3032	-0.003790
3016	0.020122
3000	-0.009918
2984	0.078177
2968	-0.003290
2952	0.044274
2936	0.012445
2920	0.045418
2904	-0.003147
2888	0.107765
2872	0.104284
2856	0.023484
2840	0.094556
2824	0.050258
2808	0.184321
2792	0.040102
2776	0.079798
2760	0.020837
2744	0.084686
2728	0.119805
2712	0.036573
2696	0.024819
2680	-0.004506
2664	0.120282
2648	0.047039
2632	0.048351
2616	0.023579
2600	-0.000643
2584	0.057864
2568	0.013089
2552	-0.020027
2536	0.035715
2520	-0.052356
2504	-0.010108
2488	0.101065
2472	0.027680
2456	0.016880
2440	0.085377
2424	0.073552
2408	0.099611
2392	0.069236
2376	0.046849
2360	0.096511
2344	0.200700
2328	0.362753
2312	0.454616
2296	0.650238
2280	1.103615
2264	1.347732
2248	1.957368
2232	2.660703
2216	3.385782
2200	4.567313
2184	5.598616
2168	6.902885
2152	8.470368
2136	9.964585
2120	11.4948
2104	13.041
2088	14.5302
2072	16.104
2056	17.5594
2040	18.8014
2024	19.8901
2008	20.9617
1992	21.9378
1976	22.8263
1960	23.5272
1944	24.2865
1928	24.8671
1912	25.2287
1896	25.6038
1880	26.0372
1864	26.2916
1848	26.6525
1832	26.8229
1816	27.1198
1800	27.137
1784	27.2358
1768	27.4647
1752	27.5938
1736	27.5207
1720	27.6664
1704	27.8341
1688	27.8246
1672	27.8007
1656	27.8887
1640	27.9997
1624	27.8229
1608	27.885
1592	28.1691
1576	28.1272
1560	27.912
1544	28.0528
1528	28.1908
1512	28.0967
1496	27.9709
1480	28.1657
1464	28.1264
1448	28.0489
1432	27.7889
1416	28.1632
1400	28.1652
1384	27.9943
1368	28.0276
1352	28.2449
1336	28.2138
1320	28.0909
1304	28.1482
1288	28.2993
1272	28.1102
1256	28.0233
1240	28.2968
1224	28.3783
1208	28.0771
1192	27.9732
1176	28.2792
1160	28.1606
1144	27.7933
1128	27.8483
1112	28.0798
1096	27.8126
1080	27.447
1064	27.5825
1048	27.6097
1032	27.3912
1016	26.9541
1000	27.3611
984	 27.4074
968	 26.9372
952	 26.6972
936	 26.7509
920	 26.6783
904	 26.3304
888	 26.0268
872	 25.9718
856	 26.0787
840	 25.2855
824	 25.0124
808	 25.1744
792	 25.1432
776	 24.2508
760	 24.4241
744	 24.54
728	 23.6918
712	 23.2
696	 23.324
680	 23.3728
664	 22.7123
648	 22.319
632	 22.2066
616	 21.9064
600	 21.1948
584	 20.8671
568	 20.945
552	 20.4256
536	 19.2476
520	 20.1368
504	 19.2139
488	 17.5681
472	 16.1113
456	 16.3317
440	 16.3657
424	 17.1844
408	 21.5064
392	 30.4699
376	 17.476
370	 45.6232