File: Bakgrunnsmateriale/MATLAB/FTIR/ftir_data/LPE454/Mapping_121/LPE454_t115_cm-1.asc
PE IR       SPECTRUM    SPECTRUM    ASCII       PEDS        1.60
  -1
LP0858~1.ASC
17/05/19
23:51:31.00
17/05/19
23:51:31.00
tln
$LPE454_t0115$<tbV0>[2.6,13.0,8.0,0.0,27,1,0]
370
64

2002,4.07
MIRTGS : RIGHTBACK : INTERNAL 2
MIR : ON : INTERNAL 2
OPTKBR

0.200000
8
8.000000
FILLER
RATIO
SPECTRUM
UNLOCKED 256

DOUBLE
64
COMBINED
1
0
0

1.000000
RATIO

1
0
TRUE
51149
0
LEFT NOT FITTED RIGHT NOT FITTED 0
NONE
NONE
15600
12
4.427000
51148
TRUE
1 0 8 72 0 0 0 0

15798

#HDR
-1
-1
#GR
CM-1
%T
2.38419e-05
0.0
5000
-1.000000
4631
8
36.59
-12.6168
#DATA
5000	-0.156950
4984	0.263619
4968	-0.139784
4952	0.356531
4936	-0.264310
4920	0.207662
4904	0.711011
4888	0.035333
4872	-0.038838
4856	0.167036
4840	0.311446
4824	0.375437
4808	0.489568
4792	0.167250
4776	0.059390
4760	0.360560
4744	0.247550
4728	0.311589
4712	0.201797
4696	0.166797
4680	0.090980
4664	-0.014352
4648	0.245523
4632	0.314378
4616	0.103139
4600	0.350809
4584	8.414816
4568	2.939534
4552	-0.089406
4536	0.200438
4520	0.077056
4504	-0.040984
4488	0.481462
4472	0.312995
4456	0.427079
4440	0.271487
4424	0.348281
4408	0.233149
4392	0.123810
4376	0.182342
4360	-0.209236
4344	0.157570
4328	-0.104379
4312	0.170922
4296	-0.021529
4280	-0.158762
4264	-0.086998
4248	0.273823
4232	-0.008678
4216	0.070166
4200	0.430011
4184	0.121426
4168	-0.053882
4152	0.011062
4136	-0.176405
4120	0.666594
4104	0.788545
4088	0.027298
4072	0.112128
4056	-0.411295
4040	0.257754
4024	-0.330233
4008	-0.114321
3992	0.109314
3976	-0.116610
3960	0.014519
3944	0.083971
3928	0.013256
3912	-0.064325
3896	0.090575
3880	0.043821
3864	0.085186
3848	-0.067615
3832	-0.077581
3816	0.262498
3800	-0.083565
3784	-0.061607
3768	0.060367
3752	0.144815
3736	-0.026011
3720	-0.017166
3704	0.041770
3688	-0.003910
3672	0.002837
3656	0.264072
3640	0.099229
3624	-0.083112
3608	0.101304
3592	-0.019931
3576	0.061178
3560	0.170660
3544	0.085616
3528	-0.052213
3512	-0.056505
3496	-0.063705
3480	0.073075
3464	0.189304
3448	0.177979
3432	0.056815
3416	0.117063
3400	0.045490
3384	-0.009250
3368	-0.061678
3352	-0.023674
3336	-0.010037
3320	-0.115180
3304	-0.028944
3288	-0.090217
3272	0.043773
3256	0.034284
3240	0.165820
3224	-0.069570
3208	0.062727
3192	0.035119
3176	0.117349
3160	0.059723
3144	0.144290
3128	0.070476
3112	-0.044465
3096	0.096869
3080	0.122070
3064	0.020408
3048	-0.062227
3032	0.097441
3016	0.037479
3000	0.127315
2984	0.026488
2968	0.047826
2952	0.052714
2936	0.011277
2920	-0.004172
2904	0.077772
2888	0.067543
2872	0.125002
2856	0.060415
2840	0.044226
2824	0.021004
2808	0.121140
2792	0.115323
2776	0.014352
2760	-0.078558
2744	0.041079
2728	0.052380
2712	0.017976
2696	0.053644
2680	0.046753
2664	0.013017
2648	0.062155
2632	-0.027036
2616	0.048255
2600	0.039982
2584	0.091195
2568	-0.011849
2552	0.160884
2536	0.096774
2520	0.011563
2504	0.045275
2488	0.113081
2472	-0.019311
2456	0.033879
2440	0.062680
2424	0.134587
2408	0.132584
2392	0.263905
2376	0.296044
2360	0.373935
2344	0.537967
2328	0.828337
2312	0.964689
2296	1.370096
2280	1.963281
2264	2.636146
2248	3.496289
2232	4.561519
2216	5.802178
2200	7.171010
2184	8.902072
2168	10.6067
2152	12.6183
2136	14.6161
2120	16.5473
2104	18.5094
2088	20.3914
2072	22.0796
2056	23.8405
2040	25.3388
2024	26.7109
2008	27.9016
1992	29.0045
1976	30.0967
1960	30.9405
1944	31.6665
1928	32.445
1912	33.0933
1896	33.5726
1880	33.8895
1864	34.4503
1848	34.9596
1832	35.0327
1816	35.2123
1800	35.514
1784	35.9319
1768	35.8229
1752	35.9193
1736	36.1732
1720	36.2217
1704	36.1071
1688	36.0383
1672	36.4149
1656	36.4933
1640	36.3322
1624	36.1372
1608	36.3906
1592	36.5522
1576	36.2537
1560	36.1874
1544	36.3871
1528	36.535
1512	36.2076
1496	36.1011
1480	36.4171
1464	36.3985
1448	36.1164
1432	35.9123
1416	36.2565
1400	36.2351
1384	36.0141
1368	35.9416
1352	35.9939
1336	36.2416
1320	35.8204
1304	35.6471
1288	35.9242
1272	36.0194
1256	35.781
1240	35.4735
1224	35.774
1208	35.9345
1192	35.5788
1176	35.3266
1160	35.4174
1144	35.6902
1128	35.2986
1112	34.9329
1096	35.0756
1080	35.5861
1064	35.111
1048	34.4996
1032	34.7714
1016	35.1448
1000	34.7335
984	 34.4505
968	 34.3651
952	 34.8402
936	 34.4153
920	 34.0204
904	 33.9599
888	 34.2709
872	 33.9082
856	 33.7181
840	 33.1731
824	 33.7794
808	 33.6395
792	 32.7224
776	 32.5621
760	 32.5794
744	 32.9006
728	 31.8598
712	 31.5981
696	 31.6305
680	 32.3344
664	 31.8315
648	 30.6405
632	 30.7837
616	 30.9076
600	 30.1993
584	 29.4504
568	 29.935
552	 30.247
536	 28.4815
520	 27.5375
504	 28.034
488	 27.4109
472	 26.1909
456	 22.6907
440	 25.1001
424	 25.9459
408	 24.1956
392	 25.2529
376	 13.7219
370	 -12.6168