File: Bakgrunnsmateriale/MATLAB/FTIR/ftir_data/LPE454/Mapping_121/LPE454_t23_cm-1.asc
PE IR       SPECTRUM    SPECTRUM    ASCII       PEDS        1.60
  -1
LP5830~1.ASC
17/05/19
16:18:31.00
17/05/19
16:18:31.00
tln
$LPE454_t0023$<tbV0>[13.0,-7.8,8.0,0.0,27,1,0]
370
64

2002,4.07
MIRTGS : RIGHTBACK : INTERNAL 2
MIR : ON : INTERNAL 2
OPTKBR

0.200000
8
8.000000
FILLER
RATIO
SPECTRUM
UNLOCKED 256

DOUBLE
64
COMBINED
1
0
0

1.000000
RATIO

1
0
TRUE
51149
0
LEFT NOT FITTED RIGHT NOT FITTED 0
NONE
NONE
15600
12
4.427000
51148
TRUE
1 0 8 72 0 0 0 0

15798

#HDR
-1
-1
#GR
CM-1
%T
2.38419e-05
0.0
5000
-1.000000
4631
8
26.5319
-7.032299
#DATA
5000	0.598549
4984	0.240254
4968	0.495195
4952	-0.089263
4936	-0.122594
4920	0.329279
4904	0.190019
4888	0.104665
4872	0.210356
4856	-0.153827
4840	0.258278
4824	0.427627
4808	0.260162
4792	-0.099062
4776	0.042867
4760	0.365185
4744	-0.120067
4728	0.094127
4712	0.132536
4696	0.128650
4680	0.486803
4664	0.374627
4648	0.115227
4632	0.731229
4616	-0.207495
4600	-0.330805
4584	0.701951
4568	-0.420665
4552	0.439047
4536	-1.377344
4520	-0.705838
4504	17.1209
4488	0.305461
4472	0.568628
4456	0.485491
4440	0.590085
4424	1.090764
4408	0.412654
4392	0.577640
4376	0.508689
4360	0.407433
4344	0.133514
4328	0.252223
4312	0.217342
4296	0.117254
4280	0.093960
4264	0.190544
4248	0.138068
4232	0.122356
4216	0.064826
4200	-0.128006
4184	0.214815
4168	-0.739741
4152	0.020337
4136	0.155901
4120	0.175786
4104	0.287127
4088	0.056529
4072	-0.066804
4056	-0.045680
4040	0.361347
4024	0.095486
4008	0.048446
3992	-0.113582
3976	0.072002
3960	0.060939
3944	0.239157
3928	-0.001168
3912	0.020194
3896	0.259661
3880	0.083780
3864	0.068902
3848	-0.173068
3832	0.074505
3816	0.090241
3800	0.021028
3784	0.118660
3768	0.022339
3752	0.026869
3736	0.111055
3720	0.135350
3704	0.142192
3688	0.171208
3672	0.049400
3656	-0.045371
3640	0.182628
3624	-0.075674
3608	0.195789
3592	0.047898
3576	0.112795
3560	-0.047993
3544	0.082826
3528	0.366878
3512	-0.083422
3496	-0.100183
3480	-0.217390
3464	0.150370
3448	-0.014567
3432	0.149655
3416	0.020313
3400	-0.107860
3384	0.078368
3368	0.139570
3352	0.245714
3336	0.084042
3320	0.178337
3304	0.065279
3288	0.071597
3272	0.070738
3256	0.220131
3240	0.102949
3224	-0.043725
3208	0.010371
3192	-0.000619
3176	-0.042629
3160	0.124406
3144	-0.001454
3128	0.199580
3112	0.149059
3096	0.004315
3080	0.016689
3064	0.076985
3048	-0.027537
3032	0.025415
3016	0.237059
3000	0.059556
2984	0.137948
2968	0.194025
2952	0.098323
2936	0.107336
2920	-0.011801
2904	0.079941
2888	-0.022959
2872	0.159764
2856	0.003099
2840	0.014448
2824	0.143003
2808	0.048542
2792	0.063467
2776	0.156569
2760	0.000262
2744	-0.047826
2728	0.025129
2712	0.075578
2696	0.045394
2680	0.047206
2664	0.056385
2648	-0.033497
2632	0.024056
2616	0.025534
2600	0.067043
2584	-0.054812
2568	0.104594
2552	0.078344
2536	0.133371
2520	0.075054
2504	0.127005
2488	0.148892
2472	0.074672
2456	0.044584
2440	-0.065827
2424	-0.142526
2408	-0.085091
2392	-0.004458
2376	0.083494
2360	-0.012254
2344	-0.006723
2328	0.083184
2312	0.042438
2296	0.047707
2280	0.334715
2264	0.332736
2248	0.680232
2232	0.987267
2216	1.433634
2200	2.141046
2184	2.726721
2168	3.795242
2152	4.932785
2136	6.268358
2120	7.551312
2104	8.861112
2088	10.4005
2072	11.6218
2056	12.9865
2040	14.3388
2024	15.5291
2008	16.6372
1992	17.6962
1976	18.5802
1960	19.6325
1944	20.3133
1928	21.1457
1912	21.6256
1896	22.1877
1880	22.7783
1864	23.1197
1848	23.4345
1832	23.9609
1816	24.2998
1800	24.6016
1784	24.7545
1768	24.9906
1752	25.1843
1736	25.2677
1720	25.5481
1704	25.7315
1688	25.8893
1672	25.8355
1656	26.0663
1640	26.105
1624	26.122
1608	26.2853
1592	26.2152
1576	26.2465
1560	26.2563
1544	26.2786
1528	26.3631
1512	26.2886
1496	26.4789
1480	26.3314
1464	26.4628
1448	26.2584
1432	26.2459
1416	26.2708
1400	26.1509
1384	26.1235
1368	26.039
1352	26.1611
1336	26.1662
1320	26.027
1304	26.172
1288	25.9778
1272	25.7942
1256	26.054
1240	25.8759
1224	25.9742
1208	25.842
1192	25.6132
1176	25.6894
1160	25.5304
1144	25.3812
1128	25.4303
1112	25.2064
1096	24.9713
1080	25.2534
1064	24.8456
1048	24.7524
1032	24.7972
1016	24.5175
1000	24.6202
984	 24.6317
968	 24.0705
952	 24.077
936	 24.0873
920	 23.3658
904	 23.7328
888	 23.4813
872	 22.9673
856	 23.1134
840	 22.8886
824	 22.5921
808	 22.4864
792	 22.0368
776	 21.6939
760	 21.6614
744	 21.4037
728	 21.0917
712	 20.8823
696	 20.1963
680	 20.188
664	 20.2044
648	 19.632
632	 19.2443
616	 18.9003
600	 18.4304
584	 18.6208
568	 17.5366
552	 17.3241
536	 17.1076
520	 16.8017
504	 15.9477
488	 16.156
472	 15.9822
456	 14.1025
440	 14.2073
424	 12.1481
408	 12.716
392	 22.185
376	 -6.664276
370	 -5.825662