File: Bakgrunnsmateriale/MATLAB/FTIR/ftir_data/LPE454/Mapping_121/LPE454_t10.asc
PE IR       SPECTRUM    SPECTRUM    ASCII       PEDS        1.60
  -1
LPC79C~1.ASC
17/05/19
15:10:51.00
17/05/19
15:11:17.00
tln
$LPE454_t0010$<tbV0>[-10.4,-13.0,8.0,0.0,27,1,0]
27.028
64

2002,4.07
MIRTGS : RIGHTBACK : INTERNAL 2
MIR : ON : INTERNAL 2
OPTKBR

0.200000
8
8.000000
FILLER
RATIO
SPECTRUM
UNLOCKED 256

DOUBLE
64
COMBINED
1
0
0

0.002000
RATIO

1
0
TRUE
51149
0
LEFT NOT FITTED RIGHT NOT FITTED 0
NONE
NONE
15600
12
4.427000
51148
TRUE
1 0 8 72 0 0 0 0

15798

#HDR
-1
-1
#GR
µM
%T
2.38419e-05
0.0
2.000000
0.002000
12515
8
127.458
-1.590556
#DATA
2.000000	 0.695610
2.084000	 0.990842
2.168000	 -0.091014
2.252000	 -0.401622
2.336000	 0.369531
2.420000	 0.142341
2.504000	 0.075119
2.588000	 0.213264
2.672000	 0.109850
2.756000	 -0.079482
2.840000	 0.126712
2.924000	 0.024783
3.008000	 0.067038
3.092000	 -0.035876
3.176000	 -0.153014
3.260000	 -0.018523
3.344000	 0.037804
3.428000	 -0.089711
3.512000	 0.197045
3.596000	 0.089341
3.680000	 -0.116897
3.764000	 0.108018
3.848000	 0.018018
3.932000	 0.048759
4.016000	 0.012964
4.100000	 -0.097739
4.184000	 0.029037
4.268000	 0.154077
4.352000	 0.295529
4.436000	 0.815775
4.520000	 1.803405
4.604000	 3.677888
4.688000	 5.959851
4.772000	 8.125282
4.856000	 10.5208
4.940000	 12.0673
5.024000	 13.7187
5.108000	 14.7268
5.192000	 15.6653
5.276000	 16.2783
5.359999	 16.7416
5.444000	 17.0867
5.528000	 17.5111
5.612000	 17.7172
5.696000	 17.8601
5.780000	 18.0194
5.864000	 18.2263
5.948000	 18.4936
6.032000	 18.5402
6.116000	 18.709
6.200000	 18.8484
6.284000	 18.8626
6.368000	 18.9079
6.452000	 18.8467
6.536000	 19.1018
6.620000	 19.2123
6.704000	 19.0221
6.788000	 19.2557
6.872000	 19.2739
6.956000	 19.3493
7.040000	 19.3566
7.124000	 19.1521
7.208000	 19.2325
7.292000	 19.2052
7.376000	 19.4245
7.460000	 19.5334
7.544000	 19.8791
7.628000	 20.1717
7.712000	 20.2356
7.796000	 20.208
7.880000	 20.3413
7.964000	 20.5399
8.048000	 20.7029
8.132000	 20.5141
8.216000	 20.8155
8.300000	 20.9807
8.384000	 21.0707
8.468000	 21.1023
8.552000	 20.9286
8.635999	 21.1046
8.719999	 21.2847
8.804000	 21.5727
8.888000	 21.4682
8.972000	 21.3713
9.056000	 21.7001
9.140000	 21.8916
9.224000	 21.9984
9.308000	 21.7335
9.391999	 21.5219
9.475999	 21.7407
9.560000	 21.8235
9.644000	 22.0617
9.728000	 22.1618
9.812000	 22.0162
9.896000	 21.7609
9.980000	 21.7431
10.064	21.9148
10.148	22.0983
10.232	22.1419
10.316	22.5163
10.4	22.3021
10.484	22.0425
10.568	22.0538
10.652	22.1939
10.736	22.3744
10.82	22.5018
10.904	22.5176
10.988	22.4396
11.072	22.5503
11.156	22.2893
11.24	22.1553
11.324	22.3437
11.408	22.4501
11.492	22.4917
11.576	22.7407
11.66	22.5595
11.744	22.4048
11.828	22.4477
11.912	22.3516
11.996	22.166
12.08	22.2976
12.164	22.3061
12.248	22.4178
12.332	22.565
12.416	22.5115
12.5	22.6065
12.584	22.5587
12.668	22.2093
12.752	21.9895
12.836	22.2418
12.92	22.4069
13.004	22.3136
13.088	22.3839
13.172	22.9539
13.256	23.3345
13.34	22.6892
13.424	22.0138
13.508	22.1751
13.592	22.2089
13.676	21.9996
13.76	22.0326
13.844	22.3809
13.928	22.4988
14.012	22.1508
14.096	21.8971
14.18	22.0861
14.264	22.2926
14.348	22.3001
14.432	22.3316
14.516	22.412
14.6	22.5136
14.684	22.4963
14.768	22.2617
14.852	21.8696
14.936	21.4304
15.02	21.1544
15.104	21.1824
15.188	21.4253
15.272	21.6967
15.356	21.8782
15.44	21.9248
15.524	21.8694
15.608	21.8309
15.692	21.8358
15.776	21.856
15.86	21.9718
15.944	22.0474
16.028	21.7874
16.112	21.3219
16.196	21.0128
16.28	20.8985
16.364	20.8678
16.448	20.9285
16.532	21.0797
16.616	21.2462
16.7	21.3796
16.784	21.453
16.868	21.4408
16.952	21.4231
17.036	21.5446
17.12	21.7215
17.204	21.6141
17.288	21.1284
17.372	20.6284
17.456	20.4723
17.54	20.6141
17.624	20.7758
17.708	20.8115
17.792	20.7827
17.876	20.8075
17.96	20.893
18.044	20.9161
18.128	20.7696
18.212	20.5053
18.296	20.284
18.38	20.2092
18.464	20.2667
18.548	20.4027
18.632	20.5943
18.716	20.8054
18.8	20.9553
18.884	20.9932
18.968	20.96
19.052	20.9292
19.136	20.9319
19.22	20.9429
19.304	20.9029
19.388	20.747
19.472	20.4528
19.556	20.0955
19.64	19.8324
19.724	19.7895
19.808	19.9608
19.892	20.2172
19.976	20.4039
20.06	20.4276
20.144	20.2751
20.228	19.9949
20.312	19.6778
20.396	19.4252
20.48	19.3028
20.564	19.3091
20.648	19.4117
20.732	19.5918
20.816	19.854
20.9	20.1873
20.984	20.5457
21.068	20.872
21.152	21.1449
21.236	21.3898
21.32	21.6295
21.404	21.8361
21.488	21.9256
21.572	21.8147
21.656	21.4878
21.74	21.0055
21.824	20.4731
21.908	19.9879
21.992	19.5892
22.076	19.2594
22.16	18.9676
22.244	18.7008
22.328	18.497
22.412	18.4266
22.496	18.5599
22.58	18.9289
22.664	19.4898
22.748	20.0934
22.832	20.5191
22.916	20.4963
23	19.897
23.084	18.7942
23.168	17.4813
23.252	16.3729
23.336	15.9095
23.42	16.3212
23.504	17.5815
23.588	19.4163
23.672	21.4341
23.756	23.2313
23.84	24.5337
23.924	25.2055
24.008	25.2426
24.092	24.7086
24.176	23.6338
24.26	21.7676
24.344	18.7086
24.428	14.3161
24.512	8.983897
24.596	3.827009
24.68	0.316375
24.764	-0.422972
24.848	1.895812
24.932	6.593452
25.016	12.2535
25.1	17.34
25.184	20.572
25.268	21.2785
25.352	19.2558
25.436	15.0484
25.52	9.696826
25.604	4.284961
25.688	0.149701
25.772	-1.535433
25.856	-0.089482
25.94	4.786523
26.024	13.057
26.108	24.3959
26.192	37.8733
26.276	52.3248
26.36	66.6381
26.444	80.1405
26.528	92.534
26.612	103.949
26.696	114.167
26.78	122.342
26.864	127.017
26.948	126.342
27.028	119.297