File: Bakgrunnsmateriale/MATLAB/FTIR/ftir_data/LPE454/Mapping_121/LPE454_t16.asc
PE IR       SPECTRUM    SPECTRUM    ASCII       PEDS        1.60
  -1
LPD794~1.ASC
17/05/19
15:39:07.00
17/05/19
15:39:34.00
tln
$LPE454_t0016$<tbV0>[2.6,-10.4,8.0,0.0,27,1,0]
27.028
64

2002,4.07
MIRTGS : RIGHTBACK : INTERNAL 2
MIR : ON : INTERNAL 2
OPTKBR

0.200000
8
8.000000
FILLER
RATIO
SPECTRUM
UNLOCKED 256

DOUBLE
64
COMBINED
1
0
0

0.002000
RATIO

1
0
TRUE
51149
0
LEFT NOT FITTED RIGHT NOT FITTED 0
NONE
NONE
15600
12
4.427000
51148
TRUE
1 0 8 72 0 0 0 0

15798

#HDR
-1
-1
#GR
µM
%T
2.38419e-05
0.0
2.000000
0.002000
12515
8
34.8389
-7.956141
#DATA
2.000000	 0.418424
2.084000	 0.151513
2.168000	 -0.177471
2.252000	 0.288875
2.336000	 0.360439
2.420000	 0.172195
2.504000	 -0.163371
2.588000	 0.148019
2.672000	 0.015738
2.756000	 0.103364
2.840000	 -0.024175
2.924000	 -0.015797
3.008000	 0.013065
3.092000	 -0.012650
3.176000	 0.030439
3.260000	 0.101634
3.344000	 0.038454
3.428000	 -0.009705
3.512000	 -0.059356
3.596000	 0.203122
3.680000	 0.007019
3.764000	 0.029597
3.848000	 -0.020654
3.932000	 -0.088141
4.016000	 0.023774
4.100000	 0.170248
4.184000	 0.026020
4.268000	 0.069943
4.352000	 0.216180
4.436000	 0.870858
4.520000	 2.439156
4.604000	 5.121211
4.688000	 8.788244
4.772000	 13.0881
4.856000	 16.9003
4.940000	 20.2519
5.024000	 23.0579
5.108000	 25.0733
5.192000	 26.6616
5.276000	 27.757
5.359999	 28.5772
5.444000	 29.2687
5.528000	 29.6305
5.612000	 30.0394
5.696000	 30.1291
5.780000	 30.3906
5.864000	 30.6275
5.948000	 30.6254
6.032000	 30.7042
6.116000	 30.6971
6.200000	 30.6966
6.284000	 30.7392
6.368000	 30.6509
6.452000	 30.7486
6.536000	 30.7161
6.620000	 30.773
6.704000	 30.564
6.788000	 30.6372
6.872000	 30.5888
6.956000	 30.6076
7.040000	 30.5039
7.124000	 30.4942
7.208000	 30.3595
7.292000	 30.2765
7.376000	 30.1971
7.460000	 30.2247
7.544000	 30.1681
7.628000	 30.2107
7.712000	 30.0919
7.796000	 30.0634
7.880000	 30.0581
7.964000	 30.1727
8.048000	 30.0325
8.132000	 29.9152
8.216000	 30.0186
8.300000	 29.8292
8.384000	 29.6561
8.468000	 29.6634
8.552000	 29.6307
8.635999	 29.5595
8.719999	 29.4291
8.804000	 29.3897
8.888000	 29.4074
8.972000	 29.2898
9.056000	 29.2131
9.140000	 29.2911
9.224000	 29.1988
9.308000	 29.0031
9.391999	 29.0243
9.475999	 28.8461
9.560000	 28.8909
9.644000	 28.967
9.728000	 28.8685
9.812000	 28.8862
9.896000	 28.7697
9.980000	 28.5309
10.064	28.5414
10.148	28.4255
10.232	28.3548
10.316	28.4371
10.4	28.1305
10.484	27.8173
10.568	27.8172
10.652	28.0048
10.736	28.027
10.82	27.7808
10.904	27.5595
10.988	27.6301
11.072	27.4681
11.156	27.352
11.24	27.3821
11.324	27.2283
11.408	27.1793
11.492	27.0815
11.576	26.9046
11.66	26.8184
11.744	26.6193
11.828	26.6326
11.912	26.7548
11.996	26.7763
12.08	26.6993
12.164	26.5738
12.248	26.5345
12.332	26.3814
12.416	26.07
12.5	25.8034
12.584	25.735
12.668	25.8225
12.752	25.8043
12.836	25.7398
12.92	25.7741
13.004	25.7241
13.088	25.6795
13.172	25.6346
13.256	25.4618
13.34	25.0652
13.424	24.7099
13.508	24.7678
13.592	25.1512
13.676	25.2268
13.76	24.8195
13.844	24.6211
13.928	24.6159
14.012	24.3655
14.096	24.1744
14.18	24.1774
14.264	24.1224
14.348	23.9961
14.432	23.9771
14.516	24.1027
14.6	24.2079
14.684	24.2279
14.768	24.2319
14.852	24.1059
14.936	23.739
15.02	23.3779
15.104	23.1825
15.188	22.9857
15.272	22.7656
15.356	22.6714
15.44	22.7607
15.524	22.9504
15.608	22.9783
15.692	22.7091
15.776	22.4455
15.86	22.4479
15.944	22.5595
16.028	22.5797
16.112	22.5158
16.196	22.4419
16.28	22.4032
16.364	22.3564
16.448	22.1693
16.532	21.793
16.616	21.4049
16.7	21.2571
16.784	21.3935
16.868	21.617
16.952	21.7072
17.036	21.5964
17.12	21.4266
17.204	21.4712
17.288	21.8403
17.372	22.2716
17.456	22.3949
17.54	22.158
17.624	21.8034
17.708	21.5289
17.792	21.3538
17.876	21.2135
17.96	21.077
18.044	20.9806
18.128	20.9726
18.212	20.9934
18.296	20.8999
18.38	20.6679
18.464	20.4584
18.548	20.4231
18.632	20.5446
18.716	20.7025
18.8	20.8138
18.884	20.8495
18.968	20.7845
19.052	20.6188
19.136	20.4163
19.22	20.2484
19.304	20.1127
19.388	19.9511
19.472	19.7589
19.556	19.6085
19.64	19.5615
19.724	19.6021
19.808	19.6713
19.892	19.7488
19.976	19.8546
20.06	19.9804
20.144	20.0321
20.228	19.8785
20.312	19.4795
20.396	18.958
20.48	18.543
20.564	18.4022
20.648	18.5207
20.732	18.7116
20.816	18.7536
20.9	18.5562
20.984	18.2218
21.068	17.97
21.152	17.9886
21.236	18.3152
21.32	18.8197
21.404	19.2812
21.488	19.4921
21.572	19.3358
21.656	18.815
21.74	18.0492
21.824	17.2451
21.908	16.6374
21.992	16.4029
22.076	16.5892
22.16	17.0887
22.244	17.6839
22.328	18.1529
22.412	18.3763
22.496	18.3779
22.58	18.2785
22.664	18.2114
22.748	18.2458
22.832	18.3632
22.916	18.5046
23	18.6146
23.084	18.6743
23.168	18.7144
23.252	18.7788
23.336	18.8767
23.42	18.9838
23.504	19.0258
23.588	18.9067
23.672	18.5508
23.756	17.9285
23.84	17.0884
23.924	16.1545
24.008	15.2946
24.092	14.6889
24.176	14.4839
24.26	14.7679
24.344	15.5553
24.428	16.7393
24.512	18.0235
24.596	19.0318
24.68	19.3629
24.764	18.6983
24.848	16.9788
24.932	14.3835
25.016	11.2734
25.1	8.076035
25.184	5.203061
25.268	2.950216
25.352	1.496562
25.436	0.835924
25.52	0.789710
25.604	1.105677
25.688	1.508840
25.772	1.817412
25.856	2.017175
25.94	2.143209
26.024	2.327114
26.108	2.810616
26.192	3.930324
26.276	6.046231
26.36	9.479078
26.444	14.1868
26.528	19.694
26.612	25.1721
26.696	29.7612
26.78	32.9123
26.864	34.4849
26.948	34.832
27.028	34.7626