File: Bakgrunnsmateriale/MATLAB/FTIR/ftir_data/LPE454/Mapping_121/LPE454_t06_cm-1.asc
PE IR       SPECTRUM    SPECTRUM    ASCII       PEDS        1.60
  -1
LP67BA~1.ASC
17/05/19
14:52:24.00
17/05/19
14:52:24.00
tln
$LPE454_t0006$<tbV0>[0.0,-13.0,8.0,0.0,27,1,0]
370
64

2002,4.07
MIRTGS : RIGHTBACK : INTERNAL 2
MIR : ON : INTERNAL 2
OPTKBR

0.200000
8
8.000000
FILLER
RATIO
SPECTRUM
UNLOCKED 256

DOUBLE
64
COMBINED
1
0
0

1.000000
RATIO

1
0
TRUE
51149
0
LEFT NOT FITTED RIGHT NOT FITTED 0
NONE
NONE
15600
12
4.427000
51148
TRUE
1 0 8 72 0 0 0 0

15798

#HDR
-1
-1
#GR
CM-1
%T
2.38419e-05
0.0
5000
-1.000000
4631
8
69.0296
-1.918959
#DATA
5000	0.023913
4984	0.605916
4968	0.124669
4952	0.462675
4936	0.354886
4920	0.949358
4904	0.021243
4888	0.016880
4872	0.377273
4856	0.220537
4840	0.457835
4824	1.144695
4808	-0.177836
4792	0.566577
4776	-0.132656
4760	0.853180
4744	0.730013
4728	0.180220
4712	-0.007367
4696	-0.174140
4680	0.367856
4664	0.214481
4648	0.426077
4632	0.237488
4616	0.153803
4600	-0.008749
4584	0.084018
4568	0.358486
4552	0.477838
4536	0.153756
4520	-0.946378
4504	-1.046395
4488	-1.641750
4472	9.153294
4456	11.4405
4440	0.802421
4424	-0.482058
4408	-0.782823
4392	0.313973
4376	-0.078582
4360	0.006318
4344	0.123810
4328	0.129485
4312	0.327706
4296	0.049877
4280	0.290536
4264	0.245356
4248	0.080585
4232	0.030541
4216	0.061702
4200	0.030350
4184	-0.056028
4168	0.058245
4152	0.222086
4136	0.045800
4120	-0.010848
4104	0.076079
4088	0.187325
4072	0.136089
4056	-0.035071
4040	0.123596
4024	-0.083494
4008	0.081396
3992	0.129628
3976	0.064659
3960	-0.016379
3944	0.120925
3928	0.046849
3912	-0.044941
3896	0.112271
3880	-0.072860
3864	0.146317
3848	0.063824
3832	-0.109291
3816	0.152921
3800	-0.039505
3784	-0.058531
3768	-0.036501
3752	0.145673
3736	0.060081
3720	0.107336
3704	0.130796
3688	0.193071
3672	0.181078
3656	0.180363
3640	-0.000596
3624	0.148391
3608	0.077486
3592	0.143384
3576	-0.025820
3560	-0.092363
3544	-0.101804
3528	0.085306
3512	0.157189
3496	0.058555
3480	-0.026965
3464	0.160789
3448	0.100541
3432	0.071334
3416	0.119137
3400	0.241112
3384	0.150632
3368	-0.035023
3352	0.092411
3336	0.026917
3320	0.060510
3304	0.187993
3288	0.026535
3272	0.158190
3256	0.237631
3240	0.129437
3224	0.023794
3208	0.071930
3192	0.097727
3176	0.016689
3160	0.104784
3144	0.029158
3128	-0.245904
3112	0.005650
3096	-0.014233
3080	0.068807
3064	-0.075364
3048	0.081419
3032	-0.083541
3016	0.092220
3000	-0.027227
2984	0.141525
2968	0.076627
2952	0.044083
2936	0.017046
2920	-0.115942
2904	0.023174
2888	0.176978
2872	0.127506
2856	0.081467
2840	-0.134801
2824	-0.051951
2808	0.028848
2792	-0.066399
2776	-0.019359
2760	0.131821
2744	-0.010967
2728	0.063776
2712	-0.028586
2696	0.016593
2680	0.107264
2664	-0.009751
2648	0.093317
2632	0.060892
2616	0.023484
2600	0.037932
2584	-0.019383
2568	-0.013041
2552	-0.052928
2536	0.021791
2520	0.017595
2504	0.064969
2488	-0.009632
2472	0.045847
2456	0.004816
2440	0.237417
2424	-0.070428
2408	0.163030
2392	0.134706
2376	0.016903
2360	0.202822
2344	0.205826
2328	0.336170
2312	0.365972
2296	0.693535
2280	0.834178
2264	1.207160
2248	1.925349
2232	2.549457
2216	3.405213
2200	4.538440
2184	5.916881
2168	7.468891
2152	9.184527
2136	10.9238
2120	13.0029
2104	14.9117
2088	16.7263
2072	18.6529
2056	20.1937
2040	21.9646
2024	23.4997
2008	24.793
1992	25.965
1976	27.0219
1960	27.8031
1944	28.6834
1928	29.3948
1912	30.0677
1896	30.6115
1880	31.0015
1864	31.3645
1848	31.6767
1832	32.0024
1816	32.2779
1800	32.4128
1784	32.6704
1768	32.726
1752	32.8181
1736	32.926
1720	33.1814
1704	32.9135
1688	33.0938
1672	33.1936
1656	33.1317
1640	33.0925
1624	33.2828
1608	33.1155
1592	33.1451
1576	33.284
1560	33.3568
1544	33.3236
1528	33.2393
1512	33.2417
1496	33.2303
1480	33.2044
1464	33.1557
1448	33.015
1432	32.9857
1416	33.1008
1400	33.0503
1384	33.0338
1368	32.8531
1352	32.7967
1336	32.919
1320	32.7555
1304	32.5671
1288	32.6767
1272	32.4725
1256	32.4219
1240	32.5974
1224	32.5238
1208	32.4442
1192	32.2832
1176	32.419
1160	32.1617
1144	32.1142
1128	32.0054
1112	32.1134
1096	31.8598
1080	31.5661
1064	31.8274
1048	31.9568
1032	31.4386
1016	31.4118
1000	31.5245
984	 31.309
968	 31.1517
952	 30.9667
936	 30.8405
920	 30.3527
904	 30.1844
888	 30.5523
872	 30.4324
856	 29.8646
840	 29.9423
824	 30.2183
808	 29.5697
792	 28.8192
776	 29.1363
760	 29.1719
744	 28.2341
728	 28.4876
712	 28.4305
696	 27.5409
680	 27.2099
664	 27.2584
648	 27.0102
632	 26.7236
616	 26.0133
600	 26.3338
584	 25.4874
568	 25.351
552	 24.8797
536	 24.5939
520	 24.4301
504	 22.6528
488	 23.0567
472	 23.5524
456	 23.0187
440	 21.8841
424	 22.0234
408	 18.5464
392	 25.5226
376	 46.1975
370	 27.4182