File: Bakgrunnsmateriale/MATLAB/FTIR/ftir_data/LPE454/Mapping_121/LPE454_t105.asc
PE IR       SPECTRUM    SPECTRUM    ASCII       PEDS        1.60
  -1
LP9708~1.ASC
17/05/19
22:59:11.00
17/05/19
22:59:37.00
tln
$LPE454_t0105$<tbV0>[0.0,10.4,8.0,0.0,27,1,0]
27.028
64

2002,4.07
MIRTGS : RIGHTBACK : INTERNAL 2
MIR : ON : INTERNAL 2
OPTKBR

0.200000
8
8.000000
FILLER
RATIO
SPECTRUM
UNLOCKED 256

DOUBLE
64
COMBINED
1
0
0

0.002000
RATIO

1
0
TRUE
51149
0
LEFT NOT FITTED RIGHT NOT FITTED 0
NONE
NONE
15600
12
4.427000
51148
TRUE
1 0 8 72 0 0 0 0

15798

#HDR
-1
-1
#GR
µM
%T
2.38419e-05
0.0
2.000000
0.002000
12515
8
37.2227
-1.397159
#DATA
2.000000	 0.302457
2.084000	 0.151464
2.168000	 -0.835854
2.252000	 0.547610
2.336000	 0.125552
2.420000	 0.319780
2.504000	 0.098364
2.588000	 0.078251
2.672000	 -0.002629
2.756000	 -0.053852
2.840000	 0.146623
2.924000	 0.154200
3.008000	 0.056121
3.092000	 0.071790
3.176000	 -0.005790
3.260000	 0.089609
3.344000	 -0.011577
3.428000	 0.097889
3.512000	 0.100104
3.596000	 0.079985
3.680000	 0.101577
3.764000	 0.129752
3.848000	 0.079382
3.932000	 0.124944
4.016000	 0.097773
4.100000	 0.042176
4.184000	 0.123714
4.268000	 0.478563
4.352000	 1.205424
4.436000	 3.000074
4.520000	 6.072954
4.604000	 10.2184
4.688000	 15.1061
4.772000	 20.0401
4.856000	 23.9121
4.940000	 27.3156
5.024000	 30.0391
5.108000	 31.3492
5.192000	 33.2587
5.276000	 33.7725
5.359999	 35.0024
5.444000	 35.0242
5.528000	 35.8272
5.612000	 35.5886
5.696000	 36.5114
5.780000	 35.9192
5.864000	 36.5166
5.948000	 36.4331
6.032000	 36.2955
6.116000	 37.072
6.200000	 36.2075
6.284000	 36.6174
6.368000	 36.9992
6.452000	 36.278
6.536000	 36.6883
6.620000	 37.0782
6.704000	 36.3253
6.788000	 36.5629
6.872000	 37.1675
6.956000	 36.6077
7.040000	 36.3137
7.124000	 36.9492
7.208000	 37.0299
7.292000	 36.326
7.376000	 36.2335
7.460000	 36.9568
7.544000	 37.0538
7.628000	 36.4121
7.712000	 36.0651
7.796000	 36.5694
7.880000	 37.113
7.964000	 36.6792
8.048000	 35.8958
8.132000	 36.2201
8.216000	 36.805
8.300000	 36.9863
8.384000	 36.3804
8.468000	 35.744
8.552000	 35.9289
8.635999	 36.5455
8.719999	 36.81
8.804000	 36.4318
8.888000	 35.7495
8.972000	 35.4283
9.056000	 35.7806
9.140000	 36.3577
9.224000	 36.6662
9.308000	 36.5789
9.391999	 35.5458
9.475999	 35.214
9.560000	 35.3597
9.644000	 35.651
9.728000	 36.171
9.812000	 36.2698
9.896000	 35.7643
9.980000	 35.2502
10.064	34.8678
10.148	34.7055
10.232	35.0555
10.316	35.7232
10.4	36.0115
10.484	35.6392
10.568	35.2058
10.652	34.5895
10.736	34.3129
10.82	34.1526
10.904	34.5029
10.988	35.032
11.072	35.1172
11.156	35.1753
11.24	34.9373
11.324	34.5907
11.408	34.1308
11.492	33.7379
11.576	33.7045
11.66	33.9066
11.744	34.136
11.828	34.4329
11.912	34.6263
11.996	34.5934
12.08	34.4904
12.164	34.2213
12.248	33.5935
12.332	32.9947
12.416	32.877
12.5	32.873
12.584	32.9448
12.668	33.1497
12.752	33.4374
12.836	33.67
12.92	33.8026
13.004	33.7348
13.088	33.5995
13.172	33.3278
13.256	32.8986
13.34	32.5879
13.424	32.1492
13.508	31.7941
13.592	31.7684
13.676	32.061
13.76	32.4132
13.844	32.6358
13.928	32.9037
14.012	33.0829
14.096	32.928
14.18	32.7039
14.264	32.5102
14.348	32.2073
14.432	31.841
14.516	31.5289
14.6	31.2324
14.684	30.9823
14.768	30.9425
14.852	31.0051
14.936	31.0724
15.02	31.22
15.104	31.3608
15.188	31.372
15.272	31.3668
15.356	31.4078
15.44	31.3965
15.524	31.4176
15.608	31.5309
15.692	31.5025
15.776	31.2631
15.86	30.976
15.944	30.7135
16.028	30.4765
16.112	30.2656
16.196	30.0891
16.28	29.9729
16.364	29.8691
16.448	29.7304
16.532	29.6566
16.616	29.8167
16.7	30.1872
16.784	30.5077
16.868	30.621
16.952	30.6669
17.036	30.7455
17.12	30.7121
17.204	30.4942
17.288	30.1985
17.372	29.88
17.456	29.4784
17.54	28.9817
17.624	28.5296
17.708	28.3145
17.792	28.386
17.876	28.601
17.96	28.8207
18.044	29.0088
18.128	29.0964
18.212	29.0662
18.296	29.1572
18.38	29.636
18.464	30.3532
18.548	30.803
18.632	30.6575
18.716	30.033
18.8	29.2588
18.884	28.6541
18.968	28.4796
19.052	28.806
19.136	29.3779
19.22	29.7261
19.304	29.5491
19.388	28.9606
19.472	28.339
19.556	27.9905
19.64	27.9438
19.724	28.0146
19.808	28.0211
19.892	27.9415
19.976	27.8398
20.06	27.6974
20.144	27.428
20.228	27.045
20.312	26.7318
20.396	26.685
20.48	26.9067
20.564	27.1892
20.648	27.3239
20.732	27.2783
20.816	27.1551
20.9	27.0514
20.984	26.9898
21.068	26.9467
21.152	26.8929
21.236	26.8048
21.32	26.6834
21.404	26.5736
21.488	26.5541
21.572	26.6746
21.656	26.8776
21.74	27.0115
21.824	26.9362
21.908	26.6479
21.992	26.2835
22.076	26.0031
22.16	25.8698
22.244	25.8128
22.328	25.7154
22.412	25.5054
22.496	25.1993
22.58	24.8662
22.664	24.5686
22.748	24.3401
22.832	24.2122
22.916	24.2339
23	24.4599
23.084	24.9022
23.168	25.4915
23.252	26.0983
23.336	26.5815
23.42	26.8626
23.504	26.9398
23.588	26.8877
23.672	26.8006
23.756	26.7325
23.84	26.6731
23.924	26.5682
24.008	26.3662
24.092	26.0457
24.176	25.6153
24.26	25.1199
24.344	24.6284
24.428	24.2064
24.512	23.9074
24.596	23.7745
24.68	23.8594
24.764	24.2066
24.848	24.7877
24.932	25.4328
25.016	25.8533
25.1	25.7274
25.184	24.8721
25.268	23.3956
25.352	21.6803
25.436	20.2196
25.52	19.3451
25.604	19.0683
25.688	19.121
25.772	19.1121
25.856	18.7547
25.94	17.9488
26.024	16.8322
26.108	15.7153
26.192	14.9851
26.276	14.911
26.36	15.5322
26.444	16.5109
26.528	17.2506
26.612	17.0445
26.696	15.4811
26.78	12.7046
26.864	9.428205
26.948	6.641942
27.028	5.231332