File: Bakgrunnsmateriale/MATLAB/FTIR/ftir_data/LPE454/Mapping_121/LPE454_e127_cm-1.asc
PE IR       SPECTRUM    SPECTRUM    ASCII       PEDS        1.60
  -1
LP0A1C~1.ASC
17/05/19
23:27:42.00
17/05/19
23:27:42.00
tln
$LPE454_e0127$<ebV0>[-23.3,12.1,10.0,0.0,27,1,0]
370
64

2002,4.07
MIRTGS : RIGHTBACK : INTERNAL 2
MIR : ON : INTERNAL 2
OPTKBR

0.200000
8
8.000000
FILLER
SINGLE
SPECTRUM
UNLOCKED 256

DOUBLE

COMBINED
1
0
0

1.000000
BACKG

1
0
TRUE
51149
0
LEFT NOT FITTED RIGHT NOT FITTED 0
NONE
NONE
15600
12
4.427000
51148
TRUE
1 0 8 72 0 0 0 0

15798

#HDR
-1
-1
#GR
CM-1
EGY
2.38419e-05
0.0
5000
-1.000000
4631
8
2.428817
0.008010
#DATA
5000	0.770783
4984	0.776338
4968	0.785946
4952	0.789093
4936	0.795650
4920	0.801706
4904	0.806641
4888	0.815153
4872	0.824165
4856	0.831651
4840	0.840592
4824	0.854587
4808	0.861978
4792	0.872755
4776	0.880122
4760	0.886583
4744	0.896859
4728	0.901508
4712	0.906205
4696	0.907516
4680	0.912570
4664	0.913166
4648	0.915002
4632	0.918221
4616	0.922894
4600	0.934672
4584	0.858283
4568	0.952768
4552	0.984716
4536	0.982975
4520	0.990223
4504	0.997614
4488	1.005792
4472	1.007080
4456	1.008081
4440	1.013064
4424	1.014351
4408	1.018381
4392	1.023674
4376	1.030707
4360	1.046943
4344	1.061654
4328	1.077842
4312	1.098346
4296	1.118397
4280	1.133871
4264	1.152944
4248	1.164484
4232	1.175737
4216	1.186180
4200	1.195502
4184	1.199984
4168	1.208257
4152	1.219320
4136	1.230430
4120	1.249194
4104	1.257157
4088	1.275897
4072	1.296615
4056	1.321315
4040	1.341485
4024	1.364302
4008	1.377415
3992	1.395201
3976	1.402425
3960	1.410770
3944	1.414442
3928	1.419758
3912	1.421666
3896	1.425695
3880	1.433467
3864	1.440453
3848	1.455593
3832	1.468443
3816	1.487660
3800	1.506066
3784	1.531744
3768	1.542568
3752	1.534557
3736	1.548194
3720	1.565957
3704	1.566910
3688	1.560926
3672	1.552844
3656	1.564240
3640	1.574230
3624	1.569151
3608	1.577258
3592	1.586079
3576	1.596736
3560	1.603698
3544	1.614093
3528	1.614522
3512	1.618123
3496	1.613068
3480	1.601624
3464	1.596283
3448	1.587533
3432	1.574373
3416	1.576614
3400	1.587486
3384	1.595711
3368	1.610898
3352	1.633119
3336	1.659250
3320	1.681447
3304	1.701784
3288	1.722431
3272	1.744437
3256	1.756286
3240	1.766967
3224	1.772189
3208	1.778101
3192	1.777935
3176	1.784563
3160	1.788735
3144	1.804494
3128	1.822829
3112	1.839041
3096	1.868820
3080	1.899766
3064	1.921558
3048	1.948261
3032	1.961278
3016	1.950669
3000	2.008700
2984	2.013969
2968	1.944518
2952	1.909089
2936	1.802039
2920	1.789283
2904	1.933407
2888	1.979875
2872	1.967430
2856	1.909470
2840	2.052640
2824	2.109909
2808	2.150249
2792	2.176523
2776	2.208733
2760	2.225708
2744	2.235198
2728	2.240490
2712	2.235841
2696	2.228713
2680	2.218556
2664	2.208971
2648	2.200818
2632	2.199482
2616	2.203369
2600	2.207231
2584	2.218651
2568	2.245616
2552	2.265501
2536	2.283072
2520	2.296090
2504	2.303671
2488	2.307105
2472	2.297377
2456	2.283239
2440	2.269172
2424	2.245688
2408	2.239274
2392	2.228903
2376	2.218198
2360	2.213597
2344	2.237749
2328	2.261519
2312	2.292394
2296	2.319717
2280	2.338290
2264	2.349686
2248	2.353858
2232	2.354288
2216	2.345824
2200	2.332639
2184	2.320861
2168	2.306604
2152	2.309513
2136	2.306532
2120	2.306866
2104	2.311730
2088	2.309465
2072	2.329754
2056	2.361011
2040	2.391934
2024	2.413964
2008	2.424383
1992	2.426695
1976	2.416086
1960	2.401065
1944	2.386283
1928	2.372622
1912	2.355217
1896	2.341198
1880	2.344441
1864	2.351331
1848	2.358102
1832	2.373933
1816	2.391219
1800	2.397036
1784	2.396416
1768	2.378511
1752	2.353191
1736	2.293896
1720	2.275371
1704	2.242565
1688	2.218985
1672	2.193474
1656	2.144575
1640	2.122235
1624	2.075552
1608	1.944231
1592	1.985478
1576	1.951050
1560	1.897740
1544	1.927447
1528	2.074289
1512	2.058386
1496	1.677989
1480	1.931786
1464	1.909899
1448	1.757168
1432	1.845192
1416	1.817917
1400	1.708269
1384	1.760292
1368	1.791357
1352	1.790690
1336	1.802253
1320	1.825833
1304	1.829123
1288	1.828360
1272	1.780700
1256	1.732635
1240	1.810765
1224	1.791644
1208	1.726365
1192	1.718425
1176	1.680231
1160	1.609516
1144	1.578116
1128	1.523137
1112	1.441121
1096	1.409506
1080	1.412677
1064	1.420712
1048	1.290321
1032	1.361942
1016	1.351094
1000	1.382732
984	 1.364994
968	 1.328015
952	 1.273655
936	 1.236581
920	 1.201939
904	 1.146340
888	 1.107406
872	 1.025629
856	 1.077985
840	 1.049256
824	 0.837016
808	 0.936770
792	 0.949978
776	 0.968933
760	 0.955843
744	 0.932455
728	 0.897169
712	 0.849246
696	 0.785875
680	 0.725483
664	 0.695753
648	 0.658082
632	 0.615549
616	 0.570559
600	 0.518274
584	 0.502562
568	 0.485277
552	 0.458359
536	 0.432443
520	 0.396704
504	 0.354766
488	 0.301861
472	 0.249719
456	 0.197100
440	 0.145959
424	 0.100350
408	 0.056433
392	 0.027513
376	 0.010466
370	 0.008010