File: Bakgrunnsmateriale/MATLAB/FTIR/ftir_data/LPE454/Mapping_121/LPE454_t15_cm-1.asc
PE IR       SPECTRUM    SPECTRUM    ASCII       PEDS        1.60
  -1
LPE73B~1.ASC
17/05/19
15:34:31.00
17/05/19
15:34:31.00
tln
$LPE454_t0015$<tbV0>[5.2,-10.4,8.0,0.0,27,1,0]
370
64

2002,4.07
MIRTGS : RIGHTBACK : INTERNAL 2
MIR : ON : INTERNAL 2
OPTKBR

0.200000
8
8.000000
FILLER
RATIO
SPECTRUM
UNLOCKED 256

DOUBLE
64
COMBINED
1
0
0

1.000000
RATIO

1
0
TRUE
51149
0
LEFT NOT FITTED RIGHT NOT FITTED 0
NONE
NONE
15600
12
4.427000
51148
TRUE
1 0 8 72 0 0 0 0

15798

#HDR
-1
-1
#GR
CM-1
%T
2.38419e-05
0.0
5000
-1.000000
4631
8
77.049
-13.3221
#DATA
5000	0.053191
4984	0.285339
4968	-0.400042
4952	0.487446
4936	-0.276780
4920	0.442147
4904	0.180196
4888	-0.171899
4872	0.843858
4856	0.272297
4840	0.082850
4824	0.022792
4808	0.555443
4792	-0.640773
4776	0.184059
4760	1.271295
4744	1.298880
4728	0.413942
4712	0.298428
4696	-0.812172
4680	0.754213
4664	0.547719
4648	0.128173
4632	0.368762
4616	0.194835
4600	0.546169
4584	0.726628
4568	0.384092
4552	0.323152
4536	-0.217485
4520	-0.318622
4504	1.513195
4488	2.793502
4472	3.009915
4456	-0.075602
4440	-0.073122
4424	0.081467
4408	0.265669
4392	0.682735
4376	0.506019
4360	0.286650
4344	0.738358
4328	0.482845
4312	0.107717
4296	-0.146794
4280	0.031685
4264	0.157642
4248	-0.097322
4232	0.328421
4216	-0.398707
4200	-0.082921
4184	-0.505495
4168	0.466656
4152	0.240874
4136	0.098085
4120	0.485968
4104	0.044012
4088	0.141048
4072	0.118136
4056	-0.231909
4040	-0.044012
4024	-0.126409
4008	0.186657
3992	0.144004
3976	0.124049
3960	0.241661
3944	-0.066924
3928	0.174427
3912	0.093126
3896	0.123238
3880	-0.130391
3864	-0.133299
3848	-0.014138
3832	0.158286
3816	0.068330
3800	0.051498
3784	0.014185
3768	0.136756
3752	-0.022292
3736	0.052905
3720	0.184392
3704	0.004696
3688	0.143408
3672	0.149250
3656	-0.053119
3640	-0.112748
3624	0.187253
3608	0.051140
3592	0.070047
3576	0.194358
3560	0.002312
3544	0.150752
3528	0.113725
3512	0.141048
3496	0.115871
3480	-0.018954
3464	0.075578
3448	0.061392
3432	0.018477
3416	0.179147
3400	-0.054740
3384	0.107741
3368	0.134038
3352	0.082325
3336	0.013971
3320	0.112009
3304	0.203347
3288	0.105857
3272	0.022864
3256	0.099492
3240	0.074124
3224	0.070858
3208	0.062441
3192	0.182747
3176	0.076913
3160	0.027298
3144	0.402116
3128	0.063896
3112	0.019383
3096	0.045704
3080	-0.035238
3064	0.061178
3048	0.060892
3032	-0.063729
3016	0.174570
3000	0.071835
2984	0.051069
2968	0.063443
2952	-0.013685
2936	0.067281
2920	0.098657
2904	-0.101161
2888	0.054979
2872	0.117301
2856	0.097298
2840	0.170087
2824	0.033783
2808	-0.007772
2792	-0.063443
2776	0.026655
2760	-0.107407
2744	-0.037360
2728	0.143337
2712	0.132560
2696	0.063705
2680	0.069856
2664	0.006580
2648	0.001287
2632	-0.019598
2616	0.030779
2600	-0.009846
2584	0.058341
2568	0.104665
2552	-0.047039
2536	0.031709
2520	0.028204
2504	0.116062
2488	-0.039410
2472	0.128960
2456	0.014853
2440	0.006318
2424	-0.141549
2408	0.119924
2392	0.019001
2376	0.139141
2360	0.136351
2344	0.176548
2328	0.321054
2312	0.465130
2296	0.628471
2280	0.905609
2264	1.381039
2248	2.031326
2232	2.709674
2216	3.692340
2200	4.828381
2184	6.311106
2168	7.955884
2152	9.649705
2136	11.5474
2120	13.6394
2104	15.6035
2088	17.6593
2072	19.866
2056	21.1541
2040	23.0194
2024	24.5757
2008	25.8877
1992	27.1458
1976	28.1555
1960	29.1077
1944	29.9335
1928	30.5688
1912	31.0947
1896	31.828
1880	32.1881
1864	32.6037
1848	32.9351
1832	33.3422
1816	33.3799
1800	33.6469
1784	33.7756
1768	34.054
1752	34.0427
1736	34.0967
1720	34.1251
1704	34.3671
1688	34.3671
1672	34.3192
1656	34.437
1640	34.4823
1624	34.394
1608	34.3613
1592	34.3423
1576	34.3433
1560	34.6323
1544	34.4277
1528	34.3737
1512	34.3471
1496	34.4418
1480	34.0824
1464	34.2802
1448	34.2526
1432	34.1779
1416	34.0958
1400	34.2274
1384	34.0835
1368	33.7636
1352	33.707
1336	33.9002
1320	33.9643
1304	33.7578
1288	33.6148
1272	33.6923
1256	33.5759
1240	33.4993
1224	33.6165
1208	33.5033
1192	33.3253
1176	33.3018
1160	33.2062
1144	33.1729
1128	32.9123
1112	33.1156
1096	33.098
1080	32.6711
1064	32.46
1048	32.548
1032	32.2055
1016	32.1529
1000	32.062
984	 32.4163
968	 31.8931
952	 31.6215
936	 31.6888
920	 31.2229
904	 30.8896
888	 31.2429
872	 30.9108
856	 30.6037
840	 30.1382
824	 30.442
808	 30.1882
792	 29.3569
776	 29.3076
760	 29.002
744	 28.8658
728	 28.3872
712	 28.8038
696	 28.2188
680	 27.4326
664	 27.187
648	 27.3535
632	 27.0258
616	 26.3561
600	 26.2808
584	 26.159
568	 25.4481
552	 24.4979
536	 24.9818
520	 23.8884
504	 23.1263
488	 22.8871
472	 23.8898
456	 21.1404
440	 20.8583
424	 22.7841
408	 21.0625
392	 -6.633925
376	 -2.973198
370	 77.049