File: Bakgrunnsmateriale/MATLAB/FTIR/ftir_data/LPE454/Mapping_121/LPE454_t107.asc
PE IR       SPECTRUM    SPECTRUM    ASCII       PEDS        1.60
  -1
LP9F08~1.ASC
17/05/19
23:08:24.00
17/05/19
23:08:50.00
tln
$LPE454_t0107$<tbV0>[-5.2,10.4,8.0,0.0,27,1,0]
27.028
64

2002,4.07
MIRTGS : RIGHTBACK : INTERNAL 2
MIR : ON : INTERNAL 2
OPTKBR

0.200000
8
8.000000
FILLER
RATIO
SPECTRUM
UNLOCKED 256

DOUBLE
64
COMBINED
1
0
0

0.002000
RATIO

1
0
TRUE
51149
0
LEFT NOT FITTED RIGHT NOT FITTED 0
NONE
NONE
15600
12
4.427000
51148
TRUE
1 0 8 72 0 0 0 0

15798

#HDR
-1
-1
#GR
µM
%T
2.38419e-05
0.0
2.000000
0.002000
12515
8
38.6064
-23.4814
#DATA
2.000000	 -0.081825
2.084000	 -0.059263
2.168000	 0.178275
2.252000	 -0.015178
2.336000	 -0.038494
2.420000	 -0.144969
2.504000	 0.084112
2.588000	 -0.095156
2.672000	 -0.003687
2.756000	 0.054525
2.840000	 0.125315
2.924000	 -0.006218
3.008000	 0.075309
3.092000	 0.121382
3.176000	 0.108017
3.260000	 -0.074023
3.344000	 -0.087924
3.428000	 0.079681
3.512000	 0.007313
3.596000	 0.015759
3.680000	 0.088156
3.764000	 0.060842
3.848000	 0.042946
3.932000	 -0.025228
4.016000	 0.108731
4.100000	 0.140562
4.184000	 0.139053
4.268000	 0.673137
4.352000	 1.672810
4.436000	 3.677694
4.520000	 7.072062
4.604000	 11.6626
4.688000	 16.7842
4.772000	 21.7495
4.856000	 25.9085
4.940000	 29.0465
5.024000	 31.361
5.108000	 33.3472
5.192000	 34.4674
5.276000	 35.6261
5.359999	 36.0037
5.444000	 36.7315
5.528000	 36.9494
5.612000	 37.2471
5.696000	 37.6031
5.780000	 37.2408
5.864000	 37.9318
5.948000	 37.7603
6.032000	 37.8019
6.116000	 38.2859
6.200000	 37.7842
6.284000	 37.9055
6.368000	 38.2609
6.452000	 38.0201
6.536000	 37.7439
6.620000	 38.3448
6.704000	 38.1669
6.788000	 37.8042
6.872000	 38.0967
6.956000	 38.5123
7.040000	 38.0861
7.124000	 37.6666
7.208000	 38.0995
7.292000	 38.5835
7.376000	 38.2089
7.460000	 37.775
7.544000	 37.8408
7.628000	 38.4693
7.712000	 38.4695
7.796000	 37.964
7.880000	 37.595
7.964000	 37.8578
8.048000	 38.4347
8.132000	 38.3869
8.216000	 37.8217
8.300000	 37.4176
8.384000	 37.5965
8.468000	 38.0648
8.552000	 38.3183
8.635999	 38.2167
8.719999	 37.5722
8.804000	 37.1949
8.888000	 37.4439
8.972000	 37.8361
9.056000	 38.1396
9.140000	 37.9421
9.224000	 37.2885
9.308000	 37.0025
9.391999	 36.9768
9.475999	 37.3251
9.560000	 37.6712
9.644000	 37.8432
9.728000	 37.8929
9.812000	 37.2378
9.896000	 36.8119
9.980000	 36.6302
10.064	36.638
10.148	37.0666
10.232	37.5311
10.316	37.6097
10.4	37.4254
10.484	36.9945
10.568	36.5244
10.652	36.1623
10.736	36.1508
10.82	36.2193
10.904	36.5809
10.988	36.8781
11.072	37.0062
11.156	36.938
11.24	36.6662
11.324	36.1613
11.408	35.7509
11.492	35.3324
11.576	35.3707
11.66	35.6567
11.744	35.882
11.828	35.9849
11.912	36.149
11.996	36.1644
12.08	36.2671
12.164	35.9037
12.248	35.4497
12.332	35.0422
12.416	34.7686
12.5	34.5474
12.584	34.6325
12.668	34.813
12.752	35.0175
12.836	35.3111
12.92	35.5149
13.004	35.4862
13.088	35.4332
13.172	35.4444
13.256	35.1921
13.34	34.7205
13.424	34.1949
13.508	34.0195
13.592	34.0473
13.676	33.9193
13.76	33.9438
13.844	34.0642
13.928	34.1267
14.012	34.2684
14.096	34.5056
14.18	34.7134
14.264	34.7145
14.348	34.5742
14.432	34.4044
14.516	34.2006
14.6	34.0116
14.684	33.7279
14.768	33.2946
14.852	32.8803
14.936	32.7749
15.02	33.0004
15.104	33.118
15.188	33.0076
15.272	32.9489
15.356	32.9663
15.44	33.0375
15.524	33.2783
15.608	33.5485
15.692	33.6016
15.776	33.5148
15.86	33.4379
15.944	33.345
16.028	33.2738
16.112	33.2654
16.196	33.1123
16.28	32.6797
16.364	32.1936
16.448	31.8337
16.532	31.5134
16.616	31.203
16.7	31.0349
16.784	31.084
16.868	31.2892
16.952	31.5346
17.036	31.7854
17.12	32.0872
17.204	32.3344
17.288	32.2679
17.372	31.8483
17.456	31.4122
17.54	31.2929
17.624	31.4405
17.708	31.5985
17.792	31.6769
17.876	31.7417
17.96	31.7645
18.044	31.6202
18.128	31.289
18.212	30.9264
18.296	30.6705
18.38	30.4522
18.464	30.0679
18.548	29.4462
18.632	28.7907
18.716	28.4318
18.8	28.5484
18.884	29.0277
18.968	29.5583
19.052	29.8327
19.136	29.7159
19.22	29.2849
19.304	28.7516
19.388	28.3273
19.472	28.1328
19.556	28.2125
19.64	28.5495
19.724	29.0456
19.808	29.5378
19.892	29.9079
19.976	30.1605
20.06	30.3611
20.144	30.5116
20.228	30.5354
20.312	30.4119
20.396	30.264
20.48	30.2424
20.564	30.3491
20.648	30.4149
20.732	30.2623
20.816	29.8618
20.9	29.3451
20.984	28.8954
21.068	28.6183
21.152	28.5045
21.236	28.466
21.32	28.4104
21.404	28.2845
21.488	28.0927
21.572	27.8795
21.656	27.6958
21.74	27.5737
21.824	27.5198
21.908	27.5216
21.992	27.5633
22.076	27.6292
22.16	27.6898
22.244	27.7151
22.328	27.6825
22.412	27.5831
22.496	27.4379
22.58	27.2779
22.664	27.129
22.748	27.0113
22.832	26.9436
22.916	26.9566
23	27.0571
23.084	27.2242
23.168	27.3697
23.252	27.35
23.336	27.0143
23.42	26.2904
23.504	25.226
23.588	24.0313
23.672	23.0067
23.756	22.434
23.84	22.4819
23.924	23.1154
24.008	24.1193
24.092	25.1945
24.176	26.0807
24.26	26.7125
24.344	27.2217
24.428	27.8396
24.512	28.8247
24.596	30.2463
24.68	31.9423
24.764	33.583
24.848	34.7921
24.932	35.2402
25.016	34.7895
25.1	33.5323
25.184	31.6726
25.268	29.4192
25.352	26.9197
25.436	24.3526
25.52	21.9494
25.604	19.9527
25.688	18.5214
25.772	17.5969
25.856	16.8809
25.94	16.0477
26.024	14.8151
26.108	13.007
26.192	10.391
26.276	6.684081
26.36	1.485145
26.444	-5.078777
26.528	-12.1973
26.612	-18.4607
26.696	-22.4629
26.78	-23.4121
26.864	-21.5023
26.948	-17.7777
27.028	-13.8284