File: Bakgrunnsmateriale/MATLAB/FTIR/ftir_data/LPE454/Mapping_121/LPE454_t22.asc
PE IR       SPECTRUM    SPECTRUM    ASCII       PEDS        1.60
  -1
LPCB94~1.ASC
17/05/19
16:06:47.00
17/05/19
16:07:13.00
tln
$LPE454_t0022$<tbV0>[-13.0,-10.4,8.0,0.0,27,1,0]
27.028
64

2002,4.07
MIRTGS : RIGHTBACK : INTERNAL 2
MIR : ON : INTERNAL 2
OPTKBR

0.200000
8
8.000000
FILLER
RATIO
SPECTRUM
UNLOCKED 256

DOUBLE
64
COMBINED
1
0
0

0.002000
RATIO

1
0
TRUE
51149
0
LEFT NOT FITTED RIGHT NOT FITTED 0
NONE
NONE
15600
12
4.427000
51148
TRUE
1 0 8 72 0 0 0 0

15798

#HDR
-1
-1
#GR
µM
%T
2.38419e-05
0.0
2.000000
0.002000
12515
8
21.1567
-53.9671
#DATA
2.000000	 0.969696
2.084000	 0.261360
2.168000	 0.660877
2.252000	 -0.546979
2.336000	 -0.275525
2.420000	 0.107087
2.504000	 0.252643
2.588000	 0.085886
2.672000	 0.073520
2.756000	 0.037010
2.840000	 0.118423
2.924000	 -0.021496
3.008000	 0.031593
3.092000	 -0.099058
3.176000	 0.022682
3.260000	 0.190451
3.344000	 0.006072
3.428000	 0.094411
3.512000	 0.048334
3.596000	 -0.038424
3.680000	 0.100226
3.764000	 0.003229
3.848000	 0.062725
3.932000	 0.093188
4.016000	 -0.029877
4.100000	 -0.019679
4.184000	 -0.005658
4.268000	 0.025641
4.352000	 0.085818
4.436000	 0.069218
4.520000	 -0.031152
4.604000	 0.031819
4.688000	 0.020792
4.772000	 0.088381
4.856000	 0.034310
4.940000	 0.125529
5.024000	 0.193688
5.108000	 0.113875
5.192000	 0.257511
5.276000	 0.037819
5.359999	 0.128545
5.444000	 0.135456
5.528000	 0.249113
5.612000	 0.180717
5.696000	 0.147716
5.780000	 0.315129
5.864000	 0.205552
5.948000	 0.207850
6.032000	 0.247793
6.116000	 0.264408
6.200000	 0.275159
6.284000	 0.232505
6.368000	 0.169700
6.452000	 0.331505
6.536000	 0.115036
6.620000	 0.204219
6.704000	 0.172590
6.788000	 0.369337
6.872000	 0.160578
6.956000	 0.367575
7.040000	 0.260091
7.124000	 0.188071
7.208000	 0.259449
7.292000	 0.316926
7.376000	 0.254811
7.460000	 0.244323
7.544000	 0.285720
7.628000	 0.250187
7.712000	 0.342180
7.796000	 0.398138
7.880000	 0.357523
7.964000	 0.436013
8.048000	 0.497155
8.132000	 0.480735
8.216000	 0.373565
8.300000	 0.588593
8.384000	 0.577751
8.468000	 0.543468
8.552000	 0.630952
8.635999	 0.704763
8.719999	 0.625534
8.804000	 0.343566
8.888000	 0.675466
8.972000	 0.757737
9.056000	 0.715126
9.140000	 0.990096
9.224000	 0.846093
9.308000	 0.724203
9.391999	 0.678338
9.475999	 0.784370
9.560000	 0.860125
9.644000	 0.653546
9.728000	 0.712418
9.812000	 0.511702
9.896000	 0.746226
9.980000	 0.772601
10.064	0.928878
10.148	0.809406
10.232	0.885443
10.316	0.807333
10.4	0.652692
10.484	0.925546
10.568	1.112377
10.652	1.054870
10.736	1.017918
10.82	0.809507
10.904	0.949206
10.988	0.906560
11.072	0.920141
11.156	0.858077
11.24	1.168342
11.324	1.106059
11.408	1.069490
11.492	1.084515
11.576	0.997811
11.66	0.934134
11.744	0.860257
11.828	1.088675
11.912	1.116112
11.996	1.035533
12.08	0.968283
12.164	1.021153
12.248	1.217629
12.332	1.183576
12.416	1.270154
12.5	1.437830
12.584	1.427284
12.668	1.278830
12.752	1.158594
12.836	1.319096
12.92	1.435383
13.004	1.287079
13.088	1.315445
13.172	1.496977
13.256	1.767715
13.34	1.713727
13.424	1.341695
13.508	1.413336
13.592	1.701503
13.676	1.781195
13.76	1.668601
13.844	1.503970
13.928	1.572103
14.012	1.730387
14.096	1.638571
14.18	1.488944
14.264	1.530097
14.348	1.608696
14.432	1.624087
14.516	1.698302
14.6	1.757293
14.684	1.757877
14.768	1.677757
14.852	1.597472
14.936	1.673392
15.02	1.744025
15.104	1.644625
15.188	1.498388
15.272	1.512074
15.356	1.682067
15.44	1.786322
15.524	1.734861
15.608	1.565043
15.692	1.275358
15.776	0.975688
15.86	0.881555
15.944	1.051806
16.028	1.321363
16.112	1.521899
16.196	1.626494
16.28	1.715052
16.364	1.880647
16.448	2.069438
16.532	2.117410
16.616	2.051780
16.7	2.076179
16.784	2.177841
16.868	2.119143
16.952	1.845044
17.036	1.595625
17.12	1.529088
17.204	1.494241
17.288	1.345249
17.372	1.219871
17.456	1.312160
17.54	1.591990
17.624	1.904407
17.708	2.137128
17.792	2.187029
17.876	1.989272
17.96	1.657627
18.044	1.405818
18.128	1.305080
18.212	1.284145
18.296	1.309369
18.38	1.395745
18.464	1.495808
18.548	1.543402
18.632	1.568585
18.716	1.630486
18.8	1.693318
18.884	1.693060
18.968	1.663481
19.052	1.678914
19.136	1.716480
19.22	1.686221
19.304	1.575993
19.388	1.475577
19.472	1.447531
19.556	1.460056
19.64	1.463248
19.724	1.461397
19.808	1.480766
19.892	1.509340
19.976	1.512981
20.06	1.492718
20.144	1.492879
20.228	1.538064
20.312	1.596687
20.396	1.613051
20.48	1.567962
20.564	1.490433
20.648	1.433497
20.732	1.436749
20.816	1.512392
20.9	1.661929
20.984	1.878948
21.068	2.145165
21.152	2.402235
21.236	2.560489
21.32	2.537401
21.404	2.303433
21.488	1.903068
21.572	1.425635
21.656	0.954825
21.74	0.538354
21.824	0.203847
21.908	-0.012501
21.992	-0.048831
22.076	0.170342
22.16	0.683083
22.244	1.450290
22.328	2.345721
22.412	3.178962
22.496	3.747101
22.58	3.918844
22.664	3.675879
22.748	3.140551
22.832	2.519201
22.916	2.022930
23	1.759672
23.084	1.694554
23.168	1.657891
23.252	1.462871
23.336	1.007167
23.42	0.331792
23.504	-0.376584
23.588	-0.886972
23.672	-1.047194
23.756	-0.836207
23.84	-0.355651
23.924	0.201750
24.008	0.658205
24.092	0.917148
24.176	0.944589
24.26	0.769616
24.344	0.455992
24.428	0.070623
24.512	-0.310500
24.596	-0.627490
24.68	-0.785638
24.764	-0.625207
24.848	-0.012963
24.932	1.207218
25.016	3.131716
25.1	5.650747
25.184	8.528479
25.268	11.4433
25.352	14.0416
25.436	15.7872
25.52	16.1186
25.604	14.6899
25.688	11.6032
25.772	7.504415
25.856	3.353559
25.94	-0.030471
26.024	-2.165299
26.108	-3.007232
26.192	-2.911206
26.276	-2.446748
26.36	-2.108927
26.444	-2.357231
26.528	-3.668061
26.612	-6.708452
26.696	-12.1393
26.78	-20.3637
26.864	-31.1155
26.948	-43.2139
27.028	-53.9671