File: Bakgrunnsmateriale/MATLAB/FTIR/ftir_data/LPE454/Mapping_121/LPE454_t16_cm-1.asc
PE IR       SPECTRUM    SPECTRUM    ASCII       PEDS        1.60
  -1
LPE7BA~1.ASC
17/05/19
15:39:07.00
17/05/19
15:39:07.00
tln
$LPE454_t0016$<tbV0>[2.6,-10.4,8.0,0.0,27,1,0]
370
64

2002,4.07
MIRTGS : RIGHTBACK : INTERNAL 2
MIR : ON : INTERNAL 2
OPTKBR

0.200000
8
8.000000
FILLER
RATIO
SPECTRUM
UNLOCKED 256

DOUBLE
64
COMBINED
1
0
0

1.000000
RATIO

1
0
TRUE
51149
0
LEFT NOT FITTED RIGHT NOT FITTED 0
NONE
NONE
15600
12
4.427000
51148
TRUE
1 0 8 72 0 0 0 0

15798

#HDR
-1
-1
#GR
CM-1
%T
2.38419e-05
0.0
5000
-1.000000
4631
8
34.836
-8.128237
#DATA
5000	0.418424
4984	0.188946
4968	0.245833
4952	-0.422739
4936	-0.361680
4920	0.116634
4904	0.022292
4888	0.600528
4872	-0.065827
4856	-0.030565
4840	0.371122
4824	0.218677
4808	0.060296
4792	-0.061988
4776	-0.228404
4760	-0.043296
4744	-0.201773
4728	-0.316953
4712	1.056432
4696	-1.754260
4680	1.836991
4664	1.511502
4648	0.807237
4632	-0.918388
4616	-0.087594
4600	0.006437
4584	0.726723
4568	0.509428
4552	0.122570
4536	0.077152
4520	0.440168
4504	1.500463
4488	-2.559566
4472	0.528740
4456	0.053334
4440	0.273513
4424	0.032043
4408	-0.113534
4392	-0.346374
4376	0.218701
4360	-0.300526
4344	0.200033
4328	-0.015902
4312	0.054526
4296	0.579881
4280	0.423383
4264	0.060963
4248	0.024032
4232	0.006628
4216	-0.199341
4200	0.220894
4184	-0.029873
4168	0.298476
4152	0.114178
4136	0.049948
4120	0.217151
4104	0.141835
4088	0.024151
4072	-0.224399
4056	-0.065565
4040	0.012111
4024	0.032234
4008	0.030303
3992	-0.075697
3976	0.015234
3960	0.008583
3944	0.125837
3928	0.242304
3912	0.006222
3896	0.074124
3880	0.117301
3864	0.147962
3848	0.063753
3832	0.224018
3816	-0.013756
3800	0.111770
3784	-0.129342
3768	0.141549
3752	-0.030493
3736	-0.043964
3720	0.037646
3704	0.071454
3688	0.092124
3672	-0.004696
3656	0.018143
3640	0.003862
3624	0.056195
3608	0.099802
3592	0.022482
3576	0.018382
3560	0.139045
3544	0.008058
3528	0.023174
3512	0.031280
3496	0.234651
3480	0.079751
3464	0.179338
3448	0.131273
3432	0.189900
3416	0.040245
3400	0.111079
3384	0.034189
3368	0.044441
3352	-0.039482
3336	-0.068855
3320	0.161409
3304	0.013256
3288	-0.078010
3272	0.031304
3256	0.004386
3240	0.024247
3224	0.018215
3208	-0.046849
3192	0.026178
3176	0.163865
3160	0.010085
3144	0.193309
3128	-0.087022
3112	-0.053977
3096	0.058007
3080	-0.021553
3064	0.049805
3048	0.134778
3032	0.199985
3016	0.088810
3000	0.166273
2984	-0.017619
2968	-0.048112
2952	0.002169
2936	0.010156
2920	0.034332
2904	0.011253
2888	0.046944
2872	0.013995
2856	-0.044178
2840	0.051736
2824	0.067996
2808	0.053811
2792	0.009369
2776	0.116348
2760	-0.042796
2744	0.062274
2728	0.089621
2712	-0.049495
2696	0.000238
2680	0.040006
2664	0.010204
2648	0.057864
2632	0.066781
2616	0.001120
2600	-0.032305
2584	-0.033426
2568	0.002288
2552	-0.067567
2536	-0.054812
2520	0.127911
2504	0.055003
2488	-0.068974
2472	0.031900
2456	0.000953
2440	0.143694
2424	0.205206
2408	-0.129675
2392	0.034523
2376	-0.039696
2360	0.035738
2344	0.064826
2328	0.023603
2312	0.149941
2296	0.239801
2280	0.387907
2264	0.717830
2248	1.006841
2232	1.495194
2216	2.213406
2200	3.040480
2184	4.130291
2168	5.472040
2152	6.990838
2136	8.467793
2120	10.2935
2104	12.0902
2088	13.9447
2072	15.5244
2056	17.2775
2040	18.9027
2024	20.2787
2008	21.8195
1992	22.9394
1976	23.9808
1960	24.9664
1944	25.8764
1928	26.5668
1912	27.1413
1896	27.7402
1880	28.1988
1864	28.5969
1848	28.9204
1832	29.3524
1816	29.6041
1800	29.7306
1784	30.0251
1768	30.1724
1752	30.1517
1736	30.4482
1720	30.4278
1704	30.6537
1688	30.6629
1672	30.6893
1656	30.7729
1640	30.6678
1624	30.6738
1608	30.6034
1592	30.746
1576	30.6379
1560	30.9258
1544	30.8379
1528	30.7178
1512	30.7562
1496	30.5987
1480	30.6587
1464	30.5623
1448	30.5289
1432	30.6066
1416	30.5251
1400	30.4601
1384	30.3519
1368	30.2798
1352	30.2444
1336	30.2631
1320	30.124
1304	30.2437
1288	30.0736
1272	30.0764
1256	30.176
1240	29.9651
1224	29.917
1208	29.8469
1192	29.6533
1176	29.7642
1160	29.622
1144	29.3763
1128	29.464
1112	29.3194
1096	29.2549
1080	29.1171
1064	29.0027
1048	28.9307
1032	28.9361
1016	28.925
1000	28.5733
984	 28.4242
968	 28.4387
952	 27.8009
936	 28.0442
920	 27.6208
904	 27.4965
888	 27.3446
872	 27.1262
856	 26.7645
840	 26.7459
824	 26.6157
808	 26.2186
792	 25.7763
776	 25.763
760	 25.647
744	 24.6821
728	 24.9443
712	 24.2599
696	 23.976
680	 24.2302
664	 23.271
648	 22.7455
632	 22.4167
616	 22.4198
600	 21.2775
584	 21.4227
568	 21.8779
552	 20.969
536	 20.5927
520	 20.2302
504	 19.7001
488	 18.5047
472	 18.0896
456	 16.5356
440	 18.2278
424	 18.915
408	 17.9924
392	 0.772714
376	 24.1665
370	 34.7626