File: Bakgrunnsmateriale/MATLAB/FTIR/ftir_data/LPE454/Mapping_121/LPE454_t08.asc
PE IR       SPECTRUM    SPECTRUM    ASCII       PEDS        1.60
  -1
LPE39C~1.ASC
17/05/19
15:01:37.00
17/05/19
15:02:03.00
tln
$LPE454_t0008$<tbV0>[-5.2,-13.0,8.0,0.0,27,1,0]
27.028
64

2002,4.07
MIRTGS : RIGHTBACK : INTERNAL 2
MIR : ON : INTERNAL 2
OPTKBR

0.200000
8
8.000000
FILLER
RATIO
SPECTRUM
UNLOCKED 256

DOUBLE
64
COMBINED
1
0
0

0.002000
RATIO

1
0
TRUE
51149
0
LEFT NOT FITTED RIGHT NOT FITTED 0
NONE
NONE
15600
12
4.427000
51148
TRUE
1 0 8 72 0 0 0 0

15798

#HDR
-1
-1
#GR
µM
%T
2.38419e-05
0.0
2.000000
0.002000
12515
8
35.5544
-13.575
#DATA
2.000000	 -0.122332
2.084000	 1.498388
2.168000	 0.304917
2.252000	 -0.057101
2.336000	 0.181374
2.420000	 0.786591
2.504000	 0.121806
2.588000	 0.150499
2.672000	 -0.073127
2.756000	 0.080107
2.840000	 0.093172
2.924000	 0.082693
3.008000	 0.086424
3.092000	 0.224893
3.176000	 0.093000
3.260000	 0.000577
3.344000	 -0.170790
3.428000	 -0.037661
3.512000	 0.188590
3.596000	 0.059418
3.680000	 0.003781
3.764000	 0.067770
3.848000	 -0.033140
3.932000	 -0.014328
4.016000	 0.146329
4.100000	 0.021921
4.184000	 0.060713
4.268000	 0.265652
4.352000	 0.634318
4.436000	 1.553137
4.520000	 3.535665
4.604000	 6.418755
4.688000	 10.2593
4.772000	 14.1936
4.856000	 17.7547
4.940000	 20.7486
5.024000	 23.0489
5.108000	 24.8856
5.192000	 26.3719
5.276000	 27.1243
5.359999	 28.5856
5.444000	 28.678
5.528000	 29.84
5.612000	 29.6105
5.696000	 30.7432
5.780000	 30.1105
5.864000	 31.0658
5.948000	 30.6359
6.032000	 31.3061
6.116000	 31.4058
6.200000	 30.9556
6.284000	 31.831
6.368000	 31.2101
6.452000	 31.4306
6.536000	 31.9347
6.620000	 31.1669
6.704000	 31.5483
6.788000	 31.9501
6.872000	 31.0745
6.956000	 31.1462
7.040000	 31.8555
7.124000	 31.3718
7.208000	 30.8897
7.292000	 31.5839
7.376000	 31.6865
7.460000	 31.0104
7.544000	 30.9262
7.628000	 31.5609
7.712000	 31.5682
7.796000	 30.7948
7.880000	 30.8935
7.964000	 31.6168
8.048000	 31.6669
8.132000	 30.8266
8.216000	 30.8101
8.300000	 31.1358
8.384000	 31.6981
8.468000	 31.4321
8.552000	 30.842
8.635999	 30.5989
8.719999	 30.9733
8.804000	 31.4169
8.888000	 31.4681
8.972000	 30.7563
9.056000	 30.2935
9.140000	 30.1896
9.224000	 30.9064
9.308000	 31.1306
9.391999	 31.0356
9.475999	 30.3995
9.560000	 30.0633
9.644000	 30.4008
9.728000	 30.6527
9.812000	 31.0937
9.896000	 30.9988
9.980000	 30.4392
10.064	30.0095
10.148	29.7271
10.232	30.1012
10.316	30.4193
10.4	30.7095
10.484	30.7129
10.568	30.3568
10.652	29.7957
10.736	29.3599
10.82	29.5247
10.904	29.682
10.988	29.8981
11.072	30.3322
11.156	30.225
11.24	29.831
11.324	29.4357
11.408	28.9235
11.492	28.7412
11.576	28.9678
11.66	29.2105
11.744	29.4935
11.828	29.8444
11.912	29.9307
11.996	29.7127
12.08	29.124
12.164	28.5764
12.248	28.3297
12.332	28.2911
12.416	28.3407
12.5	28.5542
12.584	28.8317
12.668	28.9893
12.752	29.2094
12.836	29.0639
12.92	28.87
13.004	28.7502
13.088	28.2463
13.172	27.96
13.256	28.0157
13.34	28.1024
13.424	27.9389
13.508	27.5815
13.592	27.5766
13.676	27.8885
13.76	28.2425
13.844	28.2923
13.928	28.2016
14.012	27.9067
14.096	27.4414
14.18	27.2242
14.264	27.2049
14.348	26.9831
14.432	26.6588
14.516	26.6329
14.6	26.8788
14.684	27.2067
14.768	27.5372
14.852	27.6254
14.936	27.3424
15.02	27.1
15.104	27.153
15.188	27.1165
15.272	26.7964
15.356	26.4527
15.44	26.1798
15.524	25.8915
15.608	25.6649
15.692	25.6669
15.776	25.8202
15.86	25.7975
15.944	25.6033
16.028	25.5921
16.112	25.781
16.196	25.897
16.28	25.9165
16.364	25.9549
16.448	25.9508
16.532	25.8248
16.616	25.7169
16.7	25.7675
16.784	25.8242
16.868	25.6511
16.952	25.2627
17.036	24.8702
17.12	24.583
17.204	24.3171
17.288	24.0222
17.372	23.8421
17.456	23.9302
17.54	24.2088
17.624	24.4652
17.708	24.5949
17.792	24.6253
17.876	24.6079
17.96	24.572
18.044	24.5563
18.128	24.6167
18.212	24.7727
18.296	24.9397
18.38	24.9513
18.464	24.7114
18.548	24.3211
18.632	23.9862
18.716	23.7905
18.8	23.6465
18.884	23.4844
18.968	23.3827
19.052	23.4396
19.136	23.5919
19.22	23.6578
19.304	23.5339
19.388	23.294
19.472	23.0876
19.556	22.9863
19.64	22.9639
19.724	22.9956
19.808	23.1106
19.892	23.3404
19.976	23.6705
20.06	24.0697
20.144	24.5013
20.228	24.8842
20.312	25.0802
20.396	24.9637
20.48	24.5383
20.564	23.9715
20.648	23.4832
20.732	23.2007
20.816	23.0939
20.9	23.0294
20.984	22.8934
21.068	22.6796
21.152	22.5027
21.236	22.4966
21.32	22.6703
21.404	22.8584
21.488	22.8422
21.572	22.5338
21.656	22.075
21.74	21.7432
21.824	21.7366
21.908	22.0071
21.992	22.3023
22.076	22.3515
22.16	22.0481
22.244	21.5127
22.328	20.9784
22.412	20.6632
22.496	20.666
22.58	20.9348
22.664	21.3176
22.748	21.6215
22.832	21.6935
22.916	21.4559
23	20.9796
23.084	20.4338
23.168	20.0344
23.252	19.9321
23.336	20.1581
23.42	20.5545
23.504	20.8703
23.588	20.8781
23.672	20.4895
23.756	19.8128
23.84	19.0509
23.924	18.4338
24.008	18.1422
24.092	18.2542
24.176	18.6995
24.26	19.2007
24.344	19.3017
24.428	18.6152
24.512	17.0231
24.596	14.8472
24.68	12.7657
24.764	11.5391
24.848	11.6118
24.932	13.0881
25.016	15.7002
25.1	18.8803
25.184	22.0368
25.268	24.8101
25.352	27.1301
25.436	28.9972
25.52	30.3765
25.604	31.1857
25.688	31.3518
25.772	30.9656
25.856	30.3366
25.94	29.497
26.024	28.4114
26.108	27.2365
26.192	26.459
26.276	26.6496
26.36	28.2137
26.444	30.9525
26.528	33.8807
26.612	35.519
26.696	34.0804
26.78	28.0476
26.864	16.8183
26.948	1.510348
27.028	-13.575