File: Bakgrunnsmateriale/MATLAB/FTIR/ftir_data/LPE454/Mapping_121/LPE454_t12.asc
PE IR       SPECTRUM    SPECTRUM    ASCII       PEDS        1.60
  -1
LPC794~1.ASC
17/05/19
15:20:41.00
17/05/19
15:21:07.00
tln
$LPE454_t0012$<tbV0>[13.0,-10.4,8.0,0.0,27,1,0]
27.028
64

2002,4.07
MIRTGS : RIGHTBACK : INTERNAL 2
MIR : ON : INTERNAL 2
OPTKBR

0.200000
8
8.000000
FILLER
RATIO
SPECTRUM
UNLOCKED 256

DOUBLE
64
COMBINED
1
0
0

0.002000
RATIO

1
0
TRUE
51149
0
LEFT NOT FITTED RIGHT NOT FITTED 0
NONE
NONE
15600
12
4.427000
51148
TRUE
1 0 8 72 0 0 0 0

15798

#HDR
-1
-1
#GR
µM
%T
2.38419e-05
0.0
2.000000
0.002000
12515
8
106.388
-6.155594
#DATA
2.000000	 -0.274085
2.084000	 0.331069
2.168000	 0.535565
2.252000	 0.251218
2.336000	 0.139405
2.420000	 0.121893
2.504000	 -0.225493
2.588000	 0.295558
2.672000	 0.168075
2.756000	 -0.038233
2.840000	 0.165667
2.924000	 0.132537
3.008000	 0.057411
3.092000	 0.123009
3.176000	 -0.014642
3.260000	 0.156031
3.344000	 0.105219
3.428000	 0.041895
3.512000	 0.088406
3.596000	 -0.005956
3.680000	 -0.093223
3.764000	 0.053458
3.848000	 0.070481
3.932000	 0.051993
4.016000	 0.020248
4.100000	 0.070797
4.184000	 0.120612
4.268000	 0.049586
4.352000	 0.135477
4.436000	 0.702942
4.520000	 1.879781
4.604000	 3.818986
4.688000	 6.509399
4.772000	 9.483840
4.856000	 12.7115
4.940000	 15.0039
5.024000	 17.1824
5.108000	 18.8987
5.192000	 20.0486
5.276000	 21.1679
5.359999	 21.9778
5.444000	 22.4737
5.528000	 22.9827
5.612000	 23.368
5.696000	 23.723
5.780000	 24.1596
5.864000	 24.2578
5.948000	 24.4423
6.032000	 24.728
6.116000	 24.811
6.200000	 24.8795
6.284000	 25.0655
6.368000	 25.2066
6.452000	 25.3863
6.536000	 25.4459
6.620000	 25.4006
6.704000	 25.2976
6.788000	 25.5275
6.872000	 25.5674
6.956000	 25.6233
7.040000	 25.4523
7.124000	 25.5856
7.208000	 25.6306
7.292000	 25.5972
7.376000	 25.5906
7.460000	 25.7688
7.544000	 25.6774
7.628000	 25.6633
7.712000	 25.5491
7.796000	 25.6315
7.880000	 25.6592
7.964000	 25.5895
8.048000	 25.6464
8.132000	 25.6811
8.216000	 25.6947
8.300000	 25.6887
8.384000	 25.6256
8.468000	 25.7199
8.552000	 25.5466
8.635999	 25.3635
8.719999	 25.3929
8.804000	 25.382
8.888000	 25.5407
8.972000	 25.4861
9.056000	 25.399
9.140000	 25.0954
9.224000	 25.288
9.308000	 25.4401
9.391999	 25.0862
9.475999	 25.2874
9.560000	 25.1927
9.644000	 25.2718
9.728000	 25.166
9.812000	 24.7323
9.896000	 24.5061
9.980000	 24.6407
10.064	24.7111
10.148	24.913
10.232	24.8652
10.316	24.5267
10.4	24.4473
10.484	24.391
10.568	24.3392
10.652	24.5892
10.736	24.5165
10.82	24.24
10.904	23.8764
10.988	23.988
11.072	24.2819
11.156	24.2069
11.24	23.8842
11.324	23.7577
11.408	23.6807
11.492	23.3385
11.576	23.2691
11.66	23.306
11.744	23.4392
11.828	23.3545
11.912	23.5348
11.996	23.3365
12.08	23.021
12.164	22.9436
12.248	22.9195
12.332	23.0688
12.416	23.1263
12.5	22.9844
12.584	22.8424
12.668	22.6616
12.752	22.4729
12.836	22.3121
12.92	22.1462
13.004	21.9069
13.088	22.0032
13.172	22.1125
13.256	21.9628
13.34	21.8292
13.424	21.8179
13.508	22.0032
13.592	22.0879
13.676	21.885
13.76	21.6373
13.844	21.501
13.928	21.4797
14.012	21.47
14.096	21.3262
14.18	21.2092
14.264	21.2001
14.348	21.2453
14.432	21.3002
14.516	21.2429
14.6	21.1043
14.684	21.0404
14.768	20.9853
14.852	20.8822
14.936	20.7728
15.02	20.6696
15.104	20.6376
15.188	20.619
15.272	20.504
15.356	20.4076
15.44	20.3678
15.524	20.2098
15.608	19.9143
15.692	19.5861
15.776	19.2579
15.86	19.0548
15.944	19.1505
16.028	19.4621
16.112	19.7144
16.196	19.7754
16.28	19.6893
16.364	19.527
16.448	19.4455
16.532	19.6023
16.616	19.8307
16.7	19.795
16.784	19.4957
16.868	19.1957
16.952	19.0244
17.036	18.9633
17.12	18.9939
17.204	19.0295
17.288	18.9036
17.372	18.6005
17.456	18.3475
17.54	18.3535
17.624	18.5488
17.708	18.6977
17.792	18.6779
17.876	18.5331
17.96	18.3395
18.044	18.1516
18.128	18.0396
18.212	18.0492
18.296	18.1353
18.38	18.2024
18.464	18.1812
18.548	18.054
18.632	17.8438
18.716	17.6134
18.8	17.4426
18.884	17.3841
18.968	17.4413
19.052	17.5771
19.136	17.7279
19.22	17.8163
19.304	17.7988
19.388	17.7024
19.472	17.5978
19.556	17.5194
19.64	17.4376
19.724	17.3231
19.808	17.2067
19.892	17.1367
19.976	17.1006
20.06	17.0145
20.144	16.8013
20.228	16.4661
20.312	16.1012
20.396	15.827
20.48	15.7298
20.564	15.8315
20.648	16.0818
20.732	16.3804
20.816	16.6267
20.9	16.7684
20.984	16.8233
21.068	16.8558
21.152	16.9369
21.236	17.1018
21.32	17.3383
21.404	17.5986
21.488	17.8348
21.572	18.031
21.656	18.2089
21.74	18.4018
21.824	18.6121
21.908	18.787
21.992	18.8446
22.076	18.7266
22.16	18.4369
22.244	18.0435
22.328	17.6175
22.412	17.1967
22.496	16.7793
22.58	16.3553
22.664	15.9555
22.748	15.6557
22.832	15.5135
22.916	15.5541
23	15.6793
23.084	15.7496
23.168	15.6629
23.252	15.4182
23.336	15.097
23.42	14.8018
23.504	14.5794
23.588	14.3983
23.672	14.1856
23.756	13.886
23.84	13.5636
23.924	13.3871
24.008	13.5489
24.092	14.2205
24.176	15.5576
24.26	17.7071
24.344	20.8155
24.428	24.8678
24.512	29.4509
24.596	33.8027
24.68	37.0141
24.764	38.3875
24.848	37.9006
24.932	36.0167
25.016	33.4087
25.1	30.6938
25.184	28.279
25.268	26.1965
25.352	24.1384
25.436	21.8019
25.52	19.1938
25.604	16.7001
25.688	14.8718
25.772	14.2905
25.856	15.4225
25.94	18.4527
26.024	23.2322
26.108	29.3134
26.192	35.6987
26.276	41.229
26.36	44.6007
26.444	46.0297
26.528	47.2959
26.612	51.4011
26.696	60.5153
26.78	74.621
26.864	90.3936
26.948	102.526
27.028	106.388