File: Bakgrunnsmateriale/MATLAB/FTIR/ftir_data/LPE454/Mapping_121/LPE454_e125.asc
PE IR       SPECTRUM    SPECTRUM    ASCII       PEDS        1.60
  -1
LP8705~1.ASC
17/05/19
19:50:42.00
17/05/19
19:51:08.00
tln
$LPE454_e0125$<ebV0>[-23.3,12.1,10.0,0.0,27,1,0]
27.028
64

2002,4.07
MIRTGS : RIGHTBACK : INTERNAL 2
MIR : ON : INTERNAL 2
OPTKBR

0.200000
8
8.000000
FILLER
SINGLE
SPECTRUM
UNLOCKED 256

DOUBLE

COMBINED
1
0
0

0.002000
BACKG

1
0
TRUE
51149
0
LEFT NOT FITTED RIGHT NOT FITTED 0
NONE
NONE
15600
12
4.427000
51148
TRUE
1 0 8 72 0 0 0 0

15798

#HDR
-1
-1
#GR
µM
EGY
2.38419e-05
0.0
2.000000
0.002000
12515
8
2.427364
0.005984
#DATA
2.000000	 0.772905
2.084000	 0.870173
2.168000	 0.917322
2.252000	 1.003738
2.336000	 1.145873
2.420000	 1.231602
2.504000	 1.388495
2.588000	 1.444493
2.672000	 1.541622
2.756000	 1.562915
2.840000	 1.617772
2.924000	 1.577502
3.008000	 1.674392
3.092000	 1.772052
3.176000	 1.800762
3.260000	 1.916078
3.344000	 2.018863
3.428000	 1.824982
3.512000	 1.992843
3.596000	 2.200489
3.680000	 2.237106
3.764000	 2.201572
3.848000	 2.206502
3.932000	 2.276493
4.016000	 2.307189
4.100000	 2.268170
4.184000	 2.228365
4.268000	 2.241155
4.352000	 2.314746
4.436000	 2.353162
4.520000	 2.343922
4.604000	 2.310349
4.688000	 2.308168
4.772000	 2.309111
4.856000	 2.355194
4.940000	 2.413822
5.024000	 2.425275
5.108000	 2.399898
5.192000	 2.371101
5.276000	 2.339958
5.359999	 2.347454
5.444000	 2.372593
5.528000	 2.396956
5.612000	 2.396346
5.696000	 2.364858
5.780000	 2.289031
5.864000	 2.250043
5.948000	 2.203910
6.032000	 2.157105
6.116000	 2.106237
6.200000	 1.976416
6.284000	 1.987274
6.368000	 1.951074
6.452000	 1.928196
6.536000	 2.066016
6.620000	 2.051325
6.704000	 1.665906
6.788000	 1.945560
6.872000	 1.764910
6.956000	 1.835926
7.040000	 1.829419
7.124000	 1.702388
7.208000	 1.764662
7.292000	 1.788008
7.376000	 1.793309
7.460000	 1.791179
7.544000	 1.823304
7.628000	 1.830103
7.712000	 1.830456
7.796000	 1.827224
7.880000	 1.752212
7.964000	 1.736998
8.048000	 1.811607
8.132000	 1.803172
8.216000	 1.762890
8.300000	 1.723993
8.384000	 1.722519
8.468000	 1.695252
8.552000	 1.656634
8.635999	 1.605270
8.719999	 1.585541
8.804000	 1.556902
8.888000	 1.509949
8.972000	 1.454998
9.056000	 1.418449
9.140000	 1.408796
9.224000	 1.415421
9.308000	 1.412733
9.391999	 1.422340
9.475999	 1.343426
9.560000	 1.313561
9.644000	 1.371358
9.728000	 1.354320
9.812000	 1.343351
9.896000	 1.364894
9.980000	 1.380940
10.064	1.381253
10.148	1.367690
10.232	1.351997
10.316	1.332442
10.4	1.305702
10.484	1.278623
10.568	1.256956
10.652	1.243028
10.736	1.228111
10.82	1.210981
10.904	1.190155
10.988	1.162584
11.072	1.145595
11.156	1.136915
11.24	1.117040
11.324	1.066689
11.408	1.022492
11.492	1.037990
11.576	1.072413
11.66	1.081777
11.744	1.077085
11.828	1.065446
11.912	1.042683
11.996	0.979589
12.08	0.871762
12.164	0.843290
12.248	0.903821
12.332	0.933508
12.416	0.934470
12.5	0.933432
12.584	0.941602
12.668	0.956976
12.752	0.967644
12.836	0.969588
12.92	0.967164
13.004	0.963133
13.088	0.957584
13.172	0.951544
13.256	0.945608
13.34	0.940312
13.424	0.933915
13.508	0.924535
13.592	0.914578
13.676	0.904118
13.76	0.891263
13.844	0.877179
13.928	0.864686
14.012	0.853412
14.096	0.840558
14.18	0.826010
14.264	0.809855
14.348	0.789434
14.432	0.760616
14.516	0.732220
14.6	0.722310
14.684	0.725972
14.768	0.725805
14.852	0.718996
14.936	0.709666
15.02	0.700071
15.104	0.691485
15.188	0.683568
15.272	0.675189
15.356	0.665898
15.44	0.656524
15.524	0.647577
15.608	0.638650
15.692	0.629667
15.776	0.620769
15.86	0.611677
15.944	0.602422
16.028	0.593737
16.112	0.585242
16.196	0.575079
16.28	0.561802
16.364	0.545888
16.448	0.530886
16.532	0.521897
16.616	0.519952
16.7	0.520428
16.784	0.518471
16.868	0.513711
16.952	0.508351
17.036	0.503839
17.12	0.500184
17.204	0.497347
17.288	0.495319
17.372	0.493710
17.456	0.491513
17.54	0.488214
17.624	0.484289
17.708	0.480457
17.792	0.477020
17.876	0.473496
17.96	0.469516
18.044	0.465140
18.128	0.460732
18.212	0.456322
18.296	0.451675
18.38	0.446812
18.464	0.442104
18.548	0.437678
18.632	0.433241
18.716	0.428438
18.8	0.423085
18.884	0.417257
18.968	0.411256
19.052	0.405599
19.136	0.400447
19.22	0.395552
19.304	0.390497
19.388	0.385170
19.472	0.379992
19.556	0.375244
19.64	0.370608
19.724	0.365415
19.808	0.359229
19.892	0.352310
19.976	0.345191
20.06	0.338095
20.144	0.330949
20.228	0.323517
20.312	0.315933
20.396	0.308393
20.48	0.301210
20.564	0.294430
20.648	0.287875
20.732	0.281348
20.816	0.274799
20.9	0.268323
20.984	0.262100
21.068	0.256166
21.152	0.250449
21.236	0.244782
21.32	0.238984
21.404	0.233050
21.488	0.227017
21.572	0.220933
21.656	0.214820
21.74	0.208574
21.824	0.202066
21.908	0.195438
21.992	0.188850
22.076	0.182633
22.16	0.177001
22.244	0.171986
22.328	0.167455
22.412	0.163216
22.496	0.159034
22.58	0.154905
22.664	0.150665
22.748	0.146266
22.832	0.141711
22.916	0.136981
23	0.132096
23.084	0.127079
23.168	0.121936
23.252	0.116726
23.336	0.111628
23.42	0.106791
23.504	0.102292
23.588	0.098125
23.672	0.094116
23.756	0.090093
23.84	0.085896
23.924	0.081389
24.008	0.076626
24.092	0.071689
24.176	0.066700
24.26	0.061840
24.344	0.057276
24.428	0.053157
24.512	0.049576
24.596	0.046605
24.68	0.044180
24.764	0.042234
24.848	0.040578
24.932	0.039146
25.016	0.037788
25.1	0.036347
25.184	0.034764
25.268	0.032976
25.352	0.030907
25.436	0.028676
25.52	0.026276
25.604	0.023883
25.688	0.021682
25.772	0.019742
25.856	0.018142
25.94	0.016817
26.024	0.015749
26.108	0.014800
26.192	0.013888
26.276	0.012958
26.36	0.012005
26.444	0.010985
26.528	0.009931
26.612	0.008949
26.696	0.008073
26.78	0.007315
26.864	0.006689
26.948	0.006271
27.028	0.005984