File: Bakgrunnsmateriale/MATLAB/FTIR/ftir_data/LPE454/Mapping_121/LPE454_t119_cm-1.asc
PE IR       SPECTRUM    SPECTRUM    ASCII       PEDS        1.60
  -1
LP0C58~1.ASC
17/05/20
00:24:25.00
17/05/20
00:24:25.00
tln
$LPE454_t0119$<tbV0>[-7.8,13.0,8.0,0.0,27,1,0]
370
64

2002,4.07
MIRTGS : RIGHTBACK : INTERNAL 2
MIR : ON : INTERNAL 2
OPTKBR

0.200000
8
8.000000
FILLER
RATIO
SPECTRUM
UNLOCKED 256

DOUBLE
64
COMBINED
1
0
0

1.000000
RATIO

1
0
TRUE
51149
0
LEFT NOT FITTED RIGHT NOT FITTED 0
NONE
NONE
15600
12
4.427000
51148
TRUE
1 0 8 72 0 0 0 0

15798

#HDR
-1
-1
#GR
CM-1
%T
2.38419e-05
0.0
5000
-1.000000
4631
8
40.3521
-3.536438
#DATA
5000	0.004339
4984	0.385785
4968	0.145077
4952	0.642299
4936	0.144886
4920	0.451016
4904	0.168609
4888	0.801897
4872	0.388336
4856	0.344157
4840	0.432634
4824	0.503230
4808	0.251674
4792	0.136065
4776	-0.124692
4760	0.079798
4744	0.293540
4728	0.446438
4712	0.821971
4696	0.823235
4680	0.723767
4664	0.192022
4648	-0.883412
4632	-1.923274
4616	-2.792620
4600	-3.080010
4584	10.1761
4568	7.329702
4552	0.277900
4536	-0.120830
4520	-0.926685
4504	-0.477957
4488	-0.733423
4472	0.237488
4456	0.553703
4440	0.984406
4424	0.621247
4408	0.412154
4392	0.432825
4376	0.442886
4360	0.168275
4344	-0.107169
4328	-0.150966
4312	0.129747
4296	-0.159049
4280	0.168466
4264	0.295472
4248	0.340151
4232	0.217938
4216	0.345325
4200	0.105977
4184	-0.058031
4168	0.564599
4152	-0.015807
4136	-0.285935
4120	0.400090
4104	0.144624
4088	0.780725
4072	-0.153517
4056	0.014925
4040	0.204277
4024	-0.100159
4008	0.048899
3992	0.363755
3976	0.245571
3960	0.056290
3944	0.106024
3928	0.086736
3912	0.091910
3896	0.052833
3880	-0.267648
3864	0.203466
3848	-0.045371
3832	-0.119662
3816	0.143814
3800	0.226736
3784	0.082349
3768	0.240230
3752	0.094771
3736	0.015449
3720	0.193810
3704	-0.088119
3688	-0.103592
3672	0.030899
3656	0.055789
3640	-0.017213
3624	0.110435
3608	-0.037145
3592	0.096607
3576	-0.050544
3560	0.020146
3544	0.076270
3528	0.093984
3512	0.113797
3496	-0.044107
3480	0.126051
3464	0.072598
3448	-0.035834
3432	-0.014376
3416	0.001168
3400	-0.002264
3384	-0.035095
3368	-0.019407
3352	0.120258
3336	0.015115
3320	0.009226
3304	0.118947
3288	0.092411
3272	0.116205
3256	0.088024
3240	0.117945
3224	-0.074505
3208	0.071907
3192	0.055074
3176	0.052189
3160	-0.031328
3144	0.149679
3128	0.179362
3112	-0.017261
3096	-0.082874
3080	0.001239
3064	0.104856
3048	0.018024
3032	0.034117
3016	0.038194
3000	0.061821
2984	-0.093460
2968	0.138688
2952	0.034713
2936	-0.073838
2920	0.028586
2904	-0.046038
2888	0.038290
2872	0.063300
2856	0.176978
2840	0.056934
2824	-0.024485
2808	-0.016188
2792	0.059700
2776	0.060224
2760	0.035881
2744	0.047087
2728	0.054478
2712	0.078916
2696	-0.009274
2680	0.108385
2664	0.039529
2648	0.043606
2632	0.038003
2616	0.038409
2600	0.044059
2584	0.035214
2568	0.035405
2552	0.078392
2536	0.042915
2520	0.079274
2504	0.238776
2488	0.056052
2472	0.026035
2456	-0.011324
2440	-0.009679
2424	-0.082850
2408	0.123071
2392	0.032377
2376	0.063633
2360	0.255918
2344	0.298285
2328	0.426077
2312	0.626754
2296	0.846076
2280	1.285791
2264	1.814961
2248	2.443647
2232	3.081488
2216	4.224753
2200	5.266523
2184	6.477499
2168	7.843422
2152	9.496521
2136	11.0556
2120	12.7471
2104	14.4814
2088	15.9947
2072	17.573
2056	19.066
2040	20.3763
2024	21.5756
2008	22.6443
1992	23.544
1976	24.698
1960	25.3136
1944	26.0431
1928	26.7289
1912	27.435
1896	27.7889
1880	28.2122
1864	28.618
1848	28.9874
1832	29.2405
1816	29.5263
1800	29.7938
1784	29.918
1768	29.9735
1752	30.2227
1736	30.307
1720	30.3139
1704	30.5102
1688	30.6635
1672	30.8876
1656	30.6355
1640	30.7099
1624	30.8367
1608	30.874
1592	30.7294
1576	30.943
1560	31.059
1544	30.9696
1528	30.8933
1512	31.091
1496	31.2157
1480	31.1353
1464	30.971
1448	31.2235
1432	31.0775
1416	31.0698
1400	30.9576
1384	31.2371
1368	31.2745
1352	31.0281
1336	30.984
1320	31.3753
1304	31.1826
1288	31.0576
1272	31.1705
1256	31.339
1240	31.1207
1224	30.9453
1208	31.1696
1192	31.3134
1176	31.0283
1160	30.7963
1144	31.2293
1128	31.3082
1112	30.8315
1096	30.5609
1080	31.0006
1064	31.0565
1048	30.6078
1032	30.6541
1016	31.1216
1000	31.0067
984	 30.482
968	 30.5614
952	 30.6535
936	 30.4975
920	 29.8563
904	 30.1823
888	 30.4714
872	 30.0733
856	 29.7302
840	 29.557
824	 29.8929
808	 29.5837
792	 29.0821
776	 29.2329
760	 29.1171
744	 29.0781
728	 28.1617
712	 28.739
696	 28.6781
680	 27.7545
664	 27.6749
648	 28.0063
632	 27.8139
616	 26.9198
600	 26.7092
584	 26.7274
568	 26.4182
552	 26.0819
536	 25.4974
520	 24.8783
504	 25.9205
488	 24.6899
472	 22.6891
456	 25.551
440	 23.5539
424	 25.8357
408	 21.0676
392	 38.8123
376	 3.426027
370	 8.616161