File: Bakgrunnsmateriale/MATLAB/FTIR/ftir_data/LPE454/Mapping_121/LPE454_t17_cm-1.asc
PE IR       SPECTRUM    SPECTRUM    ASCII       PEDS        1.60
  -1
LPE73A~1.ASC
17/05/19
15:43:44.00
17/05/19
15:43:44.00
tln
$LPE454_t0017$<tbV0>[0.0,-10.4,8.0,0.0,27,1,0]
370
64

2002,4.07
MIRTGS : RIGHTBACK : INTERNAL 2
MIR : ON : INTERNAL 2
OPTKBR

0.200000
8
8.000000
FILLER
RATIO
SPECTRUM
UNLOCKED 256

DOUBLE
64
COMBINED
1
0
0

1.000000
RATIO

1
0
TRUE
51149
0
LEFT NOT FITTED RIGHT NOT FITTED 0
NONE
NONE
15600
12
4.427000
51148
TRUE
1 0 8 72 0 0 0 0

15798

#HDR
-1
-1
#GR
CM-1
%T
2.38419e-05
0.0
5000
-1.000000
4631
8
45.5484
-3.416442
#DATA
5000	0.143122
4984	0.887823
4968	-0.230669
4952	-0.039744
4936	-0.017881
4920	0.103712
4904	0.157856
4888	0.042819
4872	0.862836
4856	0.106215
4840	-0.063514
4824	0.658082
4808	0.187492
4792	0.207757
4776	-0.111699
4760	0.254631
4744	0.065946
4728	-0.065779
4712	0.052285
4696	-0.287199
4680	-0.671172
4664	1.575660
4648	-0.299024
4632	0.307464
4616	0.193762
4600	-0.721263
4584	-0.081634
4568	-0.048828
4552	-0.353097
4536	0.086808
4520	0.090265
4504	0.884532
4488	4.938459
4472	-0.917553
4456	-0.354433
4440	-0.384759
4424	-0.391387
4408	-0.019478
4392	0.000119
4376	0.051665
4360	0.344157
4344	0.118303
4328	-0.106430
4312	0.220036
4296	-0.021052
4280	0.036406
4264	0.141787
4248	0.442504
4232	-0.024199
4216	0.364899
4200	-0.267267
4184	0.325536
4168	0.143814
4152	0.194168
4136	0.121569
4120	0.060343
4104	0.043010
4088	-0.026631
4072	0.111413
4056	0.207328
4040	-0.137877
4024	-0.178670
4008	0.093078
3992	0.027251
3976	-0.089073
3960	0.126743
3944	-0.111246
3928	0.121974
3912	0.264811
3896	0.073909
3880	0.216054
3864	-0.002861
3848	-0.088787
3832	0.074434
3816	-0.105595
3800	0.258207
3784	0.103425
3768	0.000047
3752	0.120019
3736	0.119328
3720	-0.029206
3704	0.146961
3688	-0.029587
3672	-0.080108
3656	0.059342
3640	-0.116920
3624	0.112342
3608	0.146889
3592	0.096344
3576	0.121283
3560	-0.087285
3544	-0.133681
3528	0.022149
3512	0.004506
3496	0.037598
3480	0.112390
3464	0.233769
3448	0.099563
3432	-0.197172
3416	0.067353
3400	0.241327
3384	-0.030279
3368	-0.081133
3352	-0.066518
3336	0.050401
3320	0.028896
3304	0.054812
3288	0.095009
3272	-0.010824
3256	0.026321
3240	0.109815
3224	0.013184
3208	-0.120878
3192	0.023317
3176	-0.056266
3160	0.067305
3144	-0.016021
3128	0.130271
3112	0.043344
3096	-0.119495
3080	-0.095510
3064	0.080227
3048	0.125265
3032	0.014281
3016	-0.006175
3000	-0.058722
2984	0.044989
2968	0.152635
2952	-0.005006
2936	0.062417
2920	0.041413
2904	-0.013399
2888	-0.067806
2872	0.107789
2856	0.130844
2840	-0.034189
2824	-0.038886
2808	0.112390
2792	-0.127029
2776	-0.009703
2760	0.006914
2744	0.015163
2728	0.042748
2712	0.134849
2696	0.123667
2680	0.016260
2664	0.141835
2648	-0.022625
2632	0.010752
2616	-0.053524
2600	0.076580
2584	-0.000166
2568	0.027465
2552	-0.093555
2536	0.083088
2520	0.136232
2504	0.293183
2488	0.002264
2472	0.081038
2456	0.047230
2440	0.084066
2424	0.217843
2408	-0.051546
2392	-0.061297
2376	0.091981
2360	0.049304
2344	0.116872
2328	0.271606
2312	0.231885
2296	0.241184
2280	0.506305
2264	0.732851
2248	1.112461
2232	1.528859
2216	2.154016
2200	3.129720
2184	4.110646
2168	5.169010
2152	6.878280
2136	8.460545
2120	10.2133
2104	11.8168
2088	13.4991
2072	15.3592
2056	16.9311
2040	18.5861
2024	20.0937
2008	21.4329
1992	22.6006
1976	23.7581
1960	24.7103
1944	25.5349
1928	26.241
1912	26.9604
1896	27.4478
1880	28.0768
1864	28.4107
1848	28.7693
1832	29.0598
1816	29.2813
1800	29.6119
1784	29.6985
1768	29.8678
1752	30.0441
1736	30.2575
1720	30.2771
1704	30.2938
1688	30.5085
1672	30.505
1656	30.5853
1640	30.5072
1624	30.4762
1608	30.5337
1592	30.5023
1576	30.6133
1560	30.6374
1544	30.7019
1528	30.6373
1512	30.7572
1496	30.5135
1480	30.4728
1464	30.2431
1448	30.3426
1432	30.4757
1416	30.4177
1400	30.3891
1384	30.4922
1368	30.1626
1352	30.2084
1336	30.4612
1320	30.2069
1304	30.0681
1288	30.0736
1272	29.9314
1256	30.0267
1240	30.0578
1224	29.9541
1208	29.9358
1192	29.8345
1176	29.7179
1160	29.6539
1144	29.6251
1128	29.6544
1112	29.5366
1096	29.4342
1080	29.1502
1064	29.2153
1048	29.1262
1032	28.9273
1016	28.5785
1000	28.4606
984	 28.6813
968	 28.3877
952	 28.1076
936	 28.2351
920	 27.8103
904	 27.5312
888	 27.6665
872	 27.5681
856	 27.0282
840	 27.2438
824	 26.6926
808	 26.3926
792	 26.2832
776	 26.0103
760	 25.4612
744	 25.5849
728	 25.4754
712	 24.652
696	 24.2068
680	 24.0929
664	 23.786
648	 23.6744
632	 22.9548
616	 22.9733
600	 22.2
584	 22.0395
568	 21.4973
552	 20.7918
536	 21.3121
520	 19.6418
504	 19.7986
488	 19.5987
472	 18.0846
456	 15.8651
440	 18.4991
424	 13.968
408	 11.0708
392	 -2.310228
376	 40.0525
370	 40.6934