File: Bakgrunnsmateriale/MATLAB/FTIR/ftir_data/LPE454/Mapping_121/LPE454_t104_cm-1.asc
PE IR       SPECTRUM    SPECTRUM    ASCII       PEDS        1.60
  -1
LP07DC~1.ASC
17/05/19
22:54:34.00
17/05/19
22:54:34.00
tln
$LPE454_t0104$<tbV0>[2.6,10.4,8.0,0.0,27,1,0]
370
64

2002,4.07
MIRTGS : RIGHTBACK : INTERNAL 2
MIR : ON : INTERNAL 2
OPTKBR

0.200000
8
8.000000
FILLER
RATIO
SPECTRUM
UNLOCKED 256

DOUBLE
64
COMBINED
1
0
0

1.000000
RATIO

1
0
TRUE
51149
0
LEFT NOT FITTED RIGHT NOT FITTED 0
NONE
NONE
15600
12
4.427000
51148
TRUE
1 0 8 72 0 0 0 0

15798

#HDR
-1
-1
#GR
CM-1
%T
2.38419e-05
0.0
5000
-1.000000
4631
8
40.5443
-53.4773
#DATA
5000	0.268959
4984	-0.144529
4968	0.103735
4952	0.027132
4936	0.255608
4920	-0.098609
4904	-0.100564
4888	0.034523
4872	0.098729
4856	0.189089
4840	-0.087165
4824	0.198149
4808	0.298547
4792	0.439667
4776	0.126719
4760	0.209712
4744	-0.103616
4728	0.153207
4712	-0.318264
4696	-0.117540
4680	0.321483
4664	0.037646
4648	0.253105
4632	-0.061440
4616	0.335979
4600	-1.957845
4584	17.0984
4568	-2.434086
4552	-1.009202
4536	0.171685
4520	-0.061559
4504	0.320839
4488	0.328636
4472	0.299978
4456	-0.203418
4440	-0.217843
4424	0.066566
4408	-0.110268
4392	0.089001
4376	0.077581
4360	0.227737
4344	0.047469
4328	0.224447
4312	0.051617
4296	0.071406
4280	0.122189
4264	-0.100159
4248	0.094199
4232	0.281620
4216	-0.010085
4200	0.275373
4184	0.179171
4168	0.175309
4152	-0.013899
4136	-0.326323
4120	-0.162339
4104	0.600290
4088	0.336956
4072	-0.284028
4056	0.174713
4040	0.383853
4024	0.096607
4008	0.568890
3992	0.191807
3976	0.114011
3960	0.235557
3944	-0.052857
3928	-0.026774
3912	-0.016188
3896	-0.078701
3880	-0.035953
3864	0.043678
3848	0.093293
3832	0.231313
3816	0.067448
3800	-0.046253
3784	0.014805
3768	0.065803
3752	0.247406
3736	0.078248
3720	-0.035357
3704	0.151228
3688	0.002026
3672	0.116086
3656	0.057148
3640	0.171184
3624	0.043797
3608	-0.006580
3592	-0.033426
3576	0.180482
3560	0.096178
3544	0.039291
3528	0.085711
3512	-0.008487
3496	0.045466
3480	0.046133
3464	-0.058937
3448	0.037860
3432	0.072741
3416	0.126743
3400	0.038695
3384	0.008845
3368	-0.003242
3352	0.227808
3336	0.102233
3320	-0.129818
3304	0.133728
3288	0.031328
3272	0.073671
3256	-0.065994
3240	0.045871
3224	0.138521
3208	0.202155
3192	0.089550
3176	0.179338
3160	0.069117
3144	-0.048160
3128	0.091052
3112	-0.095009
3096	0.088691
3080	-0.009536
3064	-0.001645
3048	0.135278
3032	0.057625
3016	-0.009417
3000	0.021743
2984	-0.095844
2968	-0.019764
2952	-0.041341
2936	0.043153
2920	0.063967
2904	0.032615
2888	0.054144
2872	-0.018167
2856	0.019955
2840	0.120282
2824	-0.037288
2808	0.119066
2792	0.015377
2776	0.023484
2760	0.015640
2744	0.069236
2728	0.114989
2712	-0.124979
2696	-0.006508
2680	0.017929
2664	0.155019
2648	0.063061
2632	0.037384
2616	-0.092673
2600	0.079059
2584	0.027036
2568	-0.034284
2552	0.025248
2536	0.095152
2520	-0.022268
2504	0.090241
2488	0.139808
2472	0.006890
2456	0.190782
2440	0.012040
2424	0.028133
2408	0.227165
2392	0.126981
2376	0.246787
2360	0.233387
2344	0.383043
2328	0.538682
2312	0.879240
2296	1.204895
2280	1.691293
2264	2.303552
2248	3.162741
2232	4.081106
2216	5.327963
2200	6.860041
2184	8.440804
2168	10.3806
2152	12.4298
2136	14.2781
2120	16.2848
2104	18.3745
2088	20.5096
2072	22.2693
2056	24.0086
2040	25.614
2024	26.9442
2008	28.2398
1992	29.452
1976	30.3175
1960	31.0988
1944	32.0096
1928	32.7408
1912	33.1651
1896	33.69
1880	34.0966
1864	34.5048
1848	34.7339
1832	34.9036
1816	35.1608
1800	35.4219
1784	35.4605
1768	35.6041
1752	35.8542
1736	35.9514
1720	36.1588
1704	36.1027
1688	36.3558
1672	36.1633
1656	36.2859
1640	36.3424
1624	36.4737
1608	36.3472
1592	36.3535
1576	36.4435
1560	36.5218
1544	36.3953
1528	36.411
1512	36.5971
1496	36.5206
1480	36.3919
1464	36.5587
1448	36.3724
1432	36.539
1416	36.4107
1400	36.2641
1384	36.5935
1368	36.46
1352	36.2386
1336	36.4415
1320	36.5351
1304	36.3256
1288	36.2416
1272	36.3906
1256	36.5322
1240	36.1216
1224	36.0795
1208	36.2125
1192	36.3723
1176	35.9491
1160	36.0435
1144	36.142
1128	36.1422
1112	35.9755
1096	35.9757
1080	35.9498
1064	35.957
1048	35.3803
1032	35.4844
1016	35.709
1000	35.4954
984	 34.9853
968	 35.0432
952	 35.0513
936	 35.0109
920	 34.616
904	 34.3947
888	 34.6564
872	 34.008
856	 33.5889
840	 33.7978
824	 33.9858
808	 33.5048
792	 32.6921
776	 33.1345
760	 33.1322
744	 32.5476
728	 31.4564
712	 32.3035
696	 32.1627
680	 31.2989
664	 30.7338
648	 31.0943
632	 30.7702
616	 29.8815
600	 29.5327
584	 29.1864
568	 29.1127
552	 28.0825
536	 28.7363
520	 28.4792
504	 26.3096
488	 25.2931
472	 26.4712
456	 27.3126
440	 25.937
424	 24.9456
408	 30.0808
392	 40.0089
376	 19.6503
370	 -53.4773