File: Bakgrunnsmateriale/MATLAB/FTIR/ftir_data/LPE454/Mapping_121/LPE454_e124.asc
PE IR       SPECTRUM    SPECTRUM    ASCII       PEDS        1.60
  -1
LP8305~1.ASC
17/05/19
18:01:49.00
17/05/19
18:02:15.00
tln
$LPE454_e0124$<ebV0>[-23.3,12.1,10.0,0.0,27,1,0]
27.028
64

2002,4.07
MIRTGS : RIGHTBACK : INTERNAL 2
MIR : ON : INTERNAL 2
OPTKBR

0.200000
8
8.000000
FILLER
SINGLE
SPECTRUM
UNLOCKED 256

DOUBLE

COMBINED
1
0
0

0.002000
BACKG

1
0
TRUE
51149
0
LEFT NOT FITTED RIGHT NOT FITTED 0
NONE
NONE
15600
12
4.427000
51148
TRUE
1 0 8 72 0 0 0 0

15798

#HDR
-1
-1
#GR
µM
EGY
2.38419e-05
0.0
2.000000
0.002000
12515
8
2.427470
0.008276
#DATA
2.000000	 0.774312
2.084000	 0.868759
2.168000	 0.928672
2.252000	 1.009936
2.336000	 1.134878
2.420000	 1.234262
2.504000	 1.390182
2.588000	 1.444779
2.672000	 1.542842
2.756000	 1.566818
2.840000	 1.615334
2.924000	 1.576750
3.008000	 1.676146
3.092000	 1.771332
3.176000	 1.799024
3.260000	 1.915844
3.344000	 2.013982
3.428000	 1.824551
3.512000	 1.996073
3.596000	 2.196166
3.680000	 2.235647
3.764000	 2.203859
3.848000	 2.205805
3.932000	 2.273173
4.016000	 2.305231
4.100000	 2.268152
4.184000	 2.226696
4.268000	 2.238788
4.352000	 2.317478
4.436000	 2.353003
4.520000	 2.343931
4.604000	 2.312392
4.688000	 2.306101
4.772000	 2.307471
4.856000	 2.353061
4.940000	 2.408909
5.024000	 2.424719
5.108000	 2.397697
5.192000	 2.367629
5.276000	 2.339089
5.359999	 2.345189
5.444000	 2.367195
5.528000	 2.395098
5.612000	 2.394291
5.696000	 2.362523
5.780000	 2.290678
5.864000	 2.247889
5.948000	 2.202508
6.032000	 2.153705
6.116000	 2.107035
6.200000	 1.975697
6.284000	 1.985152
6.368000	 1.947494
6.452000	 1.926474
6.536000	 2.065469
6.620000	 2.047562
6.704000	 1.664535
6.788000	 1.942650
6.872000	 1.764122
6.956000	 1.832609
7.040000	 1.828664
7.124000	 1.703030
7.208000	 1.760816
7.292000	 1.789687
7.376000	 1.792139
7.460000	 1.789782
7.544000	 1.821871
7.628000	 1.829621
7.712000	 1.831181
7.796000	 1.824952
7.880000	 1.750731
7.964000	 1.737843
8.048000	 1.810064
8.132000	 1.801860
8.216000	 1.763690
8.300000	 1.720783
8.384000	 1.719522
8.468000	 1.694000
8.552000	 1.654346
8.635999	 1.604017
8.719999	 1.584421
8.804000	 1.553740
8.888000	 1.506925
8.972000	 1.452455
9.056000	 1.416640
9.140000	 1.408472
9.224000	 1.410408
9.308000	 1.410968
9.391999	 1.421152
9.475999	 1.342197
9.560000	 1.311487
9.644000	 1.369352
9.728000	 1.353399
9.812000	 1.345939
9.896000	 1.363453
9.980000	 1.378985
10.064	1.380931
10.148	1.369772
10.232	1.353593
10.316	1.331384
10.4	1.303114
10.484	1.275193
10.568	1.252743
10.652	1.242295
10.736	1.227410
10.82	1.210543
10.904	1.190736
10.988	1.164432
11.072	1.147078
11.156	1.134158
11.24	1.113653
11.324	1.063302
11.408	1.021395
11.492	1.034356
11.576	1.068361
11.66	1.078923
11.744	1.073151
11.828	1.064102
11.912	1.045207
11.996	0.982599
12.08	0.871061
12.164	0.839024
12.248	0.901293
12.332	0.935014
12.416	0.937163
12.5	0.935101
12.584	0.942622
12.668	0.956881
12.752	0.967680
12.836	0.968918
12.92	0.964803
13.004	0.961657
13.088	0.958043
13.172	0.953519
13.256	0.949366
13.34	0.942164
13.424	0.932561
13.508	0.924272
13.592	0.916581
13.676	0.905097
13.76	0.890695
13.844	0.876501
13.928	0.863752
14.012	0.851536
14.096	0.838366
14.18	0.824560
14.264	0.808304
14.348	0.785332
14.432	0.755594
14.516	0.730366
14.6	0.723287
14.684	0.727213
14.768	0.726624
14.852	0.719725
14.936	0.710601
15.02	0.701880
15.104	0.694262
15.188	0.686437
15.272	0.677384
15.356	0.667011
15.44	0.656475
15.524	0.646795
15.608	0.637277
15.692	0.627597
15.776	0.618573
15.86	0.610685
15.944	0.603203
16.028	0.595060
16.112	0.585726
16.196	0.575082
16.28	0.561779
16.364	0.544997
16.448	0.528612
16.532	0.518833
16.616	0.516706
16.7	0.517230
16.784	0.516078
16.868	0.512939
16.952	0.508857
17.036	0.504961
17.12	0.502105
17.204	0.499945
17.288	0.497101
17.372	0.493310
17.456	0.489643
17.54	0.486669
17.624	0.483750
17.708	0.480221
17.792	0.476175
17.876	0.472110
17.96	0.468208
18.044	0.464131
18.128	0.459600
18.212	0.454672
18.296	0.449641
18.38	0.444961
18.464	0.440869
18.548	0.437010
18.632	0.432922
18.716	0.428110
18.8	0.422757
18.884	0.417232
18.968	0.411638
19.052	0.406071
19.136	0.400586
19.22	0.395252
19.304	0.390160
19.388	0.385294
19.472	0.380454
19.556	0.375497
19.64	0.370225
19.724	0.364604
19.808	0.358512
19.892	0.351987
19.976	0.345087
20.06	0.337960
20.144	0.330949
20.228	0.324169
20.312	0.317801
20.396	0.311520
20.48	0.305180
20.564	0.298512
20.648	0.291473
20.732	0.284167
20.816	0.276808
20.9	0.269541
20.984	0.262535
21.068	0.255906
21.152	0.249818
21.236	0.244381
21.32	0.239388
21.404	0.234679
21.488	0.229864
21.572	0.224656
21.656	0.219007
21.74	0.212841
21.824	0.206200
21.908	0.199162
21.992	0.191975
22.076	0.185009
22.16	0.178630
22.244	0.173153
22.328	0.168642
22.412	0.164842
22.496	0.161301
22.58	0.157588
22.664	0.153204
22.748	0.148202
22.832	0.142725
22.916	0.137134
23	0.131780
23.084	0.126881
23.168	0.122385
23.252	0.118204
23.336	0.114081
23.42	0.109821
23.504	0.105256
23.588	0.100505
23.672	0.095550
23.756	0.090588
23.84	0.085738
23.924	0.081079
24.008	0.076650
24.092	0.072451
24.176	0.068595
24.26	0.065040
24.344	0.061804
24.428	0.058688
24.512	0.055637
24.596	0.052510
24.68	0.049290
24.764	0.046111
24.848	0.043128
24.932	0.040504
25.016	0.038212
25.1	0.036228
25.184	0.034415
25.268	0.032524
25.352	0.030538
25.436	0.028421
25.52	0.026210
25.604	0.024087
25.688	0.022129
25.772	0.020407
25.856	0.018889
25.94	0.017502
26.024	0.016159
26.108	0.014808
26.192	0.013432
26.276	0.012057
26.36	0.010782
26.444	0.009707
26.528	0.008895
26.612	0.008444
26.696	0.008276
26.78	0.008344
26.864	0.008500
26.948	0.008649
27.028	0.008630