File: Bakgrunnsmateriale/MATLAB/FTIR/ftir_data/LPE454/Mapping_121/LPE454_t109.asc
PE IR       SPECTRUM    SPECTRUM    ASCII       PEDS        1.60
  -1
LP9718~1.ASC
17/05/19
23:17:37.00
17/05/19
23:18:03.00
tln
$LPE454_t0109$<tbV0>[-10.4,10.4,8.0,0.0,27,1,0]
27.028
64

2002,4.07
MIRTGS : RIGHTBACK : INTERNAL 2
MIR : ON : INTERNAL 2
OPTKBR

0.200000
8
8.000000
FILLER
RATIO
SPECTRUM
UNLOCKED 256

DOUBLE
64
COMBINED
1
0
0

0.002000
RATIO

1
0
TRUE
51149
0
LEFT NOT FITTED RIGHT NOT FITTED 0
NONE
NONE
15600
12
4.427000
51148
TRUE
1 0 8 72 0 0 0 0

15798

#HDR
-1
-1
#GR
µM
%T
2.38419e-05
0.0
2.000000
0.002000
12515
8
56.8183
-20.7091
#DATA
2.000000	 0.645756
2.084000	 -0.150512
2.168000	 -0.096456
2.252000	 0.573963
2.336000	 0.271993
2.420000	 0.352511
2.504000	 0.246557
2.588000	 0.036747
2.672000	 -0.085312
2.756000	 0.120510
2.840000	 -0.066051
2.924000	 -0.011821
3.008000	 -0.043956
3.092000	 0.020043
3.176000	 0.163154
3.260000	 -0.000376
3.344000	 -0.067528
3.428000	 0.113305
3.512000	 -0.056101
3.596000	 0.010267
3.680000	 0.022090
3.764000	 0.039111
3.848000	 0.056110
3.932000	 -0.088495
4.016000	 0.017479
4.100000	 0.031386
4.184000	 0.070754
4.268000	 0.435754
4.352000	 0.995982
4.436000	 2.444518
4.520000	 4.689260
4.604000	 8.190989
4.688000	 12.1315
4.772000	 15.8877
4.856000	 19.6244
4.940000	 22.0691
5.024000	 24.1559
5.108000	 25.6839
5.192000	 26.6372
5.276000	 27.6403
5.359999	 27.865
5.444000	 28.4417
5.528000	 28.6062
5.612000	 28.8603
5.696000	 29.1055
5.780000	 28.8652
5.864000	 29.2044
5.948000	 28.9955
6.032000	 29.0406
6.116000	 29.2015
6.200000	 28.778
6.284000	 28.9868
6.368000	 29.3339
6.452000	 28.8042
6.536000	 29.0686
6.620000	 29.2983
6.704000	 28.788
6.788000	 28.7827
6.872000	 29.3447
6.956000	 28.8712
7.040000	 28.4778
7.124000	 28.7905
7.208000	 29.0999
7.292000	 28.6193
7.376000	 28.0987
7.460000	 28.5969
7.544000	 29.0141
7.628000	 28.6195
7.712000	 28.2614
7.796000	 28.0871
7.880000	 28.6483
7.964000	 28.7859
8.048000	 28.3668
8.132000	 28.0059
8.216000	 28.1278
8.300000	 28.3947
8.384000	 28.4663
8.468000	 28.1548
8.552000	 27.6733
8.635999	 27.5928
8.719999	 27.8581
8.804000	 28.1581
8.888000	 28.1302
8.972000	 27.8378
9.056000	 27.3622
9.140000	 27.3406
9.224000	 27.472
9.308000	 27.9908
9.391999	 27.9442
9.475999	 27.7253
9.560000	 27.4366
9.644000	 26.9012
9.728000	 26.8249
9.812000	 26.897
9.896000	 27.61
9.980000	 27.6543
10.064	27.3263
10.148	27.272
10.232	26.5505
10.316	26.1287
10.4	26.2451
10.484	26.5271
10.568	26.8413
10.652	26.8716
10.736	26.7734
10.82	26.6687
10.904	26.3193
10.988	25.9188
11.072	25.8736
11.156	25.5716
11.24	25.7553
11.324	26.0424
11.408	26.0583
11.492	26.1587
11.576	26.0941
11.66	25.8692
11.744	25.3511
11.828	25.0224
11.912	24.8915
11.996	24.7892
12.08	24.9576
12.164	25.2207
12.248	25.5236
12.332	25.418
12.416	25.2616
12.5	25.3338
12.584	25.1025
12.668	24.8418
12.752	24.4503
12.836	23.9936
12.92	23.9517
13.004	24.0263
13.088	23.958
13.172	24.2198
13.256	24.4099
13.34	24.1951
13.424	24.1736
13.508	24.4874
13.592	24.3761
13.676	23.9221
13.76	23.6524
13.844	23.5048
13.928	23.2415
14.012	22.9977
14.096	22.8825
14.18	22.8781
14.264	23.0272
14.348	23.1597
14.432	23.188
14.516	23.1913
14.6	23.251
14.684	23.2884
14.768	23.1979
14.852	23.0342
14.936	22.8367
15.02	22.6172
15.104	22.4485
15.188	22.3132
15.272	22.1581
15.356	22.0112
15.44	21.8992
15.524	21.8166
15.608	21.7228
15.692	21.5924
15.776	21.469
15.86	21.4311
15.944	21.5122
16.028	21.6637
16.112	21.8115
16.196	21.9058
16.28	21.9299
16.364	21.8918
16.448	21.7744
16.532	21.5944
16.616	21.4502
16.7	21.3989
16.784	21.3843
16.868	21.3158
16.952	21.1054
17.036	20.7459
17.12	20.3705
17.204	20.1068
17.288	19.9626
17.372	19.916
17.456	19.9541
17.54	20.041
17.624	20.1877
17.708	20.4522
17.792	20.7622
17.876	20.922
17.96	20.9234
18.044	20.9834
18.128	21.1773
18.212	21.2801
18.296	21.1126
18.38	20.8317
18.464	20.792
18.548	21.1492
18.632	21.6265
18.716	21.6722
18.8	20.8901
18.884	19.3918
18.968	17.7534
19.052	16.6245
19.136	16.3101
19.22	16.6449
19.304	17.1535
19.388	17.3844
19.472	17.1802
19.556	16.7224
19.64	16.3565
19.724	16.3265
19.808	16.6318
19.892	17.0813
19.976	17.4782
20.06	17.7685
20.144	18.0262
20.228	18.3268
20.312	18.6349
20.396	18.8207
20.48	18.7951
20.564	18.5939
20.648	18.352
20.732	18.1956
20.816	18.1777
20.9	18.2708
20.984	18.386
21.068	18.4181
21.152	18.2971
21.236	18.0278
21.32	17.6731
21.404	17.2918
21.488	16.8878
21.572	16.4149
21.656	15.8557
21.74	15.2698
21.824	14.7778
21.908	14.4789
21.992	14.3793
22.076	14.4098
22.16	14.4896
22.244	14.5994
22.328	14.7952
22.412	15.1449
22.496	15.6609
22.58	16.2553
22.664	16.7594
22.748	16.9875
22.832	16.8333
22.916	16.2877
23	15.4593
23.084	14.5254
23.168	13.6757
23.252	13.0419
23.336	12.7016
23.42	12.6341
23.504	12.7927
23.588	13.139
23.672	13.6655
23.756	14.4011
23.84	15.3462
23.924	16.3952
24.008	17.3267
24.092	17.8305
24.176	17.5772
24.26	16.4121
24.344	14.423
24.428	11.9468
24.512	9.580608
24.596	7.905439
24.68	7.379638
24.764	8.231766
24.848	10.3816
24.932	13.4791
25.016	17.0396
25.1	20.6479
25.184	23.9804
25.268	26.8295
25.352	29.0493
25.436	30.4973
25.52	31.0402
25.604	30.5752
25.688	28.9326
25.772	25.9598
25.856	21.6482
25.94	16.3238
26.024	10.634
26.108	5.375231
26.192	0.843299
26.276	-3.177572
26.36	-7.355180
26.444	-11.9809
26.528	-16.5975
26.612	-19.9177
26.696	-20.5332
26.78	-17.6621
26.864	-11.8215
26.948	-4.599138
27.028	1.837730