File: Bakgrunnsmateriale/MATLAB/FTIR/ftir_data/LPE454/Mapping_121/LPE454_t14.asc
PE IR       SPECTRUM    SPECTRUM    ASCII       PEDS        1.60
  -1
LPD79C~1.ASC
17/05/19
15:29:54.00
17/05/19
15:30:20.00
tln
$LPE454_t0014$<tbV0>[7.8,-10.4,8.0,0.0,27,1,0]
27.028
64

2002,4.07
MIRTGS : RIGHTBACK : INTERNAL 2
MIR : ON : INTERNAL 2
OPTKBR

0.200000
8
8.000000
FILLER
RATIO
SPECTRUM
UNLOCKED 256

DOUBLE
64
COMBINED
1
0
0

0.002000
RATIO

1
0
TRUE
51149
0
LEFT NOT FITTED RIGHT NOT FITTED 0
NONE
NONE
15600
12
4.427000
51148
TRUE
1 0 8 72 0 0 0 0

15798

#HDR
-1
-1
#GR
µM
%T
2.38419e-05
0.0
2.000000
0.002000
12515
8
34.1239
-20.5541
#DATA
2.000000	 0.327444
2.084000	 0.192775
2.168000	 0.912361
2.252000	 -1.500432
2.336000	 0.000468
2.420000	 0.237172
2.504000	 0.204115
2.588000	 0.298661
2.672000	 0.111641
2.756000	 -0.077564
2.840000	 0.169714
2.924000	 0.035421
3.008000	 0.086617
3.092000	 -0.145298
3.176000	 0.057563
3.260000	 0.125591
3.344000	 0.049601
3.428000	 0.124004
3.512000	 -0.071887
3.596000	 0.077658
3.680000	 -0.049993
3.764000	 0.015881
3.848000	 -0.038694
3.932000	 0.018605
4.016000	 -0.006695
4.100000	 -0.015026
4.184000	 0.091091
4.268000	 0.206722
4.352000	 0.721541
4.436000	 1.826354
4.520000	 4.012700
4.604000	 7.479985
4.688000	 11.8891
4.772000	 16.5557
4.856000	 20.7521
4.940000	 23.9047
5.024000	 26.5289
5.108000	 28.6024
5.192000	 29.9939
5.276000	 31.2033
5.359999	 31.9677
5.444000	 32.58
5.528000	 33.028
5.612000	 33.2662
5.696000	 33.4996
5.780000	 33.7092
5.864000	 33.7094
5.948000	 33.9604
6.032000	 33.9562
6.116000	 34.0029
6.200000	 33.9555
6.284000	 33.7792
6.368000	 33.9664
6.452000	 33.8814
6.536000	 33.8693
6.620000	 33.9627
6.704000	 33.7713
6.788000	 33.9009
6.872000	 33.9116
6.956000	 33.742
7.040000	 33.7231
7.124000	 33.7612
7.208000	 33.8242
7.292000	 33.656
7.376000	 33.6296
7.460000	 33.7078
7.544000	 33.452
7.628000	 33.5788
7.712000	 33.5521
7.796000	 33.5414
7.880000	 33.2359
7.964000	 33.322
8.048000	 33.295
8.132000	 33.3146
8.216000	 33.307
8.300000	 33.2286
8.384000	 33.2869
8.468000	 33.1439
8.552000	 33.1294
8.635999	 33.1405
8.719999	 32.8711
8.804000	 32.8717
8.888000	 32.9009
8.972000	 32.9917
9.056000	 32.8179
9.140000	 32.7832
9.224000	 32.4914
9.308000	 32.5308
9.391999	 32.562
9.475999	 32.8055
9.560000	 32.3896
9.644000	 32.5332
9.728000	 32.1359
9.812000	 32.0363
9.896000	 32.4181
9.980000	 32.4744
10.064	32.2293
10.148	32.1592
10.232	32.0691
10.316	31.9344
10.4	31.918
10.484	31.8479
10.568	32.0203
10.652	31.7543
10.736	31.6834
10.82	31.4914
10.904	31.1757
10.988	31.1601
11.072	31.2219
11.156	31.231
11.24	31.1455
11.324	31.0105
11.408	31.1482
11.492	31.083
11.576	30.7893
11.66	30.5629
11.744	30.4777
11.828	30.5824
11.912	30.4736
11.996	30.5218
12.08	30.6061
12.164	30.5464
12.248	30.7156
12.332	30.4002
12.416	29.8439
12.5	29.8911
12.584	29.8647
12.668	29.5739
12.752	29.4617
12.836	29.6671
12.92	30.0624
13.004	30.1862
13.088	29.8218
13.172	29.3505
13.256	29.2004
13.34	29.1851
13.424	28.9975
13.508	28.8647
13.592	28.9563
13.676	28.743
13.76	28.5887
13.844	28.7594
13.928	28.8547
14.012	28.6651
14.096	28.5752
14.18	28.5328
14.264	28.1576
14.348	27.8356
14.432	27.8073
14.516	27.9024
14.6	27.9807
14.684	27.9208
14.768	27.8526
14.852	27.7974
14.936	27.7306
15.02	27.9373
15.104	28.2584
15.188	28.2482
15.272	27.9861
15.356	27.7404
15.44	27.6437
15.524	27.6356
15.608	27.4677
15.692	27.0809
15.776	26.7311
15.86	26.5648
15.944	26.4288
16.028	26.2558
16.112	26.19
16.196	26.2911
16.28	26.4154
16.364	26.3734
16.448	26.1989
16.532	26.1642
16.616	26.3799
16.7	26.632
16.784	26.7106
16.868	26.5872
16.952	26.3467
17.036	26.1199
17.12	25.9857
17.204	25.883
17.288	25.6984
17.372	25.4122
17.456	25.1269
17.54	24.9807
17.624	25.0097
17.708	25.106
17.792	25.1301
17.876	25.0363
17.96	24.8798
18.044	24.744
18.128	24.6892
18.212	24.7227
18.296	24.8069
18.38	24.9172
18.464	25.0518
18.548	25.1816
18.632	25.227
18.716	25.1145
18.8	24.8525
18.884	24.5605
18.968	24.4013
19.052	24.4501
19.136	24.6091
19.22	24.6779
19.304	24.5365
19.388	24.2606
19.472	24.0406
19.556	23.9934
19.64	24.0668
19.724	24.1314
19.808	24.1172
19.892	24.0439
19.976	23.9713
20.06	23.9492
20.144	23.9902
20.228	24.0621
20.312	24.116
20.396	24.1245
20.48	24.094
20.564	24.0418
20.648	23.9768
20.732	23.9059
20.816	23.852
20.9	23.8525
20.984	23.9174
21.068	23.9896
21.152	23.9687
21.236	23.7722
21.32	23.4003
21.404	22.9523
21.488	22.5677
21.572	22.346
21.656	22.2863
21.74	22.2999
21.824	22.2842
21.908	22.2053
21.992	22.1158
22.076	22.0958
22.16	22.1694
22.244	22.2521
22.328	22.1984
22.412	21.9105
22.496	21.4294
22.58	20.9272
22.664	20.6257
22.748	20.6847
22.832	21.1126
22.916	21.8037
23	22.5588
23.084	23.1886
23.168	23.5866
23.252	23.764
23.336	23.7972
23.42	23.7534
23.504	23.6502
23.588	23.4465
23.672	23.0774
23.756	22.4998
23.84	21.7757
23.924	21.0402
24.008	20.5058
24.092	20.4493
24.176	21.0755
24.26	22.511
24.344	24.7403
24.428	27.5038
24.512	30.1948
24.596	32.0965
24.68	32.6664
24.764	31.817
24.848	30.0456
24.932	28.1454
25.016	26.7623
25.1	26.1201
25.184	26.0359
25.268	26.0259
25.352	25.5268
25.436	23.9346
25.52	20.7624
25.604	15.7403
25.688	8.980266
25.772	1.062299
25.856	-7.072048
25.94	-14.1634
26.024	-18.9331
26.108	-20.5541
26.192	-18.8814
26.276	-14.3743
26.36	-8.059644
26.444	-0.915729
26.528	6.391075
26.612	13.6403
26.696	20.6409
26.78	26.9002
26.864	31.624
26.948	33.8828
27.028	33.1081