File: Bakgrunnsmateriale/MATLAB/FTIR/ftir_data/LPE454/Mapping_121/LPE454_t110_cm-1.asc
PE IR       SPECTRUM    SPECTRUM    ASCII       PEDS        1.60
  -1
LP0358~1.ASC
17/05/19
23:22:14.00
17/05/19
23:22:14.00
tln
$LPE454_t0110$<tbV0>[-13.0,10.4,8.0,0.0,27,1,0]
370
64

2002,4.07
MIRTGS : RIGHTBACK : INTERNAL 2
MIR : ON : INTERNAL 2
OPTKBR

0.200000
8
8.000000
FILLER
RATIO
SPECTRUM
UNLOCKED 256

DOUBLE
64
COMBINED
1
0
0

1.000000
RATIO

1
0
TRUE
51149
0
LEFT NOT FITTED RIGHT NOT FITTED 0
NONE
NONE
15600
12
4.427000
51148
TRUE
1 0 8 72 0 0 0 0

15798

#HDR
-1
-1
#GR
CM-1
%T
2.38419e-05
0.0
5000
-1.000000
4631
8
40.2595
-4.469680
#DATA
5000	0.317454
4984	-0.022816
4968	0.641679
4952	0.095462
4936	-0.152969
4920	0.364089
4904	0.343227
4888	-0.004601
4872	0.048136
4856	-0.008678
4840	0.012278
4824	0.258159
4808	0.114130
4792	0.264978
4776	0.369167
4760	0.347375
4744	0.071167
4728	0.353384
4712	-0.192856
4696	-0.663638
4680	-0.452041
4664	-0.578284
4648	-0.327634
4632	0.195169
4616	0.303483
4600	6.929016
4584	8.218646
4568	-2.368330
4552	-2.843499
4536	-0.591945
4520	-0.397038
4504	0.160837
4488	0.077438
4472	0.041198
4456	0.591897
4440	0.199532
4424	0.435614
4408	0.068974
4392	0.036931
4376	0.320172
4360	0.005245
4344	0.338411
4328	0.196862
4312	0.228643
4296	0.049996
4280	0.181841
4264	-0.019764
4248	-0.001502
4232	-0.012993
4216	0.018906
4200	-0.004410
4184	0.087475
4168	0.107216
4152	-0.032424
4136	-0.126695
4120	-0.342869
4104	0.180196
4088	1.467680
4072	-0.309300
4056	0.404262
4040	0.136399
4024	-0.470662
4008	0.316953
3992	-0.011110
3976	0.289845
3960	-0.083541
3944	0.041007
3928	0.171470
3912	0.107622
3896	-0.006818
3880	0.038266
3864	-0.050354
3848	0.085663
3832	0.258231
3816	-0.106668
3800	-0.072169
3784	0.028300
3768	-0.101661
3752	0.012826
3736	0.083422
3720	-0.132131
3704	0.106644
3688	0.174069
3672	0.007557
3656	-0.111484
3640	0.056624
3624	-0.003981
3608	0.093054
3592	-0.096392
3576	0.166869
3560	-0.049829
3544	0.206661
3528	0.196814
3512	0.023889
3496	-0.002646
3480	0.004696
3464	0.021624
3448	0.026130
3432	0.006866
3416	0.089311
3400	0.099539
3384	0.218367
3368	-0.007653
3352	0.012445
3336	0.196814
3320	-0.010943
3304	0.050354
3288	0.020194
3272	-0.011682
3256	0.218439
3240	-0.007438
3224	-0.040793
3208	-0.159764
3192	0.055813
3176	0.175666
3160	0.140285
3144	0.007796
3128	-0.020122
3112	0.186705
3096	0.026488
3080	-0.013995
3064	0.096082
3048	0.088477
3032	0.209403
3016	0.045633
3000	0.022459
2984	0.106978
2968	-0.010395
2952	-0.000047
2936	0.036263
2920	-0.104236
2904	-0.016808
2888	0.037097
2872	0.180482
2856	0.043892
2840	-0.028777
2824	0.100731
2808	0.030064
2792	0.018119
2776	-0.112676
2760	0.009608
2744	0.022649
2728	0.060343
2712	0.159287
2696	-0.099539
2680	0.069880
2664	-0.026869
2648	0.013542
2632	0.012540
2616	0.020980
2600	0.078630
2584	-0.085473
2568	0.028562
2552	0.067281
2536	0.004553
2520	0.057697
2504	0.163817
2488	-0.019931
2472	-0.033950
2456	-0.040435
2440	-0.059485
2424	-0.012302
2408	-0.036931
2392	-0.047039
2376	0.256967
2360	0.147914
2344	0.228977
2328	0.265312
2312	0.568795
2296	0.671839
2280	0.960397
2264	1.402139
2248	2.006578
2232	2.649402
2216	3.365111
2200	4.376125
2184	5.487227
2168	6.705117
2152	8.210039
2136	9.596872
2120	11.0822
2104	12.6126
2088	14.1168
2072	15.6455
2056	16.7964
2040	18.1583
2024	19.3342
2008	20.2468
1992	21.2414
1976	22.077
1960	22.696
1944	23.3584
1928	24.0021
1912	24.4295
1896	24.8764
1880	25.1027
1864	25.4322
1848	25.7816
1832	25.9275
1816	26.0946
1800	26.2545
1784	26.4184
1768	26.4531
1752	26.5775
1736	26.6757
1720	26.8577
1704	26.7711
1688	26.7355
1672	26.8442
1656	26.8383
1640	26.9407
1624	26.9176
1608	26.8154
1592	26.8281
1576	26.8431
1560	26.9778
1544	26.9309
1528	26.8722
1512	26.7801
1496	26.9439
1480	26.7859
1464	26.7784
1448	26.7094
1432	26.8731
1416	26.6535
1400	26.4479
1384	26.5993
1368	26.6614
1352	26.4991
1336	26.4223
1320	26.6064
1304	26.5169
1288	26.4577
1272	26.3393
1256	26.3936
1240	26.2702
1224	26.2174
1208	26.0927
1192	26.0156
1176	25.8435
1160	25.7503
1144	25.7109
1128	25.6326
1112	25.499
1096	25.2377
1080	25.3933
1064	25.3639
1048	25.0524
1032	24.9933
1016	24.9247
1000	24.7227
984	 24.4862
968	 24.3699
952	 24.1075
936	 24.2701
920	 23.6307
904	 23.8322
888	 23.8281
872	 23.1949
856	 23.1803
840	 23.0462
824	 22.9165
808	 22.4474
792	 22.1775
776	 22.1439
760	 22.412
744	 21.6018
728	 21.3625
712	 21.185
696	 21.1497
680	 20.33
664	 20.0531
648	 20.1805
632	 20.036
616	 18.9464
600	 19.5773
584	 18.4595
568	 18.6959
552	 18.0372
536	 16.3472
520	 16.7834
504	 17.2524
488	 16.2026
472	 15.8489
456	 14.9988
440	 13.5118
424	 15.5471
408	 13.6175
392	 13.4468
376	 31.2414
370	 23.0528