File: Bakgrunnsmateriale/MATLAB/FTIR/ftir_data/LPE454/Mapping_121/LPE454_e124_cm-1.asc
PE IR       SPECTRUM    SPECTRUM    ASCII       PEDS        1.60
  -1
LP071C~1.ASC
17/05/19
18:01:49.00
17/05/19
18:01:49.00
tln
$LPE454_e0124$<ebV0>[-23.3,12.1,10.0,0.0,27,1,0]
370
64

2002,4.07
MIRTGS : RIGHTBACK : INTERNAL 2
MIR : ON : INTERNAL 2
OPTKBR

0.200000
8
8.000000
FILLER
SINGLE
SPECTRUM
UNLOCKED 256

DOUBLE

COMBINED
1
0
0

1.000000
BACKG

1
0
TRUE
51149
0
LEFT NOT FITTED RIGHT NOT FITTED 0
NONE
NONE
15600
12
4.427000
51148
TRUE
1 0 8 72 0 0 0 0

15798

#HDR
-1
-1
#GR
CM-1
EGY
2.38419e-05
0.0
5000
-1.000000
4631
8
2.427458
0.008296
#DATA
5000	0.774312
4984	0.777983
4968	0.780510
4952	0.793290
4936	0.797629
4920	0.803852
4904	0.808095
4888	0.816202
4872	0.824832
4856	0.832366
4840	0.841617
4824	0.854372
4808	0.863885
4792	0.874137
4776	0.884103
4760	0.891709
4744	0.896787
4728	0.901460
4712	0.903367
4696	0.906682
4680	0.911140
4664	0.910258
4648	0.910902
4632	0.917267
4616	0.926327
4600	0.929951
4584	0.938081
4568	0.956821
4552	0.979208
4536	0.984740
4520	0.935578
4504	0.995492
4488	0.988554
4472	1.001691
4456	1.016187
4440	1.009559
4424	1.019215
4408	1.018619
4392	1.023554
4376	1.036024
4360	1.047420
4344	1.062154
4328	1.078009
4312	1.100206
4296	1.118516
4280	1.135706
4264	1.151704
4248	1.166057
4232	1.177525
4216	1.189208
4200	1.195240
4184	1.201891
4168	1.212120
4152	1.217269
4136	1.232290
4120	1.243662
4104	1.257610
4088	1.279163
4072	1.301074
4056	1.318550
4040	1.339268
4024	1.361298
4008	1.378536
3992	1.390743
3976	1.400089
3960	1.409292
3944	1.414608
3928	1.419305
3912	1.424765
3896	1.424098
3880	1.433420
3864	1.444768
3848	1.456880
3832	1.474928
3816	1.488256
3800	1.504850
3784	1.534199
3768	1.545143
3752	1.536679
3736	1.549053
3720	1.564860
3704	1.570296
3688	1.561999
3672	1.555776
3656	1.565241
3640	1.571083
3624	1.571536
3608	1.577019
3592	1.584696
3576	1.595950
3560	1.606798
3544	1.610946
3528	1.611304
3512	1.619601
3496	1.612067
3480	1.604700
3464	1.595640
3448	1.586771
3432	1.576232
3416	1.579141
3400	1.587629
3384	1.598787
3368	1.615142
3352	1.635837
3336	1.657605
3320	1.681828
3304	1.705360
3288	1.724553
3272	1.744294
3256	1.757049
3240	1.770067
3224	1.776337
3208	1.774430
3192	1.781272
3176	1.785731
3160	1.790285
3144	1.802134
3128	1.815509
3112	1.840662
3096	1.867055
3080	1.899409
3064	1.919579
3048	1.947116
3032	1.961517
3016	1.950073
3000	2.009320
2984	2.008748
2968	1.943421
2952	1.906657
2936	1.802539
2920	1.789331
2904	1.930403
2888	1.979756
2872	1.964449
2856	1.910448
2840	2.049255
2824	2.109408
2808	2.146792
2792	2.176618
2776	2.205133
2760	2.226877
2744	2.238130
2728	2.237677
2712	2.233982
2696	2.226424
2680	2.218747
2664	2.207708
2648	2.197909
2632	2.195739
2616	2.200627
2600	2.205538
2584	2.218818
2568	2.243685
2552	2.261757
2536	2.279472
2520	2.296376
2504	2.305912
2488	2.305698
2472	2.296113
2456	2.283167
2440	2.268385
2424	2.249455
2408	2.237081
2392	2.227830
2376	2.220201
2360	2.212071
2344	2.238273
2328	2.257084
2312	2.290177
2296	2.319836
2280	2.337169
2264	2.346754
2248	2.354741
2232	2.352333
2216	2.344584
2200	2.330946
2184	2.318453
2168	2.308869
2152	2.304601
2136	2.306127
2120	2.305674
2104	2.308201
2088	2.307987
2072	2.327132
2056	2.361774
2040	2.391028
2024	2.409219
2008	2.424716
1992	2.425479
1976	2.412819
1960	2.399444
1944	2.386021
1928	2.370738
1912	2.353072
1896	2.339458
1880	2.341341
1864	2.347493
1848	2.357769
1832	2.370166
1816	2.390050
1800	2.395892
1784	2.394914
1768	2.378225
1752	2.349996
1736	2.292728
1720	2.273917
1704	2.240657
1688	2.215003
1672	2.191805
1656	2.140712
1640	2.120804
1624	2.072787
1608	1.944446
1592	1.984930
1576	1.952934
1560	1.893258
1544	1.926946
1528	2.073931
1512	2.055335
1496	1.676845
1480	1.930046
1464	1.906108
1448	1.758408
1432	1.839733
1416	1.815867
1400	1.707911
1384	1.759505
1368	1.791644
1352	1.789999
1336	1.801061
1320	1.825189
1304	1.828956
1288	1.827192
1272	1.781129
1256	1.733970
1240	1.810288
1224	1.791620
1208	1.725363
1192	1.718568
1176	1.679992
1160	1.610755
1144	1.577734
1128	1.521873
1112	1.440501
1096	1.409006
1080	1.409649
1064	1.420617
1048	1.291561
1032	1.361989
1016	1.350188
1000	1.380610
984	 1.367235
968	 1.326799
952	 1.268839
936	 1.237773
920	 1.200151
904	 1.148724
888	 1.103401
872	 1.025390
856	 1.078295
840	 1.047873
824	 0.833821
808	 0.937867
792	 0.949668
776	 0.966501
760	 0.954222
744	 0.930714
728	 0.894832
712	 0.846481
696	 0.778722
680	 0.727796
664	 0.698161
648	 0.657439
632	 0.614047
616	 0.569558
600	 0.517058
584	 0.502014
568	 0.484418
552	 0.460290
536	 0.431585
520	 0.394582
504	 0.355982
488	 0.304269
472	 0.247526
456	 0.197291
440	 0.149488
424	 0.100684
408	 0.055718
392	 0.026464
376	 0.008511
370	 0.008630