File: Bakgrunnsmateriale/MATLAB/FTIR/ftir_data/LPE454/Mapping_121/LPE454_t12_cm-1.asc
PE IR       SPECTRUM    SPECTRUM    ASCII       PEDS        1.60
  -1
LPD7B0~1.ASC
17/05/19
15:20:41.00
17/05/19
15:20:41.00
tln
$LPE454_t0012$<tbV0>[13.0,-10.4,8.0,0.0,27,1,0]
370
64

2002,4.07
MIRTGS : RIGHTBACK : INTERNAL 2
MIR : ON : INTERNAL 2
OPTKBR

0.200000
8
8.000000
FILLER
RATIO
SPECTRUM
UNLOCKED 256

DOUBLE
64
COMBINED
1
0
0

1.000000
RATIO

1
0
TRUE
51149
0
LEFT NOT FITTED RIGHT NOT FITTED 0
NONE
NONE
15600
12
4.427000
51148
TRUE
1 0 8 72 0 0 0 0

15798

#HDR
-1
-1
#GR
CM-1
%T
2.38419e-05
0.0
5000
-1.000000
4631
8
106.388
-6.268930
#DATA
5000	-0.274085
4984	0.312781
4968	0.692629
4952	0.224804
4936	0.257301
4920	0.195693
4904	0.485920
4888	0.031566
4872	0.211477
4856	0.338816
4840	0.436305
4824	-0.219082
4808	0.270104
4792	1.081824
4776	-0.265622
4760	0.878453
4744	0.152778
4728	-0.256991
4712	0.936675
4696	0.138354
4680	0.310993
4664	0.151586
4648	0.589466
4632	0.454664
4616	0.304150
4600	0.570559
4584	0.282740
4568	0.116491
4552	0.402092
4536	0.152850
4520	1.072096
4504	-0.010466
4488	1.192474
4472	17.3265
4456	-0.620651
4440	0.246095
4424	0.052499
4408	0.250458
4392	0.234031
4376	0.265169
4360	0.132727
4344	0.168108
4328	-0.085234
4312	0.175070
4296	0.209498
4280	0.130820
4264	0.208330
4248	-0.149774
4232	-0.342059
4216	0.195193
4200	-0.033068
4184	0.340604
4168	0.462865
4152	0.062251
4136	0.127720
4120	0.105810
4104	0.224041
4088	0.073456
4072	0.024485
4056	0.130963
4040	0.145339
4024	0.066852
4008	-0.036740
3992	-0.194716
3976	-0.140500
3960	-0.010752
3944	0.206303
3928	-0.067090
3912	-0.003242
3896	0.007390
3880	-0.068283
3864	0.295376
3848	0.098848
3832	0.211477
3816	0.090360
3800	-0.016474
3784	0.255584
3768	-0.043249
3752	0.102949
3736	0.217294
3720	-0.012612
3704	0.076508
3688	-0.162339
3672	-0.010538
3656	0.076150
3640	-0.031781
3624	0.043892
3608	0.085377
3592	0.119614
3576	0.000739
3560	0.129199
3544	-0.108551
3528	0.159049
3512	0.193786
3496	-0.085878
3480	0.087475
3464	0.236082
3448	-0.019574
3432	-0.053977
3416	0.074386
3400	0.126814
3384	0.060582
3368	-0.022268
3352	-0.029230
3336	0.061058
3320	0.148248
3304	-0.047802
3288	0.043535
3272	0.094318
3256	-0.084209
3240	0.144505
3224	0.059676
3208	0.158190
3192	0.046229
3176	-0.061416
3160	-0.060534
3144	-0.071811
3128	0.034570
3112	-0.080490
3096	0.017333
3080	0.039863
3064	0.173878
3048	0.023627
3032	-0.020885
3016	0.019407
3000	0.118541
2984	0.062489
2968	0.025391
2952	-0.038504
2936	-0.008678
2920	-0.027799
2904	0.147938
2888	0.011205
2872	-0.105881
2856	-0.055217
2840	0.083160
2824	-0.022149
2808	-0.094366
2792	0.086998
2776	0.039267
2760	-0.005125
2744	0.028944
2728	0.168585
2712	-0.059604
2696	0.096297
2680	0.097823
2664	0.092625
2648	-0.047802
2632	0.028181
2616	0.070476
2600	0.055313
2584	0.006055
2568	0.038814
2552	0.004982
2536	-0.044894
2520	-0.012850
2504	0.125980
2488	-0.024557
2472	-0.009226
2456	0.169944
2440	0.047945
2424	0.232815
2408	0.204515
2392	0.171971
2376	0.124692
2360	0.036859
2344	0.033187
2328	0.119638
2312	0.019884
2296	0.150799
2280	0.265240
2264	0.484800
2248	0.752806
2232	1.226830
2216	1.667451
2200	2.236580
2184	2.991127
2168	4.013371
2152	4.964613
2136	6.272816
2120	7.548427
2104	8.920478
2088	10.078
2072	11.7592
2056	12.9183
2040	13.9605
2024	15.0251
2008	16.1634
1992	17.1088
1976	18.0288
1960	18.7881
1944	19.46
1928	19.9448
1912	20.535
1896	21.1395
1880	21.4748
1864	22.0164
1848	22.2782
1832	22.5967
1816	22.8878
1800	23.0306
1784	23.3182
1768	23.6534
1752	23.8438
1736	24.1537
1720	24.305
1704	24.2486
1688	24.326
1672	24.5641
1656	24.7617
1640	24.7929
1624	24.7518
1608	24.8563
1592	25.0608
1576	25.2729
1560	25.3193
1544	25.3392
1528	25.4638
1512	25.3748
1496	25.2512
1480	25.4385
1464	25.4871
1448	25.4209
1432	25.497
1416	25.5267
1400	25.5976
1384	25.5235
1368	25.5882
1352	25.6577
1336	25.7247
1320	25.5822
1304	25.6825
1288	25.6611
1272	25.6774
1256	25.5918
1240	25.5956
1224	25.7243
1208	25.6765
1192	25.6208
1176	25.6857
1160	25.3884
1144	25.4103
1128	25.4678
1112	25.4609
1096	25.0829
1080	25.382
1064	25.0827
1048	25.2917
1032	25.2748
1016	24.7043
1000	24.6831
984	 24.9324
968	 24.4887
952	 24.3279
936	 24.5981
920	 24.0175
904	 24.2499
888	 23.8204
872	 23.4017
856	 23.3655
840	 23.5261
824	 22.9605
808	 23.1399
792	 22.7534
776	 22.2288
760	 22.1183
744	 21.8433
728	 21.6971
712	 21.426
696	 21.2609
680	 21.0309
664	 20.6434
648	 20.3741
632	 19.1152
616	 19.751
600	 19.851
584	 18.9961
568	 18.502
552	 18.0484
536	 17.7744
520	 17.8202
504	 17.172
488	 15.7323
472	 16.9941
456	 18.8164
440	 15.7172
424	 14.4052
408	 29.3318
392	 19.4988
376	 50.2352
370	 106.388