File: Bakgrunnsmateriale/MATLAB/FTIR/ftir_data/LPE454/Mapping_121/LPE454_t114_cm-1.asc
PE IR       SPECTRUM    SPECTRUM    ASCII       PEDS        1.60
  -1
LP0758~1.ASC
17/05/19
23:46:54.00
17/05/19
23:46:54.00
tln
$LPE454_t0114$<tbV0>[5.2,13.0,8.0,0.0,27,1,0]
370
64

2002,4.07
MIRTGS : RIGHTBACK : INTERNAL 2
MIR : ON : INTERNAL 2
OPTKBR

0.200000
8
8.000000
FILLER
RATIO
SPECTRUM
UNLOCKED 256

DOUBLE
64
COMBINED
1
0
0

1.000000
RATIO

1
0
TRUE
51149
0
LEFT NOT FITTED RIGHT NOT FITTED 0
NONE
NONE
15600
12
4.427000
51148
TRUE
1 0 8 72 0 0 0 0

15798

#HDR
-1
-1
#GR
CM-1
%T
2.38419e-05
0.0
5000
-1.000000
4631
8
40.4823
-4.661870
#DATA
5000	-0.021624
4984	0.384140
4968	0.099992
4952	0.581026
4936	0.447106
4920	0.586438
4904	0.243139
4888	0.283837
4872	0.513219
4856	-0.031614
4840	0.349211
4824	0.072717
4808	0.177693
4792	0.337123
4776	0.272059
4760	0.384664
4744	0.413465
4728	1.000881
4712	0.987005
4696	0.939726
4680	1.037549
4664	0.288271
4648	0.131106
4632	-0.771236
4616	-0.815057
4600	-2.632260
4584	39.1949
4568	-0.798511
4552	-0.716161
4536	-0.415372
4520	-1.116704
4504	-0.433301
4488	-0.007057
4472	0.678777
4456	0.527763
4440	0.446701
4424	0.331592
4408	0.370049
4392	0.393986
4376	0.027298
4360	0.019502
4344	0.401043
4328	0.250720
4312	0.433158
4296	0.008296
4280	0.070190
4264	0.161147
4248	0.314521
4232	0.060343
4216	0.392127
4200	0.153422
4184	-0.215983
4168	0.422072
4152	0.447726
4136	0.343656
4120	0.256299
4104	-0.438547
4088	-0.960564
4072	0.271797
4056	0.132560
4040	0.120592
4024	0.005412
4008	0.426912
3992	-0.026822
3976	0.151181
3960	-0.041866
3944	0.202751
3928	0.212740
3912	0.058698
3896	-0.096273
3880	-0.094485
3864	0.085854
3848	0.076293
3832	0.022411
3816	0.105023
3800	-0.022840
3784	0.028634
3768	-0.053882
3752	0.188374
3736	0.029897
3720	0.182056
3704	0.023102
3688	0.005292
3672	0.009202
3656	0.122475
3640	0.030112
3624	0.139260
3608	-0.080585
3592	0.027227
3576	-0.038242
3560	0.149846
3544	0.128412
3528	0.047469
3512	0.010895
3496	0.003170
3480	-0.106263
3464	0.110769
3448	0.135803
3432	0.187540
3416	0.225663
3400	0.138807
3384	0.023198
3368	-0.023174
3352	-0.002765
3336	0.168395
3320	0.237751
3304	0.063228
3288	0.100016
3272	0.053048
3256	0.075626
3240	0.181698
3224	-0.003981
3208	0.109100
3192	0.032019
3176	0.036120
3160	0.098490
3144	0.067853
3128	0.071930
3112	0.057244
3096	-0.130009
3080	-0.013685
3064	0.094532
3048	-0.049996
3032	0.124430
3016	0.048947
3000	0.091385
2984	0.012445
2968	-0.032663
2952	0.073266
2936	-0.015163
2920	0.069594
2904	0.085306
2888	-0.117802
2872	0.056457
2856	0.019454
2840	0.033164
2824	0.049686
2808	-0.015187
2792	-0.031208
2776	0.054383
2760	-0.051283
2744	-0.090169
2728	-0.037908
2712	0.068092
2696	-0.064587
2680	0.074243
2664	0.095891
2648	0.023961
2632	-0.013113
2616	-0.048518
2600	-0.057435
2584	-0.012874
2568	-0.027346
2552	0.078630
2536	-0.071144
2520	0.013661
2504	0.065326
2488	0.071835
2472	0.185632
2456	0.149202
2440	0.106811
2424	-0.093150
2408	0.218486
2392	0.330567
2376	0.486183
2360	0.611114
2344	0.803017
2328	1.199531
2312	1.617479
2296	2.189636
2280	2.853274
2264	3.730392
2248	4.726696
2232	6.036090
2216	7.638859
2200	9.303164
2184	11.2698
2168	13.347
2152	15.5734
2136	17.6923
2120	19.9693
2104	22.0922
2088	24.1145
2072	26.195
2056	27.7972
2040	29.6326
2024	30.9391
2008	32.365
1992	33.4329
1976	34.495
1960	35.3416
1944	36.1779
1928	37.0043
1912	37.4832
1896	37.9908
1880	38.3437
1864	38.7956
1848	39.1764
1832	39.4765
1816	39.642
1800	39.7622
1784	39.9518
1768	40.0908
1752	40.1322
1736	40.2586
1720	40.321
1704	40.2335
1688	40.343
1672	40.4107
1656	40.4427
1640	40.2798
1624	40.2587
1608	40.4403
1592	40.382
1576	40.162
1560	40.2054
1544	40.2349
1528	40.2434
1512	40.1028
1496	40.1405
1480	40.0737
1464	39.9737
1448	39.8728
1432	39.9677
1416	39.687
1400	39.6529
1384	39.7256
1368	39.6035
1352	39.5049
1336	39.4712
1320	39.72
1304	39.4936
1288	39.3511
1272	39.3383
1256	39.2537
1240	39.2751
1224	39.0829
1208	38.9301
1192	38.8573
1176	39.0283
1160	38.9918
1144	38.8112
1128	38.4644
1112	38.7896
1096	38.946
1080	38.2384
1064	38.3354
1048	38.368
1032	38.3921
1016	38.0423
1000	37.9226
984	 38.0694
968	 38.009
952	 38.1099
936	 37.5158
920	 37.4829
904	 37.559
888	 37.5463
872	 37.398
856	 36.7176
840	 36.6509
824	 36.8468
808	 36.9855
792	 36.219
776	 36.1272
760	 36.1161
744	 36.2659
728	 35.6129
712	 35.0272
696	 34.6042
680	 35.2944
664	 35.1538
648	 34.7199
632	 33.6023
616	 34.1751
600	 34.027
584	 33.6877
568	 33.4765
552	 32.9444
536	 32.736
520	 32.4241
504	 32.3745
488	 31.0386
472	 30.0826
456	 30.4967
440	 30.4848
424	 27.6886
408	 20.855
392	 10.4368
376	 -1.641964
370	 17.7553