File: Bakgrunnsmateriale/MATLAB/FTIR/ftir_data/LPE454/Mapping_121/LPE454_t11_cm-1.asc
PE IR       SPECTRUM    SPECTRUM    ASCII       PEDS        1.60
  -1
LPD731~1.ASC
17/05/19
15:15:27.00
17/05/19
15:15:27.00
tln
$LPE454_t0011$<tbV0>[-13.0,-13.0,8.0,0.0,27,1,0]
370
64

2002,4.07
MIRTGS : RIGHTBACK : INTERNAL 2
MIR : ON : INTERNAL 2
OPTKBR

0.200000
8
8.000000
FILLER
RATIO
SPECTRUM
UNLOCKED 256

DOUBLE
64
COMBINED
1
0
0

1.000000
RATIO

1
0
TRUE
51149
0
LEFT NOT FITTED RIGHT NOT FITTED 0
NONE
NONE
15600
12
4.427000
51148
TRUE
1 0 8 72 0 0 0 0

15798

#HDR
-1
-1
#GR
CM-1
%T
2.38419e-05
0.0
5000
-1.000000
4631
8
15.5908
-64.7573
#DATA
5000	0.265979
4984	0.079774
4968	0.028467
4952	0.038218
4936	0.077939
4920	-0.167322
4904	0.044226
4888	0.412654
4872	0.205755
4856	-0.011181
4840	0.142073
4824	0.119090
4808	1.154565
4792	1.461267
4776	-1.960301
4760	2.203559
4744	-0.208449
4728	0.450706
4712	-0.529646
4696	-0.377106
4680	0.495719
4664	0.339603
4648	0.442147
4632	0.251603
4616	0.707936
4600	0.643467
4584	0.656700
4568	0.538063
4552	1.059079
4536	0.016093
4520	-1.096105
4504	-0.842285
4488	1.670527
4472	11.3362
4456	-0.174045
4440	-0.872516
4424	0.299644
4408	0.190925
4392	0.797796
4376	1.138615
4360	0.920009
4344	0.515818
4328	0.454592
4312	0.146603
4296	0.070261
4280	0.088167
4264	0.250792
4248	0.044608
4232	0.367021
4216	-0.028944
4200	0.026273
4184	-0.457048
4168	0.768804
4152	0.122642
4136	0.048565
4120	0.413084
4104	0.293207
4088	0.143957
4072	0.206160
4056	0.105500
4040	-0.116729
4024	0.011539
4008	0.011277
3992	0.030517
3976	0.044560
3960	0.109910
3944	0.345158
3928	0.144219
3912	0.058603
3896	0.135445
3880	0.134110
3864	-0.018811
3848	0.137352
3832	0.136184
3816	0.079464
3800	-0.125980
3784	0.069999
3768	0.061392
3752	0.110602
3736	0.090694
3720	-0.058984
3704	-0.037813
3688	0.034284
3672	-0.090217
3656	0.076103
3640	0.028705
3624	0.136399
3608	0.103330
3592	0.007057
3576	-0.104713
3560	0.111055
3544	0.039696
3528	0.093007
3512	0.028872
3496	0.002312
3480	-0.126814
3464	0.168609
3448	0.062894
3432	0.082993
3416	-0.055575
3400	-0.172567
3384	0.070142
3368	-0.007057
3352	0.072598
3336	0.001215
3320	-0.019335
3304	0.181508
3288	-0.060057
3272	0.090599
3256	0.030088
3240	0.067067
3224	0.106358
3208	0.096273
3192	-0.027275
3176	0.038671
3160	-0.026273
3144	0.064015
3128	0.131130
3112	-0.054216
3096	0.043916
3080	-0.018262
3064	0.019979
3048	-0.034213
3032	0.037193
3016	0.018739
3000	0.185060
2984	0.020289
2968	0.043725
2952	-0.045418
2936	0.004267
2920	0.045132
2904	-0.056838
2888	0.202655
2872	-0.111603
2856	0.147080
2840	-0.001049
2824	0.147962
2808	0.048303
2792	0.127339
2776	0.041866
2760	-0.030422
2744	0.069236
2728	-0.020265
2712	0.017213
2696	0.085020
2680	0.079011
2664	-0.042438
2648	0.146460
2632	0.067973
2616	0.046896
2600	0.155210
2584	-0.013399
2568	0.034427
2552	0.121259
2536	0.003981
2520	-0.000381
2504	0.234818
2488	0.057840
2472	0.022697
2456	0.138735
2440	0.110340
2424	-0.140285
2408	-0.104331
2392	-0.016689
2376	0.258803
2360	0.054955
2344	-0.078153
2328	-0.104141
2312	0.027799
2296	0.045776
2280	0.006413
2264	0.029635
2248	0.048708
2232	0.090050
2216	0.123882
2200	0.084614
2184	0.181841
2168	0.216031
2152	0.295186
2136	0.257802
2120	0.353670
2104	0.175309
2088	0.216865
2072	0.396203
2056	0.302314
2040	0.477457
2024	0.532293
2008	0.501298
1992	0.531625
1976	0.507640
1960	0.574207
1944	0.484991
1928	0.554823
1912	0.584459
1896	0.629854
1880	0.624823
1864	0.618958
1848	0.659942
1832	0.680327
1816	0.548768
1800	0.750231
1784	0.778937
1768	0.657057
1752	0.674176
1736	0.744056
1720	0.879406
1704	0.645565
1688	0.693345
1672	0.816464
1656	0.788760
1640	0.701379
1624	0.749564
1608	0.689935
1592	0.754284
1576	0.874924
1560	0.842094
1544	0.942850
1528	0.751137
1512	0.759029
1496	0.752758
1480	0.904893
1464	0.791406
1448	0.851559
1432	0.665855
1416	0.779581
1400	0.843548
1384	0.826668
1368	0.971055
1352	0.855970
1336	0.818991
1320	0.833415
1304	1.016545
1288	0.924086
1272	1.117777
1256	1.098799
1240	0.926160
1224	1.059317
1208	1.151132
1192	1.068162
1176	1.056408
1160	0.974869
1144	1.018309
1128	1.159334
1112	1.119709
1096	1.113963
1080	1.217985
1064	1.232719
1048	0.976562
1032	1.290845
1016	1.031851
1000	1.399326
984	 1.082110
968	 1.299118
952	 1.470088
936	 1.365733
920	 1.251745
904	 1.347851
888	 1.400303
872	 1.618862
856	 1.509141
840	 1.291918
824	 1.740932
808	 1.637434
792	 1.334095
776	 1.726818
760	 1.900959
744	 1.667714
728	 1.821327
712	 1.767516
696	 2.281451
680	 1.931023
664	 1.512908
648	 1.940751
632	 2.478694
616	 2.107667
600	 2.500557
584	 2.168750
568	 1.977944
552	 2.171087
536	 1.771402
520	 2.664351
504	 2.326154
488	 2.317881
472	 2.579283
456	 3.345799
440	 3.322863
424	 1.339173
408	 4.641604
392	 -11.9069
376	 -64.7573
370	 -26.8717