File: Bakgrunnsmateriale/MATLAB/FTIR/ftir_data/LPE454/Mapping_121/LPE454_t20.asc
PE IR       SPECTRUM    SPECTRUM    ASCII       PEDS        1.60
  -1
LPCB9C~1.ASC
17/05/19
15:57:34.00
17/05/19
15:58:00.00
tln
$LPE454_t0020$<tbV0>[-7.8,-10.4,8.0,0.0,27,1,0]
27.028
64

2002,4.07
MIRTGS : RIGHTBACK : INTERNAL 2
MIR : ON : INTERNAL 2
OPTKBR

0.200000
8
8.000000
FILLER
RATIO
SPECTRUM
UNLOCKED 256

DOUBLE
64
COMBINED
1
0
0

0.002000
RATIO

1
0
TRUE
51149
0
LEFT NOT FITTED RIGHT NOT FITTED 0
NONE
NONE
15600
12
4.427000
51148
TRUE
1 0 8 72 0 0 0 0

15798

#HDR
-1
-1
#GR
µM
%T
2.38419e-05
0.0
2.000000
0.002000
12515
8
30.9038
-3.397196
#DATA
2.000000	 -0.229763
2.084000	 0.232830
2.168000	 0.235841
2.252000	 0.447118
2.336000	 0.218099
2.420000	 0.314886
2.504000	 0.066465
2.588000	 0.042513
2.672000	 0.002895
2.756000	 0.185674
2.840000	 0.181477
2.924000	 0.116232
3.008000	 -0.051094
3.092000	 0.027908
3.176000	 -0.022404
3.260000	 0.096983
3.344000	 0.067829
3.428000	 -0.041386
3.512000	 0.036639
3.596000	 0.111058
3.680000	 0.065871
3.764000	 0.127841
3.848000	 0.120309
3.932000	 0.090037
4.016000	 -0.070849
4.100000	 0.248293
4.184000	 0.073382
4.268000	 0.304177
4.352000	 0.520387
4.436000	 1.550390
4.520000	 3.023000
4.604000	 5.610928
4.688000	 8.270709
4.772000	 11.5304
4.856000	 13.9636
4.940000	 16.332
5.024000	 17.944
5.108000	 19.3159
5.192000	 20.2496
5.276000	 21.2488
5.359999	 21.7719
5.444000	 22.4012
5.528000	 22.7185
5.612000	 23.1326
5.696000	 23.262
5.780000	 23.5346
5.864000	 23.7445
5.948000	 23.9126
6.032000	 24.1038
6.116000	 24.2344
6.200000	 24.3673
6.284000	 24.4635
6.368000	 24.5269
6.452000	 24.6655
6.536000	 24.7263
6.620000	 24.9213
6.704000	 24.9236
6.788000	 25.0615
6.872000	 25.0709
6.956000	 25.0205
7.040000	 25.1851
7.124000	 25.2011
7.208000	 25.2879
7.292000	 25.4354
7.376000	 25.548
7.460000	 25.459
7.544000	 25.4246
7.628000	 25.7459
7.712000	 25.8164
7.796000	 25.7559
7.880000	 25.7934
7.964000	 26.0176
8.048000	 25.9589
8.132000	 25.9842
8.216000	 26.055
8.300000	 26.0928
8.384000	 26.3538
8.468000	 26.2195
8.552000	 26.2742
8.635999	 26.3311
8.719999	 26.3824
8.804000	 26.4476
8.888000	 26.6619
8.972000	 26.3274
9.056000	 26.6618
9.140000	 26.4504
9.224000	 26.4059
9.308000	 26.6659
9.391999	 26.7996
9.475999	 26.8289
9.560000	 26.5881
9.644000	 26.6518
9.728000	 26.3471
9.812000	 26.3302
9.896000	 26.7486
9.980000	 26.9944
10.064	26.8408
10.148	26.9168
10.232	26.62
10.316	26.5372
10.4	26.7502
10.484	27.0272
10.568	27.1647
10.652	27.215
10.736	26.8031
10.82	26.6177
10.904	26.5344
10.988	26.7788
11.072	26.9737
11.156	26.842
11.24	26.7993
11.324	26.8356
11.408	26.6659
11.492	26.4466
11.576	26.3507
11.66	26.2459
11.744	26.2822
11.828	26.2099
11.912	26.331
11.996	26.6597
12.08	26.9299
12.164	26.8729
12.248	26.7928
12.332	26.5308
12.416	26.2362
12.5	26.2455
12.584	26.2089
12.668	26.0244
12.752	26.0893
12.836	26.3603
12.92	26.6279
13.004	26.7199
13.088	26.7255
13.172	26.5468
13.256	26.1617
13.34	25.9537
13.424	25.4638
13.508	24.8177
13.592	24.9491
13.676	25.5487
13.76	25.8871
13.844	25.8122
13.928	25.6931
14.012	25.7445
14.096	25.8376
14.18	25.8508
14.264	25.9202
14.348	26.0516
14.432	25.9344
14.516	25.7031
14.6	25.5396
14.684	25.3344
14.768	25.0768
14.852	24.7182
14.936	24.4247
15.02	24.4996
15.104	24.8617
15.188	25.1477
15.272	25.1675
15.356	25.0246
15.44	24.8978
15.524	24.8786
15.608	24.9249
15.692	24.9246
15.776	24.8508
15.86	24.7237
15.944	24.5195
16.028	24.2675
16.112	24.0709
16.196	23.9748
16.28	23.946
16.364	23.9685
16.448	24.0643
16.532	24.1881
16.616	24.2491
16.7	24.2444
16.784	24.2183
16.868	24.1539
16.952	24.0374
17.036	23.9391
17.12	23.9132
17.204	23.8982
17.288	23.8177
17.372	23.686
17.456	23.5635
17.54	23.4638
17.624	23.3413
17.708	23.1609
17.792	22.9579
17.876	22.7994
17.96	22.7008
18.044	22.6461
18.128	22.6737
18.212	22.8293
18.296	23.038
18.38	23.1346
18.464	23.0228
18.548	22.7649
18.632	22.5154
18.716	22.3869
18.8	22.3906
18.884	22.4803
18.968	22.6187
19.052	22.7756
19.136	22.8847
19.22	22.8495
19.304	22.6231
19.388	22.2762
19.472	21.9523
19.556	21.7437
19.64	21.63
19.724	21.5482
19.808	21.4907
19.892	21.4979
19.976	21.5918
20.06	21.7391
20.144	21.8853
20.228	21.9828
20.312	21.9839
20.396	21.8248
20.48	21.4669
20.564	20.9613
20.648	20.4559
20.732	20.1221
20.816	20.0587
20.9	20.2559
20.984	20.6416
21.068	21.1408
21.152	21.6927
21.236	22.2158
21.32	22.5853
21.404	22.665
21.488	22.3903
21.572	21.8261
21.656	21.1537
21.74	20.5802
21.824	20.2367
21.908	20.1259
21.992	20.1532
22.076	20.2058
22.16	20.2235
22.244	20.2082
22.328	20.1844
22.412	20.159
22.496	20.1054
22.58	19.9924
22.664	19.8209
22.748	19.6243
22.832	19.4177
22.916	19.1789
23	18.8581
23.084	18.4084
23.168	17.8709
23.252	17.3975
23.336	17.1884
23.42	17.3807
23.504	17.957
23.588	18.7313
23.672	19.4407
23.756	19.8384
23.84	19.8188
23.924	19.4869
24.008	19.1268
24.092	19.1033
24.176	19.6983
24.26	20.9204
24.344	22.4476
24.428	23.7383
24.512	24.1233
24.596	23.1787
24.68	20.9061
24.764	17.7659
24.848	14.4556
24.932	11.6493
25.016	9.681301
25.1	8.499504
25.184	7.733131
25.268	7.008360
25.352	6.264423
25.436	5.653125
25.52	5.400007
25.604	5.636223
25.688	6.322422
25.772	7.350158
25.856	8.685591
25.94	10.2779
26.024	12.0394
26.108	13.8073
26.192	15.7978
26.276	18.3798
26.36	21.9036
26.444	25.9667
26.528	29.5051
26.612	30.9012
26.696	29.3398
26.78	25.5709
26.864	22.0748
26.948	21.9547
27.028	26.7656