File: Bakgrunnsmateriale/MATLAB/FTIR/ftir_data/LPE454/Mapping_121/LPE454_t113.asc
PE IR       SPECTRUM    SPECTRUM    ASCII       PEDS        1.60
  -1
LP9FFD~1.ASC
17/05/19
23:42:17.00
17/05/19
23:42:43.00
tln
$LPE454_t0113$<tbV0>[7.8,13.0,8.0,0.0,27,1,0]
27.028
64

2002,4.07
MIRTGS : RIGHTBACK : INTERNAL 2
MIR : ON : INTERNAL 2
OPTKBR

0.200000
8
8.000000
FILLER
RATIO
SPECTRUM
UNLOCKED 256

DOUBLE
64
COMBINED
1
0
0

0.002000
RATIO

1
0
TRUE
51149
0
LEFT NOT FITTED RIGHT NOT FITTED 0
NONE
NONE
15600
12
4.427000
51148
TRUE
1 0 8 72 0 0 0 0

15798

#HDR
-1
-1
#GR
µM
%T
2.38419e-05
0.0
2.000000
0.002000
12515
8
42.0909
-15.193
#DATA
2.000000	 0.025653
2.084000	 0.146673
2.168000	 -0.219093
2.252000	 0.365201
2.336000	 0.114577
2.420000	 0.861160
2.504000	 0.280963
2.588000	 0.273917
2.672000	 0.023942
2.756000	 0.059651
2.840000	 0.001917
2.924000	 0.082671
3.008000	 0.035253
3.092000	 -0.112356
3.176000	 0.033185
3.260000	 -0.073302
3.344000	 0.090847
3.428000	 0.054167
3.512000	 0.036433
3.596000	 0.144032
3.680000	 0.149809
3.764000	 0.166872
3.848000	 -0.032312
3.932000	 0.115843
4.016000	 -0.065264
4.100000	 0.285574
4.184000	 0.468294
4.268000	 1.303687
4.352000	 2.804494
4.436000	 5.366207
4.520000	 9.342866
4.604000	 14.3974
4.688000	 19.7472
4.772000	 24.6786
4.856000	 28.9454
4.940000	 32.0791
5.024000	 34.3933
5.108000	 36.4286
5.192000	 37.9004
5.276000	 38.9069
5.359999	 39.6472
5.444000	 40.3937
5.528000	 40.8736
5.612000	 41.3386
5.696000	 41.4336
5.780000	 41.7522
5.864000	 41.7381
5.948000	 41.9022
6.032000	 42.0074
6.116000	 42.0481
6.200000	 41.927
6.284000	 42.0398
6.368000	 42.0728
6.452000	 41.6978
6.536000	 41.7128
6.620000	 41.7734
6.704000	 41.7715
6.788000	 41.7373
6.872000	 41.5217
6.956000	 41.5548
7.040000	 41.4767
7.124000	 41.4537
7.208000	 41.2326
7.292000	 41.279
7.376000	 41.3135
7.460000	 41.2125
7.544000	 41.2148
7.628000	 41.0137
7.712000	 41.0634
7.796000	 41.0697
7.880000	 41.0692
7.964000	 40.8604
8.048000	 40.9371
8.132000	 40.8006
8.216000	 40.6681
8.300000	 40.7567
8.384000	 40.7983
8.468000	 40.6994
8.552000	 40.662
8.635999	 40.4693
8.719999	 40.5213
8.804000	 40.4445
8.888000	 40.3832
8.972000	 40.2972
9.056000	 40.3573
9.140000	 40.411
9.224000	 40.2139
9.308000	 39.9175
9.391999	 39.929
9.475999	 40.0377
9.560000	 40.0211
9.644000	 40.0112
9.728000	 39.9031
9.812000	 39.9276
9.896000	 39.7467
9.980000	 39.7436
10.064	39.6499
10.148	39.5859
10.232	39.6928
10.316	39.6194
10.4	39.3853
10.484	39.4341
10.568	39.4673
10.652	39.5816
10.736	39.4715
10.82	39.3635
10.904	39.2076
10.988	39.0984
11.072	39.1125
11.156	38.9988
11.24	39.0611
11.324	39.1331
11.408	39.3063
11.492	39.1955
11.576	39.1867
11.66	39.1081
11.744	39.0175
11.828	38.6529
11.912	38.3955
11.996	38.1933
12.08	38.3604
12.164	38.3137
12.248	38.1539
12.332	38.4231
12.416	38.644
12.5	38.6127
12.584	38.7367
12.668	38.6494
12.752	38.4764
12.836	38.426
12.92	38.3968
13.004	38.367
13.088	38.0615
13.172	37.7193
13.256	37.6051
13.34	37.747
13.424	37.6903
13.508	37.3915
13.592	37.4067
13.676	37.6466
13.76	37.7752
13.844	37.8301
13.928	37.9878
14.012	38.1273
14.096	37.9514
14.18	37.6787
14.264	37.6509
14.348	37.571
14.432	37.3312
14.516	37.0725
14.6	36.9061
14.684	36.9516
14.768	36.9535
14.852	36.8235
14.936	36.7737
15.02	36.8077
15.104	36.7891
15.188	36.7179
15.272	36.7281
15.356	36.8459
15.44	36.9781
15.524	37.0475
15.608	37.0504
15.692	37.0391
15.776	37.0275
15.86	37.0481
15.944	37.0668
16.028	36.9181
16.112	36.6214
16.196	36.3572
16.28	36.1088
16.364	35.791
16.448	35.4699
16.532	35.2268
16.616	35.1075
16.7	35.1472
16.784	35.2686
16.868	35.3473
16.952	35.3821
17.036	35.4266
17.12	35.4875
17.204	35.5787
17.288	35.6747
17.372	35.6807
17.456	35.6088
17.54	35.6412
17.624	35.8739
17.708	36.1432
17.792	36.2542
17.876	36.2603
17.96	36.3555
18.044	36.5395
18.128	36.552
18.212	36.2435
18.296	35.8072
18.38	35.5136
18.464	35.3617
18.548	35.1341
18.632	34.6886
18.716	34.1045
18.8	33.5923
18.884	33.33
18.968	33.39
19.052	33.6728
19.136	33.9371
19.22	33.951
19.304	33.7062
19.388	33.4268
19.472	33.3357
19.556	33.4467
19.64	33.6521
19.724	33.9981
19.808	34.7054
19.892	35.8491
19.976	37.0731
20.06	37.7573
20.144	37.5571
20.228	36.7154
20.312	35.8212
20.396	35.2833
20.48	35.1029
20.564	35.0496
20.648	34.9548
20.732	34.8074
20.816	34.657
20.9	34.5197
20.984	34.4077
21.068	34.3702
21.152	34.4683
21.236	34.6828
21.32	34.8767
21.404	34.8548
21.488	34.4686
21.572	33.6994
21.656	32.6664
21.74	31.6028
21.824	30.7906
21.908	30.4485
21.992	30.6222
22.076	31.1483
22.16	31.7074
22.244	32.0018
22.328	31.9291
22.412	31.6134
22.496	31.3286
22.58	31.3064
22.664	31.6267
22.748	32.1894
22.832	32.8201
22.916	33.3668
23	33.7558
23.084	33.9722
23.168	34.0071
23.252	33.8322
23.336	33.4219
23.42	32.8155
23.504	32.1368
23.588	31.5731
23.672	31.2963
23.756	31.3867
23.84	31.7841
23.924	32.287
24.008	32.6643
24.092	32.7655
24.176	32.5664
24.26	32.1686
24.344	31.7548
24.428	31.4913
24.512	31.4812
24.596	31.6998
24.68	31.9805
24.764	32.0719
24.848	31.7003
24.932	30.7493
25.016	29.3764
25.1	27.9094
25.184	26.8235
25.268	26.4885
25.352	26.9648
25.436	27.9367
25.52	28.8719
25.604	29.313
25.688	28.9151
25.772	27.6197
25.856	25.6954
25.94	23.6861
26.024	22.2668
26.108	21.968
26.192	22.821
26.276	24.3009
26.36	25.3836
26.444	25.2191
26.528	23.4085
26.612	20.2357
26.696	16.0084
26.78	10.6882
26.864	3.769172
26.948	-5.195046
27.028	-15.193