File: Bakgrunnsmateriale/MATLAB/FTIR/ftir_data/LPE454/Mapping_121/LPE454_e127.asc
PE IR       SPECTRUM    SPECTRUM    ASCII       PEDS        1.60
  -1
LP8F05~1.ASC
17/05/19
23:27:42.00
17/05/19
23:28:08.00
tln
$LPE454_e0127$<ebV0>[-23.3,12.1,10.0,0.0,27,1,0]
27.028
64

2002,4.07
MIRTGS : RIGHTBACK : INTERNAL 2
MIR : ON : INTERNAL 2
OPTKBR

0.200000
8
8.000000
FILLER
SINGLE
SPECTRUM
UNLOCKED 256

DOUBLE

COMBINED
1
0
0

0.002000
BACKG

1
0
TRUE
51149
0
LEFT NOT FITTED RIGHT NOT FITTED 0
NONE
NONE
15600
12
4.427000
51148
TRUE
1 0 8 72 0 0 0 0

15798

#HDR
-1
-1
#GR
µM
EGY
2.38419e-05
0.0
2.000000
0.002000
12515
8
2.428809
0.008010
#DATA
2.000000	 0.770783
2.084000	 0.869711
2.168000	 0.920673
2.252000	 1.012610
2.336000	 1.133009
2.420000	 1.232241
2.504000	 1.393666
2.588000	 1.440476
2.672000	 1.540936
2.756000	 1.564498
2.840000	 1.619893
2.924000	 1.575689
3.008000	 1.675408
3.092000	 1.768666
3.176000	 1.799913
3.260000	 1.915647
3.344000	 2.017476
3.428000	 1.825383
3.512000	 1.993227
3.596000	 2.198871
3.680000	 2.239184
3.764000	 2.202789
3.848000	 2.207775
3.932000	 2.274854
4.016000	 2.308194
4.100000	 2.268313
4.184000	 2.228441
4.268000	 2.238169
4.352000	 2.317072
4.436000	 2.354531
4.520000	 2.342676
4.604000	 2.309732
4.688000	 2.307022
4.772000	 2.309250
4.856000	 2.355613
4.940000	 2.413749
5.024000	 2.425712
5.108000	 2.398918
5.192000	 2.369774
5.276000	 2.340757
5.359999	 2.349276
5.444000	 2.370288
5.528000	 2.395332
5.612000	 2.396047
5.696000	 2.366002
5.780000	 2.290608
5.864000	 2.250608
5.948000	 2.205160
6.032000	 2.156867
6.116000	 2.106216
6.200000	 1.975913
6.284000	 1.985683
6.368000	 1.946759
6.452000	 1.930458
6.536000	 2.065635
6.620000	 2.050229
6.704000	 1.664844
6.788000	 1.945165
6.872000	 1.766960
6.956000	 1.837169
7.040000	 1.829477
7.124000	 1.705304
7.208000	 1.762089
7.292000	 1.789487
7.376000	 1.792228
7.460000	 1.789634
7.544000	 1.823113
7.628000	 1.829682
7.712000	 1.828424
7.796000	 1.825363
7.880000	 1.749972
7.964000	 1.736556
8.048000	 1.808938
8.132000	 1.805194
8.216000	 1.763520
8.300000	 1.723537
8.384000	 1.719562
8.468000	 1.694934
8.552000	 1.652802
8.635999	 1.602726
8.719999	 1.584412
8.804000	 1.556547
8.888000	 1.508364
8.972000	 1.453940
9.056000	 1.416182
9.140000	 1.409045
9.224000	 1.412229
9.308000	 1.414639
9.391999	 1.421522
9.475999	 1.342396
9.560000	 1.309398
9.644000	 1.369061
9.728000	 1.352626
9.812000	 1.344710
9.896000	 1.366671
9.980000	 1.381584
10.064	1.380260
10.148	1.368029
10.232	1.352488
10.316	1.332605
10.4	1.306209
10.484	1.279432
10.568	1.258017
10.652	1.242329
10.736	1.227173
10.82	1.212189
10.904	1.192784
10.988	1.165090
11.072	1.144655
11.156	1.135796
11.24	1.117296
11.324	1.065990
11.408	1.018768
11.492	1.036612
11.576	1.073137
11.66	1.079610
11.744	1.072643
11.828	1.066031
11.912	1.046366
11.996	0.981562
12.08	0.872414
12.164	0.842638
12.248	0.903479
12.332	0.935002
12.416	0.935582
12.5	0.935173
12.584	0.943372
12.668	0.957011
12.752	0.967708
12.836	0.970468
12.92	0.966875
13.004	0.960558
13.088	0.957246
13.172	0.955446
13.256	0.951153
13.34	0.943528
13.424	0.934327
13.508	0.924584
13.592	0.914821
13.676	0.905773
13.76	0.893001
13.844	0.877095
13.928	0.864116
14.012	0.853649
14.096	0.841640
14.18	0.827146
14.264	0.811106
14.348	0.791732
14.432	0.762936
14.516	0.733379
14.6	0.722217
14.684	0.724901
14.768	0.724358
14.852	0.717293
14.936	0.708060
15.02	0.699424
15.104	0.692078
15.188	0.685321
15.272	0.677355
15.356	0.667610
15.44	0.657087
15.524	0.646661
15.608	0.636983
15.692	0.628304
15.776	0.620225
15.86	0.611722
15.944	0.602990
16.028	0.594597
16.112	0.586051
16.196	0.575927
16.28	0.563121
16.364	0.547664
16.448	0.532816
16.532	0.523087
16.616	0.519225
16.7	0.517660
16.784	0.515237
16.868	0.511809
16.952	0.508490
17.036	0.505582
17.12	0.502681
17.204	0.499655
17.288	0.496970
17.372	0.494677
17.456	0.492117
17.54	0.488537
17.624	0.484327
17.708	0.480361
17.792	0.476856
17.876	0.472937
17.96	0.467943
18.044	0.462507
18.128	0.457761
18.212	0.454028
18.296	0.450218
18.38	0.445644
18.464	0.440834
18.548	0.436617
18.632	0.433261
18.716	0.430652
18.8	0.428201
18.884	0.425114
18.968	0.420264
19.052	0.413299
19.136	0.405123
19.22	0.397555
19.304	0.391781
19.388	0.387402
19.472	0.382839
19.556	0.377060
19.64	0.370242
19.724	0.363482
19.808	0.357210
19.892	0.351002
19.976	0.344274
20.06	0.337207
20.144	0.330317
20.228	0.323876
20.312	0.317417
20.396	0.310412
20.48	0.302928
20.564	0.295464
20.648	0.288493
20.732	0.282204
20.816	0.276401
20.9	0.270853
20.984	0.265217
21.068	0.259185
21.152	0.252592
21.236	0.245539
21.32	0.238393
21.404	0.231407
21.488	0.224950
21.572	0.219015
21.656	0.213552
21.74	0.208421
21.824	0.203467
21.908	0.198432
21.992	0.193178
22.076	0.187692
22.16	0.182141
22.244	0.176683
22.328	0.171369
22.412	0.166150
22.496	0.160909
22.58	0.155518
22.664	0.150034
22.748	0.144632
22.832	0.139466
22.916	0.134742
23	0.130380
23.084	0.126311
23.168	0.122432
23.252	0.118600
23.336	0.114591
23.42	0.110248
23.504	0.105428
23.588	0.100150
23.672	0.094608
23.756	0.089067
23.84	0.083803
23.924	0.079102
24.008	0.074976
24.092	0.071415
24.176	0.068192
24.26	0.065197
24.344	0.062271
24.428	0.059326
24.512	0.056354
24.596	0.053299
24.68	0.050221
24.764	0.047201
24.848	0.044273
24.932	0.041497
25.016	0.038940
25.1	0.036645
25.184	0.034590
25.268	0.032680
25.352	0.030884
25.436	0.029117
25.52	0.027297
25.604	0.025418
25.688	0.023492
25.772	0.021580
25.856	0.019685
25.94	0.017834
26.024	0.016071
26.108	0.014430
26.192	0.013071
26.276	0.011975
26.36	0.011222
26.444	0.010747
26.528	0.010557
26.612	0.010446
26.696	0.010315
26.78	0.010026
26.864	0.009525
26.948	0.008808
27.028	0.008010