File: Bakgrunnsmateriale/MATLAB/FTIR/ftir_data/LPE454/Mapping_121/LPE454_t15.asc
PE IR       SPECTRUM    SPECTRUM    ASCII       PEDS        1.60
  -1
LPD798~1.ASC
17/05/19
15:34:31.00
17/05/19
15:34:57.00
tln
$LPE454_t0015$<tbV0>[5.2,-10.4,8.0,0.0,27,1,0]
27.028
64

2002,4.07
MIRTGS : RIGHTBACK : INTERNAL 2
MIR : ON : INTERNAL 2
OPTKBR

0.200000
8
8.000000
FILLER
RATIO
SPECTRUM
UNLOCKED 256

DOUBLE
64
COMBINED
1
0
0

0.002000
RATIO

1
0
TRUE
51149
0
LEFT NOT FITTED RIGHT NOT FITTED 0
NONE
NONE
15600
12
4.427000
51148
TRUE
1 0 8 72 0 0 0 0

15798

#HDR
-1
-1
#GR
µM
%T
2.38419e-05
0.0
2.000000
0.002000
12515
8
77.049
-13.3461
#DATA
2.000000	 0.053191
2.084000	 -0.204345
2.168000	 0.231147
2.252000	 -0.122183
2.336000	 0.065265
2.420000	 0.225618
2.504000	 0.158110
2.588000	 -0.133728
2.672000	 -0.002666
2.756000	 0.167792
2.840000	 -0.063264
2.924000	 0.102348
3.008000	 0.080664
3.092000	 0.018090
3.176000	 0.251873
3.260000	 0.131064
3.344000	 0.008417
3.428000	 0.140313
3.512000	 0.090687
3.596000	 -0.000162
3.680000	 0.132717
3.764000	 0.076000
3.848000	 -0.010278
3.932000	 -0.027503
4.016000	 -0.034026
4.100000	 0.057994
4.184000	 0.055790
4.268000	 0.185328
4.352000	 0.614160
4.436000	 1.719085
4.520000	 3.901897
4.604000	 7.546047
4.688000	 11.9833
4.772000	 16.7026
4.856000	 20.9261
4.940000	 24.5592
5.024000	 27.2445
5.108000	 29.2104
5.192000	 30.6476
5.276000	 31.8494
5.359999	 32.5869
5.444000	 33.2029
5.528000	 33.605
5.612000	 33.8149
5.696000	 34.0345
5.780000	 34.2226
5.864000	 34.3467
5.948000	 34.3745
6.032000	 34.3703
6.116000	 34.5006
6.200000	 34.366
6.284000	 34.3304
6.368000	 34.4246
6.452000	 34.3524
6.536000	 34.3638
6.620000	 34.3615
6.704000	 34.4108
6.788000	 34.1298
6.872000	 34.2248
6.956000	 34.3929
7.040000	 34.1558
7.124000	 34.2047
7.208000	 34.0966
7.292000	 33.7644
7.376000	 33.7529
7.460000	 33.9139
7.544000	 33.9274
7.628000	 33.6701
7.712000	 33.7831
7.796000	 33.6839
7.880000	 33.6593
7.964000	 33.5728
8.048000	 33.5215
8.132000	 33.4714
8.216000	 33.5052
8.300000	 33.4982
8.384000	 33.3259
8.468000	 33.31
8.552000	 33.1311
8.635999	 33.2241
8.719999	 33.2243
8.804000	 32.9704
8.888000	 32.8443
8.972000	 33.0086
9.056000	 33.0108
9.140000	 33.0799
9.224000	 32.6294
9.308000	 32.5884
9.391999	 32.4521
9.475999	 32.6414
9.560000	 32.5847
9.644000	 32.3966
9.728000	 32.1782
9.812000	 32.1167
9.896000	 32.1546
9.980000	 31.988
10.064	32.3068
10.148	32.4373
10.232	32.1314
10.316	31.9133
10.4	31.7785
10.484	31.6561
10.568	31.6433
10.652	31.6738
10.736	31.5659
10.82	31.27
10.904	31.1266
10.988	30.7844
11.072	30.9473
11.156	31.1782
11.24	31.2109
11.324	31.2506
11.408	30.9616
11.492	30.9765
11.576	30.9605
11.66	30.6515
11.744	30.5062
11.828	30.2651
11.912	30.1443
11.996	30.2918
12.08	30.417
12.164	30.4271
12.248	30.4233
12.332	30.3908
12.416	29.9581
12.5	29.6375
12.584	29.4213
12.668	29.3177
12.752	29.233
12.836	29.2109
12.92	29.4176
13.004	29.5296
13.088	29.1499
13.172	29.0222
13.256	29.2243
13.34	29.1432
13.424	28.9145
13.508	28.6894
13.592	28.598
13.676	28.467
13.76	28.4016
13.844	28.6031
13.928	28.7658
14.012	28.8256
14.096	28.7179
14.18	28.5807
14.264	28.4581
14.348	28.2512
14.432	28.1855
14.516	28.0587
14.6	27.6926
14.684	27.45
14.768	27.4568
14.852	27.4936
14.936	27.3141
15.02	27.1442
15.104	27.3159
15.188	27.587
15.272	27.6816
15.356	27.5826
15.44	27.326
15.524	27.0576
15.608	26.9147
15.692	26.9232
15.776	27.015
15.86	26.9775
15.944	26.6825
16.028	26.3584
16.112	26.2584
16.196	26.324
16.28	26.3703
16.364	26.3026
16.448	26.1731
16.532	26.1217
16.616	26.2069
16.7	26.3145
16.784	26.2919
16.868	26.1457
16.952	26.0401
17.036	26.0753
17.12	26.157
17.204	26.1583
17.288	26.0755
17.372	25.9465
17.456	25.7665
17.54	25.5661
17.624	25.4239
17.708	25.326
17.792	25.1507
17.876	24.8579
17.96	24.5887
18.044	24.484
18.128	24.502
18.212	24.4967
18.296	24.4312
18.38	24.4227
18.464	24.5618
18.548	24.7823
18.632	24.9514
18.716	25.0242
18.8	25.0325
18.884	24.9589
18.968	24.7327
19.052	24.3709
19.136	24.0329
19.22	23.8896
19.304	23.9628
19.388	24.1189
19.472	24.1944
19.556	24.1028
19.64	23.8582
19.724	23.5375
19.808	23.2303
19.892	22.9922
19.976	22.8279
20.06	22.7184
20.144	22.6613
20.228	22.6719
20.312	22.7491
20.396	22.8428
20.48	22.8871
20.564	22.8566
20.648	22.8083
20.732	22.8326
20.816	22.9709
20.9	23.1787
20.984	23.3805
21.068	23.5559
21.152	23.7696
21.236	24.1069
21.32	24.5672
21.404	25.0123
21.488	25.2101
21.572	24.9679
21.656	24.2477
21.74	23.2049
21.824	22.126
21.908	21.294
21.992	20.8615
22.076	20.8083
22.16	20.9737
22.244	21.156
22.328	21.218
22.412	21.1294
22.496	20.963
22.58	20.8257
22.664	20.7971
22.748	20.8918
22.832	21.0656
22.916	21.2453
23	21.42
23.084	21.6067
23.168	21.8442
23.252	22.1508
23.336	22.4781
23.42	22.7432
23.504	22.8509
23.588	22.7792
23.672	22.6077
23.756	22.4786
23.84	22.5176
23.924	22.761
24.008	23.1869
24.092	23.7568
24.176	24.3798
24.26	24.8067
24.344	24.6165
24.428	23.412
24.512	20.9846
24.596	17.4936
24.68	13.4115
24.764	9.338772
24.848	5.776972
24.932	2.921564
25.016	0.644177
25.1	-1.148801
25.184	-2.563563
25.268	-3.705362
25.352	-4.713050
25.436	-5.695012
25.52	-6.769735
25.604	-8.079264
25.688	-9.702132
25.772	-11.4632
25.856	-12.8961
25.94	-13.3179
26.024	-12.2199
26.108	-9.676303
26.192	-6.387172
26.276	-3.379806
26.36	-1.774779
26.444	-1.919604
26.528	-2.903541
26.612	-2.687656
26.696	1.467839
26.78	12.0329
26.864	29.8921
26.948	53.4333
27.028	77.049