File: Bakgrunnsmateriale/MATLAB/FTIR/ftir_data/LPE454/Mapping_121/LPE454_e126.asc
PE IR       SPECTRUM    SPECTRUM    ASCII       PEDS        1.60
  -1
LP8B05~1.ASC
17/05/19
21:39:18.00
17/05/19
21:39:45.00
tln
$LPE454_e0126$<ebV0>[-23.3,12.1,10.0,0.0,27,1,0]
27.028
64

2002,4.07
MIRTGS : RIGHTBACK : INTERNAL 2
MIR : ON : INTERNAL 2
OPTKBR

0.200000
8
8.000000
FILLER
SINGLE
SPECTRUM
UNLOCKED 256

DOUBLE

COMBINED
1
0
0

0.002000
BACKG

1
0
TRUE
51149
0
LEFT NOT FITTED RIGHT NOT FITTED 0
NONE
NONE
15600
12
4.427000
51148
TRUE
1 0 8 72 0 0 0 0

15798

#HDR
-1
-1
#GR
µM
EGY
2.38419e-05
0.0
2.000000
0.002000
12515
8
2.426050
0.005217
#DATA
2.000000	 0.768780
2.084000	 0.869280
2.168000	 0.944202
2.252000	 1.013220
2.336000	 1.134854
2.420000	 1.225698
2.504000	 1.392261
2.588000	 1.442851
2.672000	 1.541627
2.756000	 1.564645
2.840000	 1.617838
2.924000	 1.575479
3.008000	 1.676107
3.092000	 1.770309
3.176000	 1.799478
3.260000	 1.915532
3.344000	 2.018472
3.428000	 1.825181
3.512000	 1.997161
3.596000	 2.198435
3.680000	 2.239812
3.764000	 2.203269
3.848000	 2.205777
3.932000	 2.275327
4.016000	 2.306297
4.100000	 2.266456
4.184000	 2.229202
4.268000	 2.238649
4.352000	 2.317377
4.436000	 2.353550
4.520000	 2.342156
4.604000	 2.311629
4.688000	 2.305435
4.772000	 2.307185
4.856000	 2.353682
4.940000	 2.410564
5.024000	 2.423812
5.108000	 2.399671
5.192000	 2.370073
5.276000	 2.338486
5.359999	 2.347099
5.444000	 2.371126
5.528000	 2.397942
5.612000	 2.394210
5.696000	 2.363826
5.780000	 2.290130
5.864000	 2.248599
5.948000	 2.204457
6.032000	 2.156216
6.116000	 2.106893
6.200000	 1.979038
6.284000	 1.989164
6.368000	 1.949458
6.452000	 1.927959
6.536000	 2.067447
6.620000	 2.051511
6.704000	 1.666249
6.788000	 1.945147
6.872000	 1.766164
6.956000	 1.838662
7.040000	 1.828946
7.124000	 1.704233
7.208000	 1.764215
7.292000	 1.787993
7.376000	 1.791962
7.460000	 1.790822
7.544000	 1.822231
7.628000	 1.829607
7.712000	 1.829062
7.796000	 1.826862
7.880000	 1.749252
7.964000	 1.737441
8.048000	 1.811528
8.132000	 1.802235
8.216000	 1.764669
8.300000	 1.725135
8.384000	 1.722251
8.468000	 1.695310
8.552000	 1.655869
8.635999	 1.603541
8.719999	 1.585356
8.804000	 1.556073
8.888000	 1.508959
8.972000	 1.453535
9.056000	 1.416370
9.140000	 1.409548
9.224000	 1.412542
9.308000	 1.412657
9.391999	 1.421137
9.475999	 1.344291
9.560000	 1.311810
9.644000	 1.369026
9.728000	 1.352083
9.812000	 1.346778
9.896000	 1.365621
9.980000	 1.380581
10.064	1.380823
10.148	1.369297
10.232	1.353234
10.316	1.331958
10.4	1.305318
10.484	1.279237
10.568	1.256648
10.652	1.241675
10.736	1.226319
10.82	1.210413
10.904	1.190914
10.988	1.165435
11.072	1.147157
11.156	1.135233
11.24	1.116940
11.324	1.067159
11.408	1.019695
11.492	1.035490
11.576	1.069918
11.66	1.080903
11.744	1.075338
11.828	1.066459
11.912	1.044844
11.996	0.980915
12.08	0.871634
12.164	0.840942
12.248	0.903457
12.332	0.935838
12.416	0.937127
12.5	0.936698
12.584	0.945506
12.668	0.959471
12.752	0.967838
12.836	0.969493
12.92	0.966280
13.004	0.961441
13.088	0.957445
13.172	0.952515
13.256	0.947600
13.34	0.942293
13.424	0.935906
13.508	0.927179
13.592	0.916091
13.676	0.904254
13.76	0.890081
13.844	0.875819
13.928	0.863538
14.012	0.850823
14.096	0.838645
14.18	0.825902
14.264	0.809737
14.348	0.789657
14.432	0.761630
14.516	0.733230
14.6	0.721989
14.684	0.723617
14.768	0.722890
14.852	0.717898
14.936	0.710284
15.02	0.701085
15.104	0.693066
15.188	0.685853
15.272	0.677339
15.356	0.667330
15.44	0.656994
15.524	0.647338
15.608	0.638100
15.692	0.628665
15.776	0.619407
15.86	0.610735
15.944	0.602449
16.028	0.594067
16.112	0.585269
16.196	0.575116
16.28	0.561973
16.364	0.545917
16.448	0.530718
16.532	0.521273
16.616	0.518441
16.7	0.518216
16.784	0.516388
16.868	0.512265
16.952	0.507437
17.036	0.503315
17.12	0.500081
17.204	0.497196
17.288	0.494489
17.372	0.492253
17.456	0.490516
17.54	0.488668
17.624	0.486101
17.708	0.482509
17.792	0.478002
17.876	0.472979
17.96	0.467982
18.044	0.463140
18.128	0.458489
18.212	0.453916
18.296	0.449378
18.38	0.444667
18.464	0.439734
18.548	0.435015
18.632	0.430765
18.716	0.426740
18.8	0.422407
18.884	0.417357
18.968	0.411717
19.052	0.405684
19.136	0.399625
19.22	0.393816
19.304	0.388539
19.388	0.383791
19.472	0.379291
19.556	0.374368
19.64	0.368682
19.724	0.362840
19.808	0.358000
19.892	0.354569
19.976	0.351344
20.06	0.346550
20.144	0.339142
20.228	0.329815
20.312	0.320259
20.396	0.311754
20.48	0.304538
20.564	0.298022
20.648	0.291556
20.732	0.284713
20.816	0.277710
20.9	0.270842
20.984	0.264413
21.068	0.258621
21.152	0.253424
21.236	0.248626
21.32	0.243850
21.404	0.238635
21.488	0.232598
21.572	0.225615
21.656	0.218054
21.74	0.210374
21.824	0.203133
21.908	0.196346
21.992	0.189852
22.076	0.183341
22.16	0.176744
22.244	0.170343
22.328	0.164482
22.412	0.159365
22.496	0.154992
22.58	0.151206
22.664	0.147762
22.748	0.144384
22.832	0.140912
22.916	0.137182
23	0.132937
23.084	0.128358
23.168	0.123342
23.252	0.118135
23.336	0.112912
23.42	0.107644
23.504	0.102454
23.588	0.097299
23.672	0.092214
23.756	0.087352
23.84	0.082769
23.924	0.078532
24.008	0.074618
24.092	0.070860
24.176	0.067213
24.26	0.063589
24.344	0.060095
24.428	0.056775
24.512	0.053808
24.596	0.051069
24.68	0.048526
24.764	0.045996
24.848	0.043330
24.932	0.040532
25.016	0.037615
25.1	0.034716
25.184	0.032002
25.268	0.029573
25.352	0.027554
25.436	0.025932
25.52	0.024640
25.604	0.023680
25.688	0.022906
25.772	0.022183
25.856	0.021456
25.94	0.020634
26.024	0.019570
26.108	0.018244
26.192	0.016651
26.276	0.014867
26.36	0.012912
26.444	0.010998
26.528	0.009145
26.612	0.007589
26.696	0.006375
26.78	0.005606
26.864	0.005245
26.948	0.005300
27.028	0.005602