File: Bakgrunnsmateriale/MATLAB/FTIR/ftir_data/LPE454/Mapping_121/LPE454_t05_cm-1.asc
PE IR       SPECTRUM    SPECTRUM    ASCII       PEDS        1.60
  -1
LP673B~1.ASC
17/05/19
14:47:47.00
17/05/19
14:47:47.00
tln
$LPE454_t0005$<tbV0>[2.6,-13.0,8.0,0.0,27,1,0]
370
64

2002,4.07
MIRTGS : RIGHTBACK : INTERNAL 2
MIR : ON : INTERNAL 2
OPTKBR

0.200000
8
8.000000
FILLER
RATIO
SPECTRUM
UNLOCKED 256

DOUBLE
64
COMBINED
1
0
0

1.000000
RATIO

1
0
TRUE
51149
0
LEFT NOT FITTED RIGHT NOT FITTED 0
NONE
NONE
15600
12
4.427000
51148
TRUE
1 0 8 72 0 0 0 0

15798

#HDR
-1
-1
#GR
CM-1
%T
2.38419e-05
0.0
5000
-1.000000
4631
8
52.383
-50.1082
#DATA
5000	0.102663
4984	0.000119
4968	0.123977
4952	0.339579
4936	0.257444
4920	0.890994
4904	-0.221109
4888	0.712084
4872	-1.284003
4856	0.651574
4840	-0.524187
4824	1.433205
4808	0.293016
4792	0.806856
4776	0.105094
4760	0.094556
4744	-0.081157
4728	-0.182628
4712	-0.360369
4696	0.051927
4680	0.295853
4664	0.092768
4648	0.439691
4632	0.246453
4616	-0.271487
4600	0.165796
4584	-0.081110
4568	0.093817
4552	0.031471
4536	0.121498
4520	0.226712
4504	0.573611
4488	-1.104021
4472	8.312559
4456	2.060985
4440	0.335907
4424	-0.437831
4408	-0.441050
4392	-0.212931
4376	0.010919
4360	-0.052952
4344	-0.043249
4328	0.278162
4312	-0.212955
4296	-0.107598
4280	0.261068
4264	-0.089073
4248	0.352525
4232	-0.128889
4216	0.135445
4200	0.427794
4184	-0.047135
4168	-0.070929
4152	0.214934
4136	0.167417
4120	0.071334
4104	0.136160
4088	0.005269
4072	-0.106096
4056	0.237870
4040	0.241374
4024	-0.057077
4008	0.060772
3992	-0.004196
3976	0.085115
3960	-0.048232
3944	0.069117
3928	0.135827
3912	-0.107192
3896	0.038552
3880	0.127363
3864	0.105118
3848	0.036120
3832	-0.019574
3816	0.065350
3800	0.180792
3784	0.009560
3768	-0.107407
3752	-0.158858
3736	0.112485
3720	-0.041866
3704	0.028944
3688	0.138068
3672	0.182461
3656	-0.019979
3640	-0.017690
3624	0.087189
3608	-0.121116
3592	0.130057
3576	0.044441
3560	0.065684
3544	-0.014400
3528	0.088834
3512	0.019359
3496	-0.092625
3480	0.078940
3464	-0.008630
3448	0.041389
3432	-0.024867
3416	0.079917
3400	-0.030016
3384	-0.053262
3368	-0.061821
3352	0.175046
3336	0.010180
3320	0.090432
3304	0.018787
3288	0.123190
3272	0.069475
3256	0.027608
3240	-0.063300
3224	0.114655
3208	0.080680
3192	-0.050258
3176	0.160789
3160	-0.031280
3144	0.018334
3128	0.329065
3112	-0.021862
3096	-0.021576
3080	-0.074267
3064	-0.028920
3048	0.042557
3032	-0.029325
3016	-0.007581
3000	0.141310
2984	0.129032
2968	-0.060629
2952	-0.021457
2936	0.066614
2920	-0.075888
2904	0.040888
2888	0.036430
2872	-0.009727
2856	0.187540
2840	-0.188183
2824	0.052642
2808	-0.016736
2792	0.041484
2776	0.051379
2760	0.049519
2744	0.027537
2728	0.145649
2712	0.034523
2696	-0.043559
2680	0.096893
2664	0.043272
2648	-0.001978
2632	0.070190
2616	-0.002384
2600	0.033044
2584	-0.110912
2568	-0.003695
2552	-0.079369
2536	0.018548
2520	-0.153064
2504	0.134968
2488	0.119185
2472	-0.020575
2456	0.001168
2440	0.169539
2424	0.122642
2408	0.149917
2392	0.099349
2376	0.046968
2360	0.080204
2344	0.155854
2328	0.289082
2312	0.444436
2296	0.790572
2280	0.932359
2264	1.564550
2248	2.055764
2232	2.987718
2216	3.898787
2200	5.158638
2184	6.565046
2168	8.304524
2152	9.993529
2136	11.7839
2120	13.9074
2104	15.8552
2088	17.7049
2072	19.8929
2056	21.1089
2040	23.0613
2024	24.5487
2008	25.8724
1992	27.0671
1976	28.0818
1960	28.9386
1944	29.8324
1928	30.4703
1912	31.0131
1896	31.5642
1880	32.0061
1864	32.3198
1848	32.6591
1832	32.8622
1816	33.1933
1800	33.372
1784	33.6807
1768	33.8429
1752	33.7251
1736	34.0524
1720	33.9259
1704	33.9908
1688	34.147
1672	34.2066
1656	34.1865
1640	34.1125
1624	34.2048
1608	34.1231
1592	34.0397
1576	34.0856
1560	34.247
1544	34.307
1528	34.0414
1512	34.172
1496	34.183
1480	34.0398
1464	34.0819
1448	33.9293
1432	33.9334
1416	33.8291
1400	33.6821
1384	33.8271
1368	33.569
1352	33.6321
1336	33.6792
1320	33.5644
1304	33.6337
1288	33.6474
1272	33.338
1256	33.4799
1240	33.3567
1224	33.4046
1208	33.3341
1192	33.1906
1176	33.1383
1160	33.0481
1144	33.0194
1128	32.9322
1112	32.6802
1096	33.0596
1080	32.664
1064	32.4811
1048	32.5003
1032	32.4185
1016	32.4932
1000	32.0848
984	 32.2197
968	 32.0365
952	 31.6096
936	 31.643
920	 31.6465
904	 31.3877
888	 31.4042
872	 31.0215
856	 30.9086
840	 30.7506
824	 30.5448
808	 30.256
792	 30.1717
776	 29.9237
760	 29.9213
744	 29.4865
728	 29.6531
712	 28.9291
696	 28.6018
680	 28.5118
664	 28.57
648	 27.6899
632	 26.9297
616	 27.3608
600	 26.6765
584	 26.4258
568	 26.3658
552	 25.6236
536	 26.1039
520	 24.6071
504	 24.3511
488	 26.0953
472	 23.8888
456	 23.0595
440	 21.3507
424	 20.077
408	 31.1589
392	 11.6397
376	 6.401777
370	 -50.1082