File: Bakgrunnsmateriale/MATLAB/FTIR/ftir_data/LPE454/Mapping_121/LPE454_t18.asc
PE IR       SPECTRUM    SPECTRUM    ASCII       PEDS        1.60
  -1
LPE79C~1.ASC
17/05/19
15:48:21.00
17/05/19
15:48:47.00
tln
$LPE454_t0018$<tbV0>[-2.6,-10.4,8.0,0.0,27,1,0]
27.028
64

2002,4.07
MIRTGS : RIGHTBACK : INTERNAL 2
MIR : ON : INTERNAL 2
OPTKBR

0.200000
8
8.000000
FILLER
RATIO
SPECTRUM
UNLOCKED 256

DOUBLE
64
COMBINED
1
0
0

0.002000
RATIO

1
0
TRUE
51149
0
LEFT NOT FITTED RIGHT NOT FITTED 0
NONE
NONE
15600
12
4.427000
51148
TRUE
1 0 8 72 0 0 0 0

15798

#HDR
-1
-1
#GR
µM
%T
2.38419e-05
0.0
2.000000
0.002000
12515
8
42.1293
-8.735975
#DATA
2.000000	 0.446844
2.084000	 0.014151
2.168000	 -0.097316
2.252000	 -0.288373
2.336000	 0.486945
2.420000	 -0.225957
2.504000	 -0.000394
2.588000	 0.088158
2.672000	 -0.004743
2.756000	 0.089597
2.840000	 -0.027382
2.924000	 0.011738
3.008000	 0.054347
3.092000	 0.143625
3.176000	 0.183036
3.260000	 0.017308
3.344000	 0.096633
3.428000	 -0.085715
3.512000	 0.106996
3.596000	 0.000382
3.680000	 0.033818
3.764000	 0.067771
3.848000	 0.163642
3.932000	 0.040686
4.016000	 0.052370
4.100000	 0.219229
4.184000	 0.025315
4.268000	 0.065803
4.352000	 0.392431
4.436000	 1.195849
4.520000	 2.634629
4.604000	 5.096625
4.688000	 8.235574
4.772000	 11.6236
4.856000	 14.5793
4.940000	 17.4166
5.024000	 19.4881
5.108000	 21.0296
5.192000	 22.2598
5.276000	 23.2817
5.359999	 23.8587
5.444000	 24.4381
5.528000	 24.8754
5.612000	 25.2896
5.696000	 25.5841
5.780000	 25.793
5.864000	 25.8061
5.948000	 26.2244
6.032000	 26.452
6.116000	 26.6179
6.200000	 26.6887
6.284000	 26.8738
6.368000	 26.9026
6.452000	 26.8626
6.536000	 27.1559
6.620000	 27.2431
6.704000	 27.1722
6.788000	 27.5048
6.872000	 27.5779
6.956000	 27.3371
7.040000	 27.6928
7.124000	 27.6097
7.208000	 27.5454
7.292000	 28.0532
7.376000	 27.7684
7.460000	 27.7716
7.544000	 27.9051
7.628000	 28.15
7.712000	 28.0031
7.796000	 27.8817
7.880000	 28.0611
7.964000	 28.3817
8.048000	 28.3641
8.132000	 28.1899
8.216000	 28.2194
8.300000	 28.6529
8.384000	 28.666
8.468000	 28.3394
8.552000	 28.3813
8.635999	 28.5104
8.719999	 28.7816
8.804000	 28.5693
8.888000	 28.4385
8.972000	 28.3319
9.056000	 28.7776
9.140000	 28.7015
9.224000	 29.0473
9.308000	 28.8828
9.391999	 28.581
9.475999	 28.4288
9.560000	 28.5371
9.644000	 28.7718
9.728000	 28.7955
9.812000	 28.9935
9.896000	 28.6067
9.980000	 28.4397
10.064	28.4361
10.148	28.6755
10.232	28.8545
10.316	28.8166
10.4	28.3362
10.484	28.1737
10.568	28.2439
10.652	28.2984
10.736	28.4386
10.82	29.0322
10.904	28.9831
10.988	28.4681
11.072	28.2726
11.156	28.1732
11.24	27.9161
11.324	27.7607
11.408	28.2459
11.492	28.6055
11.576	28.6428
11.66	28.4023
11.744	28.1329
11.828	27.9978
11.912	27.8664
11.996	27.7276
12.08	27.5843
12.164	27.6579
12.248	27.7931
12.332	28.1355
12.416	28.1972
12.5	28.0153
12.584	27.7654
12.668	27.4123
12.752	27.0835
12.836	27.0334
12.92	27.0669
13.004	27.3064
13.088	27.5587
13.172	27.7304
13.256	27.9444
13.34	27.7342
13.424	27.3019
13.508	26.8842
13.592	26.4708
13.676	26.237
13.76	26.2542
13.844	26.4224
13.928	26.3803
14.012	26.3146
14.096	26.5139
14.18	26.6852
14.264	26.6512
14.348	26.645
14.432	26.659
14.516	26.6473
14.6	26.6436
14.684	26.5075
14.768	26.1731
14.852	25.7137
14.936	25.282
15.02	25.0724
15.104	25.0714
15.188	25.2285
15.272	25.5215
15.356	25.7634
15.44	25.8457
15.524	25.804
15.608	25.7
15.692	25.6586
15.776	25.6654
15.86	25.5851
15.944	25.3904
16.028	25.1404
16.112	24.929
16.196	24.8715
16.28	24.9743
16.364	25.1341
16.448	25.2622
16.532	25.2369
16.616	25.0116
16.7	24.7669
16.784	24.6681
16.868	24.6647
16.952	24.691
17.036	24.7887
17.12	24.9883
17.204	25.2429
17.288	25.3785
17.372	25.1805
17.456	24.6864
17.54	24.2385
17.624	24.0591
17.708	24.0013
17.792	23.8483
17.876	23.6136
17.96	23.4783
18.044	23.5557
18.128	23.7703
18.212	23.9266
18.296	23.9054
18.38	23.822
18.464	23.8989
18.548	24.1881
18.632	24.4991
18.716	24.6002
18.8	24.4312
18.884	24.1407
18.968	23.9187
19.052	23.8201
19.136	23.7681
19.22	23.678
19.304	23.5397
19.388	23.3727
19.472	23.174
19.556	22.9331
19.64	22.6815
19.724	22.4752
19.808	22.3431
19.892	22.2741
19.976	22.2419
20.06	22.2203
20.144	22.1734
20.228	22.0527
20.312	21.8314
20.396	21.5411
20.48	21.2669
20.564	21.0981
20.648	21.0991
20.732	21.2795
20.816	21.5915
20.9	21.9426
20.984	22.2366
21.068	22.4083
21.152	22.4203
21.236	22.2554
21.32	21.924
21.404	21.4854
21.488	21.0376
21.572	20.6683
21.656	20.3815
21.74	20.0849
21.824	19.6569
21.908	19.0522
21.992	18.3593
22.076	17.7583
22.16	17.4189
22.244	17.3995
22.328	17.6236
22.412	17.9341
22.496	18.172
22.58	18.2563
22.664	18.2021
22.748	18.108
22.832	18.081
22.916	18.1808
23	18.4141
23.084	18.6861
23.168	18.8431
23.252	18.7678
23.336	18.4126
23.42	17.8678
23.504	17.3044
23.588	16.9078
23.672	16.7967
23.756	16.9675
23.84	17.3019
23.924	17.6707
24.008	18.045
24.092	18.5193
24.176	19.2225
24.26	19.9924
24.344	20.3
24.428	19.5027
24.512	17.0833
24.596	13.0305
24.68	7.884215
24.764	2.557627
24.848	-2.134163
24.932	-5.613828
25.016	-7.715985
25.1	-8.616809
25.184	-8.684345
25.268	-8.237659
25.352	-7.381990
25.436	-6.204039
25.52	-4.805188
25.604	-3.238327
25.688	-1.286378
25.772	1.612531
25.856	6.135300
25.94	12.5571
26.024	20.3704
26.108	28.2068
26.192	34.8167
26.276	39.3617
26.36	41.7486
26.444	41.9318
26.528	39.7532
26.612	34.5942
26.696	26.4426
26.78	16.4661
26.864	7.335576
26.948	2.292670
27.028	3.334999