File: Bakgrunnsmateriale/MATLAB/FTIR/ftir_data/LPE454/Mapping_121/LPE454_t21_cm-1.asc
PE IR       SPECTRUM    SPECTRUM    ASCII       PEDS        1.60
  -1
LP5831~1.ASC
17/05/19
16:02:10.00
17/05/19
16:02:10.00
tln
$LPE454_t0021$<tbV0>[-10.4,-10.4,8.0,0.0,27,1,0]
370
64

2002,4.07
MIRTGS : RIGHTBACK : INTERNAL 2
MIR : ON : INTERNAL 2
OPTKBR

0.200000
8
8.000000
FILLER
RATIO
SPECTRUM
UNLOCKED 256

DOUBLE
64
COMBINED
1
0
0

1.000000
RATIO

1
0
TRUE
51149
0
LEFT NOT FITTED RIGHT NOT FITTED 0
NONE
NONE
15600
12
4.427000
51148
TRUE
1 0 8 72 0 0 0 0

15798

#HDR
-1
-1
#GR
CM-1
%T
2.38419e-05
0.0
5000
-1.000000
4631
8
38.931
-3.827452
#DATA
5000	0.611066
4984	0.367808
4968	-0.149846
4952	0.443696
4936	0.006318
4920	0.314068
4904	-0.447726
4888	0.089788
4872	0.520181
4856	0.090265
4840	0.249767
4824	-0.387883
4808	-0.069642
4792	0.015521
4776	0.292253
4760	0.523900
4744	0.043773
4728	0.078630
4712	0.674581
4696	0.096702
4680	-0.052785
4664	0.580787
4648	0.178837
4632	-0.473833
4616	-0.904941
4600	0.816702
4584	-0.538563
4568	-0.277042
4552	0.586223
4536	-1.495838
4520	4.285216
4504	5.909848
4488	1.921749
4472	-0.437569
4456	0.373530
4440	-0.803613
4424	-0.494551
4408	0.144767
4392	0.561213
4376	0.033569
4360	-0.239920
4344	-0.301933
4328	-0.054430
4312	-0.148558
4296	0.041937
4280	-0.062251
4264	0.208425
4248	-0.148606
4232	-0.114369
4216	0.002741
4200	0.116491
4184	0.060534
4168	0.188255
4152	-0.001978
4136	0.011944
4120	0.178217
4104	-0.119876
4088	0.040125
4072	0.179743
4056	-0.098729
4040	0.063419
4024	0.182127
4008	0.119352
3992	0.074553
3976	-0.055909
3960	0.040435
3944	-0.050115
3928	0.096416
3912	-0.230312
3896	0.047731
3880	0.015115
3864	0.003242
3848	0.083088
3832	0.147795
3816	0.216293
3800	-0.170445
3784	0.136661
3768	0.087809
3752	-0.117111
3736	-0.140595
3720	-0.063610
3704	0.033450
3688	0.085258
3672	0.115418
3656	0.071239
3640	0.037312
3624	-0.059866
3608	0.144100
3592	0.083518
3576	-0.035905
3560	0.158500
3544	-0.040936
3528	0.082206
3512	-0.030231
3496	0.116062
3480	-0.071883
3464	-0.014758
3448	0.110435
3432	0.079584
3416	0.054192
3400	0.090265
3384	0.019073
3368	0.064635
3352	0.097203
3336	0.049233
3320	0.085115
3304	0.127530
3288	-0.039529
3272	0.013279
3256	0.050187
3240	0.119066
3224	0.116014
3208	0.015830
3192	0.141787
3176	0.021028
3160	0.179100
3144	0.111126
3128	0.265932
3112	-0.192499
3096	0.024080
3080	-0.003981
3064	0.023078
3048	0.020599
3032	0.002503
3016	0.131916
3000	-0.025463
2984	-0.037050
2968	-0.025463
2952	0.070095
2936	0.106167
2920	-0.196933
2904	0.086545
2888	0.120115
2872	0.169992
2856	-0.105476
2840	0.087141
2824	-0.084018
2808	0.087690
2792	0.044488
2776	0.054645
2760	0.100469
2744	0.034379
2728	0.063800
2712	-0.013256
2696	0.061678
2680	0.018477
2664	-0.015115
2648	0.009536
2632	0.010824
2616	0.092387
2600	-0.012326
2584	0.019955
2568	0.018763
2552	0.025892
2536	0.109338
2520	0.031447
2504	0.003314
2488	-0.003123
2472	-0.141263
2456	0.040888
2440	-0.181531
2424	0.095939
2408	-0.150012
2392	0.082969
2376	0.045609
2360	0.140237
2344	0.049662
2328	0.169038
2312	0.335812
2296	0.431561
2280	0.750756
2264	0.924611
2248	1.148104
2232	1.653504
2216	2.205920
2200	2.920961
2184	3.637552
2168	4.532194
2152	5.497026
2136	6.350374
2120	7.461380
2104	8.437824
2088	9.520006
2072	10.4031
2056	11.1147
2040	12.1019
2024	12.7056
2008	13.4082
1992	14.0173
1976	14.6611
1960	15.1883
1944	15.6693
1928	15.9336
1912	16.17
1896	16.6049
1880	16.8038
1864	17.0417
1848	17.3989
1832	17.656
1816	17.7966
1800	18.0216
1784	18.1709
1768	18.3495
1752	18.3289
1736	18.6024
1720	18.783
1704	18.7551
1688	18.8227
1672	19.0684
1656	19.1064
1640	19.1311
1624	19.2718
1608	19.1663
1592	19.1942
1576	19.4311
1560	19.5261
1544	19.5451
1528	19.527
1512	19.5418
1496	19.7044
1480	19.6467
1464	19.6507
1448	19.8848
1432	19.8431
1416	19.6809
1400	19.8055
1384	19.8358
1368	19.7683
1352	19.8883
1336	20.0279
1320	19.9594
1304	19.9174
1288	19.9029
1272	19.9766
1256	20.0691
1240	19.9241
1224	20.1411
1208	20.13
1192	20.074
1176	19.9579
1160	20.1209
1144	20.181
1128	20.098
1112	20.1598
1096	20.3521
1080	19.9038
1064	19.9793
1048	20.0205
1032	20.1373
1016	20.1367
1000	19.8955
984	 20.0361
968	 20.0077
952	 19.8261
936	 19.8973
920	 19.7246
904	 19.4953
888	 19.4964
872	 19.2337
856	 19.5194
840	 19.3064
824	 19.0928
808	 19.2929
792	 19.0979
776	 18.745
760	 18.4349
744	 18.815
728	 18.0579
712	 17.7836
696	 18.2429
680	 18.0081
664	 17.2757
648	 17.2036
632	 17.1367
616	 16.8151
600	 16.3141
584	 15.6995
568	 15.9077
552	 14.637
536	 14.9001
520	 14.457
504	 13.49
488	 13.3466
472	 13.6916
456	 14.8038
440	 11.7901
424	 9.777975
408	 14.0384
392	 32.2419
376	 7.995462
370	 34.6442