File: Bakgrunnsmateriale/MATLAB/FTIR/ftir_data/LPE454/Mapping_121/LPE454_e123_cm-1.asc
PE IR       SPECTRUM    SPECTRUM    ASCII       PEDS        1.60
  -1
LP061C~1.ASC
17/05/19
16:12:42.00
17/05/19
16:12:42.00
tln
$LPE454_e0123$<ebV0>[-23.3,12.1,10.0,0.0,27,1,0]
370
64

2002,4.07
MIRTGS : RIGHTBACK : INTERNAL 2
MIR : ON : INTERNAL 2
OPTKBR

0.200000
8
8.000000
FILLER
SINGLE
SPECTRUM
UNLOCKED 256

DOUBLE

COMBINED
1
0
0

1.000000
BACKG

1
0
TRUE
51149
0
LEFT NOT FITTED RIGHT NOT FITTED 0
NONE
NONE
15600
12
4.427000
51148
TRUE
1 0 8 72 0 0 0 0

15798

#HDR
-1
-1
#GR
CM-1
EGY
2.38419e-05
0.0
5000
-1.000000
4631
8
2.425861
0.007486
#DATA
5000	0.769782
4984	0.775933
4968	0.783944
4952	0.788927
4936	0.798463
4920	0.803399
4904	0.809550
4888	0.815296
4872	0.829339
4856	0.833892
4840	0.846290
4824	0.854778
4808	0.865578
4792	0.877118
4776	0.882720
4760	0.890302
4744	0.895142
4728	0.902605
4712	0.901246
4696	0.903248
4680	0.898957
4664	0.902843
4648	0.903916
4632	0.911474
4616	0.919389
4600	0.929379
4584	0.931715
4568	0.935864
4552	0.950574
4536	0.966668
4520	0.983810
4504	1.160788
4488	1.002025
4472	0.998520
4456	1.001358
4440	0.996565
4424	1.003813
4408	1.008367
4392	1.014542
4376	1.025247
4360	1.035594
4344	1.054096
4328	1.074457
4312	1.097726
4296	1.114368
4280	1.132225
4264	1.152801
4248	1.168751
4232	1.179742
4216	1.189303
4200	1.196098
4184	1.200532
4168	1.210880
4152	1.219391
4136	1.229500
4120	1.242947
4104	1.257371
4088	1.276326
4072	1.297688
4056	1.318621
4040	1.338124
4024	1.360058
4008	1.376533
3992	1.387381
3976	1.396250
3960	1.404237
3944	1.412320
3928	1.418852
3912	1.425170
3896	1.428151
3880	1.434516
3864	1.442337
3848	1.455903
3832	1.472997
3816	1.487398
3800	1.505136
3784	1.533341
3768	1.545119
3752	1.535439
3736	1.551651
3720	1.567625
3704	1.568388
3688	1.561021
3672	1.558780
3656	1.567316
3640	1.571869
3624	1.570653
3608	1.576685
3592	1.585388
3576	1.596093
3560	1.604294
3544	1.609420
3528	1.614832
3512	1.615619
3496	1.611566
3480	1.604056
3464	1.595401
3448	1.584577
3432	1.573896
3416	1.575088
3400	1.587128
3384	1.597332
3368	1.612114
3352	1.634716
3336	1.658344
3320	1.679563
3304	1.705074
3288	1.727104
3272	1.742243
3256	1.756525
3240	1.765942
3224	1.773405
3208	1.776242
3192	1.778459
3176	1.782655
3160	1.787686
3144	1.800656
3128	1.811242
3112	1.840305
3096	1.864671
3080	1.897692
3064	1.914095
3048	1.944375
3032	1.958727
3016	1.945948
3000	2.007508
2984	2.008724
2968	1.946592
2952	1.906824
2936	1.801419
2920	1.791262
2904	1.931762
2888	1.979351
2872	1.968145
2856	1.909208
2840	2.052927
2824	2.108764
2808	2.146792
2792	2.174901
2776	2.206325
2760	2.225637
2744	2.234888
2728	2.239489
2712	2.234864
2696	2.224922
2680	2.218055
2664	2.206087
2648	2.199101
2632	2.198815
2616	2.201819
2600	2.202320
2584	2.217698
2568	2.242708
2552	2.260613
2536	2.282071
2520	2.293062
2504	2.302074
2488	2.304100
2472	2.298951
2456	2.285623
2440	2.268671
2424	2.254819
2408	2.238845
2392	2.229118
2376	2.218341
2360	2.214145
2344	2.239274
2328	2.259063
2312	2.294468
2296	2.316617
2280	2.336049
2264	2.345609
2248	2.353572
2232	2.351546
2216	2.342772
2200	2.330231
2184	2.318596
2168	2.307868
2152	2.302742
2136	2.304983
2120	2.304410
2104	2.309203
2088	2.306580
2072	2.326679
2056	2.357578
2040	2.389907
2024	2.410840
2008	2.423906
1992	2.425575
1976	2.416372
1960	2.402400
1944	2.383923
1928	2.370119
1912	2.353429
1896	2.340936
1880	2.341651
1864	2.347755
1848	2.356886
1832	2.369856
1816	2.390146
1800	2.393722
1784	2.392864
1768	2.376937
1752	2.349662
1736	2.289628
1720	2.273225
1704	2.236676
1688	2.213335
1672	2.191042
1656	2.140831
1640	2.118825
1624	2.072882
1608	1.942038
1592	1.983499
1576	1.951742
1560	1.894378
1544	1.923847
1528	2.073645
1512	2.058529
1496	1.676487
1480	1.933073
1464	1.907968
1448	1.758408
1432	1.841473
1416	1.815843
1400	1.705908
1384	1.759743
1368	1.789808
1352	1.788401
1336	1.796770
1320	1.826262
1304	1.827883
1288	1.825571
1272	1.779937
1256	1.729607
1240	1.808810
1224	1.790809
1208	1.726937
1192	1.718115
1176	1.680469
1160	1.611351
1144	1.580548
1128	1.523303
1112	1.443600
1096	1.408386
1080	1.410961
1064	1.422142
1048	1.294803
1032	1.363563
1016	1.350259
1000	1.381039
984	 1.367330
968	 1.327490
952	 1.272296
936	 1.236772
920	 1.200270
904	 1.146984
888	 1.106119
872	 1.024413
856	 1.079106
840	 1.049900
824	 0.833988
808	 0.935626
792	 0.947356
776	 0.967478
760	 0.956106
744	 0.931596
728	 0.892019
712	 0.846433
696	 0.781393
680	 0.726222
664	 0.697350
648	 0.656390
632	 0.618124
616	 0.568628
600	 0.518226
584	 0.501132
568	 0.484514
552	 0.461101
536	 0.432848
520	 0.392699
504	 0.355911
488	 0.302743
472	 0.248265
456	 0.192928
440	 0.149321
424	 0.096964
408	 0.057291
392	 0.023388
376	 0.011205
370	 0.007486