File: Bakgrunnsmateriale/MATLAB/FTIR/ftir_data/LPE454/Mapping_121/LPE454_e122_cm-1.asc
PE IR       SPECTRUM    SPECTRUM    ASCII       PEDS        1.60
  -1
LPE454~1.ASC
17/05/19
14:23:25.00
17/05/19
14:23:25.00
tln
$LPE454_e0122$<ebV0>[-23.3,12.1,10.0,0.0,27,1,0]
370
64

2002,4.07
MIRTGS : RIGHTBACK : INTERNAL 2
MIR : ON : INTERNAL 2
OPTKBR

0.200000
8
8.000000
FILLER
SINGLE
SPECTRUM
UNLOCKED 256

DOUBLE

COMBINED
1
0
0

1.000000
BACKG

1
0
TRUE
51149
0
LEFT NOT FITTED RIGHT NOT FITTED 0
NONE
NONE
15600
12
4.427000
51148
TRUE
1 0 8 72 0 0 0 0

15798

#HDR
-1
-1
#GR
CM-1
EGY
2.38419e-05
0.0
5000
-1.000000
4631
8
2.423286
0.004696
#DATA
5000	0.765895
4984	0.773143
4968	0.783491
4952	0.783205
4936	0.797605
4920	0.799512
4904	0.803184
4888	0.793814
4872	0.818753
4856	0.836086
4840	0.827383
4824	0.850892
4808	0.860381
4792	0.867867
4776	0.880932
4760	0.886178
4744	0.890660
4728	0.901293
4712	0.902509
4696	0.904941
4680	0.906825
4664	0.910949
4648	0.913691
4632	0.918507
4616	0.921177
4600	0.934863
4584	0.938963
4568	0.954437
4552	0.970697
4536	0.974941
4520	0.988936
4504	0.993895
4488	0.993013
4472	1.006579
4456	0.977945
4440	1.035761
4424	1.023602
4408	1.015758
4392	1.023864
4376	1.034426
4360	1.043581
4344	1.058006
4328	1.075267
4312	1.096129
4296	1.114964
4280	1.132583
4264	1.144886
4248	1.164197
4232	1.174378
4216	1.184344
4200	1.190614
4184	1.199579
4168	1.209449
4152	1.215386
4136	1.226902
4120	1.241993
4104	1.255822
4088	1.273226
4072	1.294469
4056	1.317334
4040	1.337695
4024	1.354408
4008	1.374530
3992	1.389455
3976	1.398658
3960	1.406788
3944	1.413726
3928	1.416468
3912	1.419734
3896	1.423573
3880	1.432490
3864	1.438570
3848	1.449680
3832	1.467871
3816	1.479768
3800	1.498746
3784	1.527357
3768	1.536583
3752	1.522517
3736	1.540660
3720	1.561927
3704	1.567173
3688	1.551699
3672	1.546621
3656	1.560211
3640	1.570081
3624	1.565241
3608	1.573610
3592	1.581668
3576	1.593399
3560	1.601982
3544	1.608014
3528	1.612043
3512	1.613259
3496	1.610922
3480	1.603913
3464	1.594448
3448	1.582074
3432	1.572227
3416	1.577544
3400	1.583075
3384	1.594614
3368	1.608037
3352	1.632118
3336	1.652121
3320	1.675724
3304	1.699495
3288	1.719546
3272	1.736974
3256	1.753926
3240	1.763629
3224	1.771044
3208	1.774024
3192	1.778125
3176	1.783585
3160	1.786398
3144	1.798367
3128	1.816391
3112	1.835703
3096	1.867604
3080	1.894950
3064	1.915073
3048	1.944017
3032	1.958036
3016	1.944041
3000	2.006506
2984	2.007150
2968	1.944160
2952	1.903438
2936	1.801156
2920	1.788997
2904	1.928830
2888	1.979422
2872	1.965641
2856	1.903915
2840	2.048659
2824	2.104544
2808	2.142047
2792	2.168035
2776	2.202796
2760	2.221798
2744	2.233958
2728	2.235436
2712	2.230954
2696	2.227115
2680	2.217078
2664	2.206897
2648	2.196121
2632	2.195334
2616	2.196764
2600	2.202463
2584	2.216005
2568	2.238821
2552	2.260065
2536	2.278232
2520	2.296376
2504	2.306866
2488	2.299809
2472	2.293634
2456	2.286005
2440	2.271056
2424	2.257061
2408	2.239036
2392	2.228164
2376	2.218961
2360	2.210164
2344	2.235364
2328	2.257323
2312	2.289581
2296	2.316331
2280	2.334642
2264	2.346205
2248	2.352809
2232	2.350854
2216	2.344512
2200	2.330899
2184	2.315926
2168	2.308630
2152	2.305030
2136	2.304029
2120	2.305340
2104	2.308154
2088	2.306056
2072	2.327036
2056	2.357602
2040	2.388048
2024	2.408838
2008	2.421379
1992	2.423214
1976	2.413511
1960	2.400541
1944	2.384042
1928	2.371788
1912	2.353382
1896	2.335929
1880	2.341294
1864	2.346014
1848	2.354693
1832	2.366137
1816	2.385592
1800	2.389216
1784	2.388143
1768	2.367663
1752	2.343106
1736	2.278709
1720	2.267146
1704	2.231884
1688	2.206373
1672	2.185440
1656	2.131581
1640	2.116036
1624	2.069139
1608	1.943278
1592	1.984143
1576	1.945018
1560	1.883077
1544	1.912856
1528	2.067589
1512	2.048707
1496	1.670932
1480	1.929187
1464	1.904225
1448	1.759696
1432	1.840066
1416	1.813793
1400	1.705217
1384	1.757717
1368	1.791715
1352	1.787996
1336	1.796674
1320	1.827287
1304	1.826715
1288	1.829409
1272	1.781511
1256	1.733350
1240	1.811385
1224	1.789522
1208	1.726841
1192	1.719188
1176	1.678705
1160	1.611208
1144	1.579022
1128	1.522707
1112	1.437568
1096	1.407265
1080	1.413226
1064	1.420569
1048	1.292943
1032	1.361870
1016	1.351833
1000	1.383018
984	 1.365184
968	 1.326918
952	 1.276254
936	 1.238489
920	 1.202988
904	 1.148128
888	 1.108002
872	 1.025056
856	 1.081061
840	 1.047635
824	 0.835227
808	 0.935339
792	 0.949048
776	 0.967741
760	 0.951123
744	 0.932788
728	 0.892448
712	 0.848770
696	 0.783824
680	 0.723981
664	 0.699830
648	 0.658249
632	 0.618243
616	 0.569200
600	 0.517797
584	 0.500893
568	 0.486469
552	 0.460410
536	 0.429630
520	 0.395584
504	 0.356912
488	 0.299692
472	 0.246047
456	 0.194978
440	 0.147604
424	 0.097417
408	 0.046682
392	 0.030326
376	 0.010156
370	 0.004696