File: Bakgrunnsmateriale/MATLAB/FTIR/ftir_data/LPE454/Mapping_121/LPE454_e123.asc
PE IR       SPECTRUM    SPECTRUM    ASCII       PEDS        1.60
  -1
LP8FF4~1.ASC
17/05/19
16:12:42.00
17/05/19
16:13:08.00
tln
$LPE454_e0123$<ebV0>[-23.3,12.1,10.0,0.0,27,1,0]
27.028
64

2002,4.07
MIRTGS : RIGHTBACK : INTERNAL 2
MIR : ON : INTERNAL 2
OPTKBR

0.200000
8
8.000000
FILLER
SINGLE
SPECTRUM
UNLOCKED 256

DOUBLE

COMBINED
1
0
0

0.002000
BACKG

1
0
TRUE
51149
0
LEFT NOT FITTED RIGHT NOT FITTED 0
NONE
NONE
15600
12
4.427000
51148
TRUE
1 0 8 72 0 0 0 0

15798

#HDR
-1
-1
#GR
µM
EGY
2.38419e-05
0.0
2.000000
0.002000
12515
8
2.425860
0.007486
#DATA
2.000000	 0.769782
2.084000	 0.871999
2.168000	 0.921954
2.252000	 0.996413
2.336000	 1.131200
2.420000	 1.232325
2.504000	 1.386574
2.588000	 1.442349
2.672000	 1.543543
2.756000	 1.566115
2.840000	 1.614886
2.924000	 1.574069
3.008000	 1.673649
3.092000	 1.768453
3.176000	 1.795640
3.260000	 1.910541
3.344000	 2.012943
3.428000	 1.825779
3.512000	 1.995617
3.596000	 2.195721
3.680000	 2.236895
3.764000	 2.201665
3.848000	 2.202191
3.932000	 2.273565
4.016000	 2.303317
4.100000	 2.267672
4.184000	 2.227537
4.268000	 2.239789
4.352000	 2.314153
4.436000	 2.350753
4.520000	 2.340287
4.604000	 2.310458
4.688000	 2.304484
4.772000	 2.305478
4.856000	 2.351329
4.940000	 2.410651
5.024000	 2.424954
5.108000	 2.400492
5.192000	 2.368436
5.276000	 2.340547
5.359999	 2.345840
5.444000	 2.368135
5.528000	 2.393237
5.612000	 2.391386
5.696000	 2.362065
5.780000	 2.287309
5.864000	 2.244385
5.948000	 2.199785
6.032000	 2.153436
6.116000	 2.105003
6.200000	 1.974924
6.284000	 1.983843
6.368000	 1.947557
6.452000	 1.925599
6.536000	 2.065539
6.620000	 2.050204
6.704000	 1.663609
6.788000	 1.945658
6.872000	 1.764023
6.956000	 1.836328
7.040000	 1.829305
7.124000	 1.701106
7.208000	 1.761014
7.292000	 1.787908
7.376000	 1.789372
7.460000	 1.787110
7.544000	 1.820234
7.628000	 1.827497
7.712000	 1.825689
7.796000	 1.823730
7.880000	 1.748590
7.964000	 1.733419
8.048000	 1.807620
8.132000	 1.802202
8.216000	 1.762380
8.300000	 1.724016
8.384000	 1.719458
8.468000	 1.693201
8.552000	 1.655008
8.635999	 1.604590
8.719999	 1.586200
8.804000	 1.556799
8.888000	 1.509001
8.972000	 1.454972
9.056000	 1.417646
9.140000	 1.408619
9.224000	 1.413997
9.308000	 1.412005
9.391999	 1.422887
9.475999	 1.344153
9.560000	 1.314377
9.644000	 1.371184
9.728000	 1.353718
9.812000	 1.345438
9.896000	 1.364691
9.980000	 1.380417
10.064	1.379708
10.148	1.369721
10.232	1.354450
10.316	1.331944
10.4	1.304162
10.484	1.278222
10.568	1.256537
10.652	1.242426
10.736	1.226102
10.82	1.209239
10.904	1.191727
10.988	1.164187
11.072	1.145270
11.156	1.135267
11.24	1.116138
11.324	1.064769
11.408	1.017874
11.492	1.035410
11.576	1.073236
11.66	1.080393
11.744	1.074372
11.828	1.067162
11.912	1.046839
11.996	0.979156
12.08	0.868862
12.164	0.840060
12.248	0.902376
12.332	0.933947
12.416	0.934441
12.5	0.933265
12.584	0.940774
12.668	0.954455
12.752	0.965887
12.836	0.968993
12.92	0.965852
13.004	0.961346
13.088	0.958443
13.172	0.955211
13.256	0.947123
13.34	0.938511
13.424	0.932712
13.508	0.925984
13.592	0.915264
13.676	0.901437
13.76	0.888656
13.844	0.877340
13.928	0.864484
14.012	0.851312
14.096	0.838801
14.18	0.825089
14.264	0.808674
14.348	0.787452
14.432	0.759169
14.516	0.731651
14.6	0.721054
14.684	0.724989
14.768	0.727192
14.852	0.721861
14.936	0.711938
15.02	0.701698
15.104	0.692900
15.188	0.684308
15.272	0.675421
15.356	0.665839
15.44	0.655411
15.524	0.645832
15.608	0.637708
15.692	0.630048
15.776	0.622418
15.86	0.614646
15.944	0.606052
16.028	0.596507
16.112	0.586169
16.196	0.574560
16.28	0.560672
16.364	0.544873
16.448	0.530317
16.532	0.521458
16.616	0.518690
16.7	0.517808
16.784	0.515533
16.868	0.512423
16.952	0.509142
17.036	0.505341
17.12	0.501275
17.204	0.498018
17.288	0.495630
17.372	0.493405
17.456	0.490686
17.54	0.487325
17.624	0.483746
17.708	0.480427
17.792	0.477094
17.876	0.473383
17.96	0.469279
18.044	0.464972
18.128	0.460424
18.212	0.455531
18.296	0.450555
18.38	0.445918
18.464	0.441731
18.548	0.437860
18.632	0.434024
18.716	0.429865
18.8	0.424980
18.884	0.419161
18.968	0.412519
19.052	0.405574
19.136	0.399042
19.22	0.393366
19.304	0.388393
19.388	0.383745
19.472	0.379199
19.556	0.374491
19.64	0.369534
19.724	0.364175
19.808	0.358361
19.892	0.352023
19.976	0.345107
20.06	0.337648
20.144	0.330000
20.228	0.322655
20.312	0.315959
20.396	0.309821
20.48	0.303648
20.564	0.296970
20.648	0.289671
20.732	0.282124
20.816	0.274836
20.9	0.268073
20.984	0.261860
21.068	0.256015
21.152	0.250458
21.236	0.245166
21.32	0.239902
21.404	0.234483
21.488	0.228683
21.572	0.222409
21.656	0.215682
21.74	0.208710
21.824	0.201660
21.908	0.194690
21.992	0.188108
22.076	0.182112
22.16	0.176864
22.244	0.172304
22.328	0.168200
22.412	0.164283
22.496	0.160322
22.58	0.156349
22.664	0.152338
22.748	0.148330
22.832	0.144292
22.916	0.140111
23	0.135667
23.084	0.130799
23.168	0.125510
23.252	0.119900
23.336	0.114020
23.42	0.108066
23.504	0.102271
23.588	0.096770
23.672	0.091787
23.756	0.087374
23.84	0.083536
23.924	0.080110
24.008	0.076945
24.092	0.073878
24.176	0.070783
24.26	0.067598
24.344	0.064305
24.428	0.060871
24.512	0.057193
24.596	0.053283
24.68	0.049118
24.764	0.044802
24.848	0.040526
24.932	0.036582
25.016	0.033162
25.1	0.030450
25.184	0.028358
25.268	0.026781
25.352	0.025551
25.436	0.024397
25.52	0.023256
25.604	0.022119
25.688	0.021026
25.772	0.019993
25.856	0.019072
25.94	0.018252
26.024	0.017456
26.108	0.016611
26.192	0.015727
26.276	0.014764
26.36	0.013779
26.444	0.012810
26.528	0.011867
26.612	0.011054
26.696	0.010304
26.78	0.009576
26.864	0.008873
26.948	0.008159
27.028	0.007486