File: Bakgrunnsmateriale/MATLAB/FTIR/ftir_data/LPE454/Mapping_121/LPE454_t10_cm-1.asc
PE IR       SPECTRUM    SPECTRUM    ASCII       PEDS        1.60
  -1
LPD7B5~1.ASC
17/05/19
15:10:51.00
17/05/19
15:10:51.00
tln
$LPE454_t0010$<tbV0>[-10.4,-13.0,8.0,0.0,27,1,0]
370
64

2002,4.07
MIRTGS : RIGHTBACK : INTERNAL 2
MIR : ON : INTERNAL 2
OPTKBR

0.200000
8
8.000000
FILLER
RATIO
SPECTRUM
UNLOCKED 256

DOUBLE
64
COMBINED
1
0
0

1.000000
RATIO

1
0
TRUE
51149
0
LEFT NOT FITTED RIGHT NOT FITTED 0
NONE
NONE
15600
12
4.427000
51148
TRUE
1 0 8 72 0 0 0 0

15798

#HDR
-1
-1
#GR
CM-1
%T
2.38419e-05
0.0
5000
-1.000000
4631
8
127.368
-1.666545
#DATA
5000	0.695610
4984	0.003719
4968	0.162291
4952	0.327992
4936	-0.536966
4920	0.183963
4904	-0.262761
4888	-0.090694
4872	-0.761508
4856	-0.433588
4840	0.327587
4824	0.833773
4808	1.598238
4792	1.449275
4776	0.432491
4760	0.107789
4744	-0.759339
4728	0.374031
4712	-0.064063
4696	-0.409269
4680	0.131511
4664	0.835227
4648	0.405502
4632	0.433230
4616	-0.143647
4600	0.377774
4584	0.512290
4568	-0.275993
4552	-0.362229
4536	-0.290441
4520	0.217032
4504	-0.907826
4488	0.536394
4472	13.4376
4456	2.521705
4440	-0.398063
4424	-0.680589
4408	-1.001214
4392	-0.589418
4376	-0.590252
4360	-0.452685
4344	0.430011
4328	0.407385
4312	0.291252
4296	0.276994
4280	0.357556
4264	0.120830
4248	-0.113105
4232	-0.369310
4216	0.322246
4200	0.024223
4184	0.010037
4168	-0.085711
4152	-0.222802
4136	0.210976
4120	0.287699
4104	0.267267
4088	-0.043821
4072	0.074553
4056	0.105404
4040	-0.121879
4024	0.091147
4008	-0.155878
3992	0.100231
3976	0.075769
3960	0.251698
3944	0.245594
3928	0.035452
3912	0.087714
3896	-0.108289
3880	0.121641
3864	0.213170
3848	-0.233244
3832	0.215387
3816	0.033855
3800	-0.043320
3784	-0.029158
3768	0.144410
3752	0.190067
3736	0.085234
3720	0.054693
3704	0.099444
3688	0.016760
3672	-0.006699
3656	0.116324
3640	0.093483
3624	-0.023102
3608	0.021982
3592	0.050640
3576	0.094389
3560	0.170469
3544	0.147080
3528	0.079298
3512	0.100541
3496	0.027036
3480	-0.072002
3464	0.308084
3448	0.091695
3432	0.006937
3416	0.096011
3400	0.030875
3384	0.189805
3368	-0.021600
3352	-0.003695
3336	0.086665
3320	0.004410
3304	-0.030159
3288	-0.047779
3272	-0.029993
3256	0.006389
3240	0.135231
3224	-0.019550
3208	0.237917
3192	-0.034546
3176	0.054216
3160	0.024509
3144	-0.166916
3128	0.138902
3112	0.294804
3096	0.132179
3080	0.138854
3064	0.089383
3048	0.120329
3032	0.176191
3016	0.057888
3000	0.011396
2984	0.021004
2968	0.088334
2952	-0.050997
2936	0.046133
2920	-0.060606
2904	0.129914
2888	-0.045824
2872	0.086450
2856	0.085020
2840	0.103855
2824	0.091028
2808	-0.089335
2792	-0.000643
2776	0.127220
2760	0.007605
2744	0.033950
2728	-0.070166
2712	-0.102686
2696	0.069522
2680	0.112247
2664	0.043225
2648	0.062823
2632	-0.005054
2616	0.050377
2600	0.029563
2584	-0.052881
2568	0.052428
2552	0.121092
2536	-0.004768
2520	0.205230
2504	0.017619
2488	-0.009274
2472	0.010514
2456	0.048255
2440	-0.133848
2424	0.124382
2408	-0.066947
2392	0.082612
2376	-0.041270
2360	0.159192
2344	0.138425
2328	0.153613
2312	0.200152
2296	0.297355
2280	0.360417
2264	0.659990
2248	0.904583
2232	1.155066
2216	1.697397
2200	2.262639
2184	3.122520
2168	3.904747
2152	4.790210
2136	5.790495
2120	6.724071
2104	7.680249
2088	8.722329
2072	9.779024
2056	10.7723
2040	11.4816
2024	12.0861
2008	12.8921
1992	13.6735
1976	14.1374
1960	14.6657
1944	15.0805
1928	15.6112
1912	15.8713
1896	16.2616
1880	16.5283
1864	16.7973
1848	16.8848
1832	17.1073
1816	17.3682
1800	17.5423
1784	17.7144
1768	17.9227
1752	17.925
1736	18.1297
1720	18.0806
1704	18.2788
1688	18.4064
1672	18.42
1656	18.598
1640	18.6685
1624	18.6194
1608	18.8142
1592	18.8572
1576	18.8731
1560	19.031
1544	18.9982
1528	19.0903
1512	19.2071
1496	19.0508
1480	19.2584
1464	19.2259
1448	18.9279
1432	19.3937
1416	19.3394
1400	19.1568
1384	19.2331
1368	19.228
1352	19.4553
1336	19.6275
1320	19.9458
1304	20.3115
1288	20.0379
1272	20.2808
1256	20.5468
1240	20.6869
1224	20.5887
1208	20.9357
1192	21.0528
1176	21.0761
1160	21.0832
1144	21.3532
1128	21.51
1112	21.4121
1096	21.8246
1080	21.7619
1064	21.5128
1048	21.8425
1032	22.0671
1016	21.8016
1000	21.7609
984	 22.0515
968	 22.4931
952	 22.0173
936	 22.2595
920	 22.5263
904	 22.55
888	 22.1642
872	 22.3976
856	 22.5109
840	 22.3763
824	 22.3173
808	 22.5267
792	 22.41
776	 22.3835
760	 22.8384
744	 21.9978
728	 21.9828
712	 22.003
696	 22.301
680	 22.455
664	 21.1304
648	 21.9262
632	 21.908
616	 20.946
600	 21.3319
584	 21.7247
568	 20.7501
552	 20.8009
536	 20.6574
520	 20.942
504	 20.0617
488	 19.2965
472	 21.2465
456	 19.876
440	 19.9506
424	 19.3438
408	 9.124708
392	 10.3403
376	 101.823
370	 119.297