File: Bakgrunnsmateriale/MATLAB/FTIR/ftir_data/LPE454/Mapping_121/LPE454_t117.asc
PE IR       SPECTRUM    SPECTRUM    ASCII       PEDS        1.60
  -1
LP9F0E~1.ASC
17/05/20
00:15:12.00
17/05/20
00:15:38.00
tln
$LPE454_t0117$<tbV0>[-2.6,13.0,8.0,0.0,27,1,0]
27.028
64

2002,4.07
MIRTGS : RIGHTBACK : INTERNAL 2
MIR : ON : INTERNAL 2
OPTKBR

0.200000
8
8.000000
FILLER
RATIO
SPECTRUM
UNLOCKED 256

DOUBLE
64
COMBINED
1
0
0

0.002000
RATIO

1
0
TRUE
51149
0
LEFT NOT FITTED RIGHT NOT FITTED 0
NONE
NONE
15600
12
4.427000
51148
TRUE
1 0 8 72 0 0 0 0

15798

#HDR
-1
-1
#GR
µM
%T
2.38419e-05
0.0
2.000000
0.002000
12515
8
45.1961
-3.195400
#DATA
2.000000	 0.232458
2.084000	 0.115554
2.168000	 -0.286119
2.252000	 0.547155
2.336000	 0.223011
2.420000	 0.397633
2.504000	 0.087913
2.588000	 0.151813
2.672000	 0.115567
2.756000	 0.024033
2.840000	 0.046833
2.924000	 0.186807
3.008000	 0.040135
3.092000	 0.162899
3.176000	 0.016436
3.260000	 0.087544
3.344000	 0.067570
3.428000	 0.011961
3.512000	 0.046417
3.596000	 0.037003
3.680000	 0.085570
3.764000	 0.097152
3.848000	 0.014104
3.932000	 0.053886
4.016000	 0.014221
4.100000	 -0.034770
4.184000	 0.059947
4.268000	 0.418057
4.352000	 0.872284
4.436000	 2.265432
4.520000	 4.521748
4.604000	 7.844230
4.688000	 11.7813
4.772000	 15.497
4.856000	 19.0557
4.940000	 21.5655
5.024000	 23.7659
5.108000	 25.3967
5.192000	 26.6855
5.276000	 27.6599
5.359999	 28.3946
5.444000	 29.119
5.528000	 29.5061
5.612000	 29.9582
5.696000	 30.1141
5.780000	 30.67
5.864000	 30.5551
5.948000	 30.9917
6.032000	 31.1049
6.116000	 31.1604
6.200000	 31.5473
6.284000	 31.2541
6.368000	 31.5291
6.452000	 31.5893
6.536000	 31.3862
6.620000	 31.5562
6.704000	 31.5716
6.788000	 31.3747
6.872000	 31.5286
6.956000	 31.6534
7.040000	 31.5992
7.124000	 31.276
7.208000	 31.655
7.292000	 31.7096
7.376000	 31.3956
7.460000	 31.3445
7.544000	 31.6761
7.628000	 31.6775
7.712000	 31.4439
7.796000	 31.1624
7.880000	 31.348
7.964000	 31.6178
8.048000	 31.4796
8.132000	 31.0898
8.216000	 31.1895
8.300000	 31.296
8.384000	 31.417
8.468000	 31.3152
8.552000	 31.1348
8.635999	 30.9359
8.719999	 31.1048
8.804000	 31.224
8.888000	 31.2081
8.972000	 30.8891
9.056000	 30.8425
9.140000	 30.7771
9.224000	 30.8967
9.308000	 31.0998
9.391999	 31.1957
9.475999	 30.9246
9.560000	 30.499
9.644000	 30.3856
9.728000	 30.5142
9.812000	 30.7773
9.896000	 31.0688
9.980000	 30.903
10.064	30.7923
10.148	30.3794
10.232	30.2413
10.316	30.2652
10.4	30.3204
10.484	30.5646
10.568	30.7159
10.652	30.5834
10.736	30.2598
10.82	29.9805
10.904	29.7896
10.988	29.7828
11.072	30.0665
11.156	30.2939
11.24	30.2893
11.324	30.3269
11.408	30.0912
11.492	29.8539
11.576	29.684
11.66	29.5683
11.744	29.3726
11.828	29.3951
11.912	29.6787
11.996	29.5726
12.08	29.6411
12.164	29.6929
12.248	29.5352
12.332	29.4959
12.416	29.3593
12.5	29.0626
12.584	28.8251
12.668	28.7785
12.752	28.9275
12.836	29.1828
12.92	29.3612
13.004	29.3737
13.088	29.3405
13.172	29.2286
13.256	29.0474
13.34	29.0224
13.424	28.855
13.508	28.5046
13.592	28.2497
13.676	28.0721
13.76	28.1455
13.844	28.4388
13.928	28.5612
14.012	28.4518
14.096	28.3943
14.18	28.3997
14.264	28.3208
14.348	28.1193
14.432	27.9301
14.516	27.9207
14.6	28.0717
14.684	28.0825
14.768	27.8221
14.852	27.6252
14.936	27.6347
15.02	27.6252
15.104	27.5772
15.188	27.6157
15.272	27.6809
15.356	27.6911
15.44	27.7002
15.524	27.8068
15.608	27.9831
15.692	28.083
15.776	28.0262
15.86	27.8028
15.944	27.4375
16.028	27.0496
16.112	26.7667
16.196	26.6262
16.28	26.6415
16.364	26.7483
16.448	26.7273
16.532	26.4853
16.616	26.2562
16.7	26.2143
16.784	26.2139
16.868	26.1583
16.952	26.1771
17.036	26.3354
17.12	26.5435
17.204	26.7459
17.288	26.9204
17.372	27.0128
17.456	27.0151
17.54	26.982
17.624	26.9499
17.708	26.8954
17.792	26.7668
17.876	26.5392
17.96	26.2342
18.044	25.8972
18.128	25.5674
18.212	25.2853
18.296	25.0943
18.38	24.9986
18.464	24.9642
18.548	24.9581
18.632	24.9545
18.716	24.9278
18.8	24.8931
18.884	24.9246
18.968	25.1287
19.052	25.5369
19.136	26.0273
19.22	26.368
19.304	26.3846
19.388	26.0932
19.472	25.6685
19.556	25.3129
19.64	25.1701
19.724	25.3471
19.808	25.8743
19.892	26.5906
19.976	27.1279
20.06	27.1223
20.144	26.5118
20.228	25.5913
20.312	24.7676
20.396	24.2439
20.48	23.9352
20.564	23.6313
20.648	23.1914
20.732	22.6288
20.816	22.0894
20.9	21.7818
20.984	21.8876
21.068	22.4663
21.152	23.3927
21.236	24.3684
21.32	25.0393
21.404	25.1783
21.488	24.8254
21.572	24.2525
21.656	23.7952
21.74	23.6607
21.824	23.838
21.908	24.1608
21.992	24.4616
22.076	24.668
22.16	24.8015
22.244	24.9087
22.328	24.9991
22.412	25.0632
22.496	25.1139
22.58	25.1925
22.664	25.3208
22.748	25.4259
22.832	25.3317
22.916	24.8199
23	23.8007
23.084	22.3907
23.168	20.9049
23.252	19.6911
23.336	19.0047
23.42	18.8606
23.504	19.0836
23.588	19.3682
23.672	19.428
23.756	19.1349
23.84	18.5576
23.924	17.9398
24.008	17.5428
24.092	17.4888
24.176	17.7034
24.26	17.9191
24.344	17.8096
24.428	17.1942
24.512	16.1046
24.596	14.7547
24.68	13.5151
24.764	12.8198
24.848	12.9567
24.932	14.0371
25.016	15.9652
25.1	18.5195
25.184	21.4243
25.268	24.4301
25.352	27.3402
25.436	29.9515
25.52	32.0548
25.604	33.4837
25.688	34.2655
25.772	34.7152
25.856	35.3313
25.94	36.5894
26.024	38.6786
26.108	41.3039
26.192	43.7653
26.276	45.13
26.36	44.5033
26.444	41.4046
26.528	36.0267
26.612	29.195
26.696	22.2322
26.78	16.5978
26.864	13.4678
26.948	13.3709
27.028	15.8589