File: Bakgrunnsmateriale/MATLAB/FTIR/ftir_data/LPE454/Mapping_121/LPE454_t19_cm-1.asc
PE IR       SPECTRUM    SPECTRUM    ASCII       PEDS        1.60
  -1
LPE73D~1.ASC
17/05/19
15:52:57.00
17/05/19
15:52:57.00
tln
$LPE454_t0019$<tbV0>[-5.2,-10.4,8.0,0.0,27,1,0]
370
64

2002,4.07
MIRTGS : RIGHTBACK : INTERNAL 2
MIR : ON : INTERNAL 2
OPTKBR

0.200000
8
8.000000
FILLER
RATIO
SPECTRUM
UNLOCKED 256

DOUBLE
64
COMBINED
1
0
0

1.000000
RATIO

1
0
TRUE
51149
0
LEFT NOT FITTED RIGHT NOT FITTED 0
NONE
NONE
15600
12
4.427000
51148
TRUE
1 0 8 72 0 0 0 0

15798

#HDR
-1
-1
#GR
CM-1
%T
2.38419e-05
0.0
5000
-1.000000
4631
8
32.4759
-15.0114
#DATA
5000	0.212788
4984	-0.099706
4968	0.534939
4952	0.326800
4936	-0.090074
4920	-0.156688
4904	0.061440
4888	0.396180
4872	0.576233
4856	0.040197
4840	0.257229
4824	0.169062
4808	-0.061154
4792	0.422763
4776	0.341105
4760	0.379276
4744	0.342845
4728	0.121760
4712	0.279521
4696	0.032424
4680	0.565290
4664	0.799536
4648	0.659990
4632	-0.734448
4616	0.400400
4600	1.623988
4584	0.640678
4568	-0.604796
4552	0.348281
4536	-0.389957
4520	-0.399041
4504	5.550193
4488	-3.404498
4472	-0.859332
4456	-0.473880
4440	-0.003623
4424	0.565695
4408	0.478816
4392	0.686764
4376	0.460028
4360	0.934863
4344	0.314116
4328	0.311303
4312	0.278854
4296	0.282144
4280	-0.116968
4264	-0.100588
4248	-0.353956
4232	0.225591
4216	0.214314
4200	0.399470
4184	-0.999426
4168	0.659751
4152	0.092387
4136	0.211095
4120	-0.034952
4104	0.359630
4088	-0.000119
4072	0.377583
4056	0.325250
4040	0.078296
4024	-0.056481
4008	0.150513
3992	-0.126171
3976	0.071072
3960	0.081229
3944	-0.024175
3928	-0.166511
3912	-0.107622
3896	0.165414
3880	0.047659
3864	0.066542
3848	-0.082182
3832	-0.032377
3816	0.243544
3800	0.084996
3784	0.026774
3768	0.004601
3752	-0.017213
3736	-0.067496
3720	-0.032782
3704	0.184106
3688	0.083899
3672	0.020813
3656	0.117588
3640	0.062799
3624	0.100660
3608	0.227141
3592	-0.031733
3576	-0.023412
3560	0.120210
3544	0.260424
3528	0.109338
3512	0.154232
3496	0.000739
3480	-0.042915
3464	0.123405
3448	0.077867
3432	-0.084328
3416	0.037479
3400	0.121855
3384	0.207066
3368	-0.108885
3352	0.013756
3336	-0.148320
3320	-0.023937
3304	-0.134062
3288	0.036597
3272	0.100517
3256	0.060486
3240	0.024485
3224	-0.031590
3208	-0.034260
3192	0.071740
3176	-0.111269
3160	-0.025987
3144	0.147199
3128	0.269579
3112	0.236463
3096	-0.142979
3080	0.016260
3064	0.094342
3048	-0.008940
3032	0.043153
3016	-0.058746
3000	-0.066208
2984	-0.018811
2968	-0.005865
2952	0.041842
2936	0.271081
2920	-0.037240
2904	-0.004053
2888	-0.011134
2872	0.041532
2856	-0.010657
2840	-0.063538
2824	0.118136
2808	0.061273
2792	0.056171
2776	0.010180
2760	-0.017929
2744	0.037074
2728	-0.062751
2712	0.087165
2696	-0.008654
2680	-0.039982
2664	0.065946
2648	0.071001
2632	0.084447
2616	0.129389
2600	-0.026440
2584	-0.027632
2568	-0.072097
2552	0.066661
2536	0.102901
2520	-0.056052
2504	0.199031
2488	-0.200152
2472	-0.015211
2456	0.050783
2440	0.005578
2424	-0.077986
2408	-0.182628
2392	0.024318
2376	0.095987
2360	0.168848
2344	0.210642
2328	0.323247
2312	0.480079
2296	0.561261
2280	0.969600
2264	1.317119
2248	2.014970
2232	2.615642
2216	3.438305
2200	4.497766
2184	5.840754
2168	7.140636
2152	8.759760
2136	10.4328
2120	12.0888
2104	13.8023
2088	15.4647
2072	17.0051
2056	18.7162
2040	20.1866
2024	21.3601
2008	22.7273
1992	23.7318
1976	24.5291
1960	25.5203
1944	26.3747
1928	26.6486
1912	27.4756
1896	28.1491
1880	28.3196
1864	28.533
1848	29.2116
1832	29.5124
1816	29.4044
1800	29.8681
1784	30.371
1768	30.2215
1752	30.2372
1736	30.8782
1720	30.8714
1704	30.2992
1688	30.7976
1672	31.2659
1656	30.9137
1640	30.7727
1624	31.4357
1608	31.2886
1592	30.9458
1576	31.2457
1560	31.7944
1544	31.4187
1528	30.9656
1512	31.6311
1496	31.9178
1480	31.2634
1464	31.2834
1448	31.7317
1432	31.6864
1416	31.2452
1400	31.6225
1384	32.234
1368	31.517
1352	31.2791
1336	32.0559
1320	32.0647
1304	31.4419
1288	31.4583
1272	32.2079
1256	31.6829
1240	31.5433
1224	31.8971
1208	32.4043
1192	31.7107
1176	31.4944
1160	32.0587
1144	32.2792
1128	31.4952
1112	31.6422
1096	32.2903
1080	32.0322
1064	31.2021
1048	31.6655
1032	32.2656
1016	31.4776
1000	31.1578
984	 31.7397
968	 32.0108
952	 30.8878
936	 30.8693
920	 31.6175
904	 31.3148
888	 30.3946
872	 30.6787
856	 31.3503
840	 30.4703
824	 29.8312
808	 30.191
792	 30.6727
776	 29.7191
760	 29.2562
744	 29.8357
728	 29.3724
712	 28.2068
696	 28.2575
680	 28.7905
664	 28.5137
648	 27.1578
632	 27.2925
616	 27.7146
600	 26.7312
584	 25.8997
568	 26.5088
552	 25.8392
536	 25.1161
520	 25.0862
504	 24.9217
488	 24.5966
472	 24.4313
456	 24.188
440	 22.9559
424	 18.9389
408	 18.2932
392	 22.2586
376	 3.624057
370	 10.2085