File: Bakgrunnsmateriale/MATLAB/FTIR/ftir_data/LPE454/Mapping_121/LPE454_t04.asc
PE IR       SPECTRUM    SPECTRUM    ASCII       PEDS        1.60
  -1
LPD39C~1.ASC
17/05/19
14:43:11.00
17/05/19
14:43:37.00
tln
$LPE454_t0004$<tbV0>[5.2,-13.0,8.0,0.0,27,1,0]
27.028
64

2002,4.07
MIRTGS : RIGHTBACK : INTERNAL 2
MIR : ON : INTERNAL 2
OPTKBR

0.200000
8
8.000000
FILLER
RATIO
SPECTRUM
UNLOCKED 256

DOUBLE
64
COMBINED
1
0
0

0.002000
RATIO

1
0
TRUE
51149
0
LEFT NOT FITTED RIGHT NOT FITTED 0
NONE
NONE
15600
12
4.427000
51148
TRUE
1 0 8 72 0 0 0 0

15798

#HDR
-1
-1
#GR
µM
%T
2.38419e-05
0.0
2.000000
0.002000
12515
8
89.6533
-6.327318
#DATA
2.000000	 0.100278
2.084000	 1.212648
2.168000	 0.310396
2.252000	 1.282555
2.336000	 0.241678
2.420000	 0.165778
2.504000	 0.041542
2.588000	 0.053388
2.672000	 -0.072884
2.756000	 0.020182
2.840000	 0.030203
2.924000	 -0.126226
3.008000	 0.287676
3.092000	 -0.056805
3.176000	 0.234338
3.260000	 -0.084902
3.344000	 0.051822
3.428000	 -0.068947
3.512000	 -0.252922
3.596000	 0.011281
3.680000	 -0.076170
3.764000	 -0.060240
3.848000	 0.102647
3.932000	 0.066587
4.016000	 -0.078758
4.100000	 0.157930
4.184000	 0.039192
4.268000	 0.306008
4.352000	 1.004863
4.436000	 2.296743
4.520000	 4.989394
4.604000	 8.864266
4.688000	 13.8083
4.772000	 18.2787
4.856000	 22.8008
4.940000	 26.2401
5.024000	 28.7646
5.108000	 30.8533
5.192000	 32.2022
5.276000	 33.1739
5.359999	 33.9372
5.444000	 34.4883
5.528000	 34.9821
5.612000	 35.2606
5.696000	 35.1672
5.780000	 35.4986
5.864000	 35.615
5.948000	 36.0746
6.032000	 35.5969
6.116000	 35.7673
6.200000	 36.0404
6.284000	 35.4707
6.368000	 35.79
6.452000	 35.8618
6.536000	 35.4035
6.620000	 35.9568
6.704000	 35.9442
6.788000	 35.4367
6.872000	 35.6088
6.956000	 35.918
7.040000	 35.4067
7.124000	 34.972
7.208000	 35.5388
7.292000	 35.8304
7.376000	 35.2361
7.460000	 35.004
7.544000	 35.5438
7.628000	 35.6693
7.712000	 35.0989
7.796000	 34.9228
7.880000	 35.2334
7.964000	 35.4245
8.048000	 35.2185
8.132000	 34.7258
8.216000	 34.8483
8.300000	 35.3337
8.384000	 35.6233
8.468000	 35.0032
8.552000	 34.478
8.635999	 34.4081
8.719999	 34.9586
8.804000	 35.1409
8.888000	 34.9444
8.972000	 34.3505
9.056000	 34.0639
9.140000	 34.1237
9.224000	 34.5867
9.308000	 34.9239
9.391999	 34.8446
9.475999	 34.3208
9.560000	 33.5713
9.644000	 33.5975
9.728000	 33.7209
9.812000	 34.3445
9.896000	 34.4561
9.980000	 34.4855
10.064	33.9454
10.148	33.4978
10.232	33.2673
10.316	33.5941
10.4	33.6531
10.484	33.7536
10.568	33.9702
10.652	33.7529
10.736	33.4329
10.82	32.918
10.904	32.6323
10.988	32.8685
11.072	33.2247
11.156	33.4612
11.24	33.6436
11.324	33.5313
11.408	33.1962
11.492	32.9737
11.576	32.5054
11.66	32.1727
11.744	32.3181
11.828	32.4511
11.912	32.527
11.996	32.9445
12.08	33.1284
12.164	32.9257
12.248	32.2927
12.332	31.9186
12.416	31.6417
12.5	31.3392
12.584	31.2437
12.668	31.1475
12.752	31.2873
12.836	31.4926
12.92	32.0553
13.004	32.3946
13.088	32.4407
13.172	32.4857
13.256	32.1212
13.34	31.6462
13.424	31.1019
13.508	30.4132
13.592	30.1893
13.676	30.2427
13.76	30.2603
13.844	30.2945
13.928	30.4304
14.012	30.7676
14.096	31.141
14.18	31.2045
14.264	31.0302
14.348	30.9019
14.432	30.6723
14.516	30.419
14.6	30.2513
14.684	29.96
14.768	29.6732
14.852	29.6473
14.936	29.7798
15.02	29.8747
15.104	29.8705
15.188	29.7677
15.272	29.6225
15.356	29.5625
15.44	29.707
15.524	30.0137
15.608	30.2271
15.692	30.1754
15.776	29.9199
15.86	29.5571
15.944	29.1938
16.028	28.938
16.112	28.8132
16.196	28.8081
16.28	28.8743
16.364	28.8933
16.448	28.7854
16.532	28.5858
16.616	28.435
16.7	28.4629
16.784	28.6168
16.868	28.7211
16.952	28.6824
17.036	28.5591
17.12	28.4693
17.204	28.4645
17.288	28.4893
17.372	28.4632
17.456	28.3599
17.54	28.1724
17.624	27.9103
17.708	27.6783
17.792	27.6136
17.876	27.6804
17.96	27.6388
18.044	27.3406
18.128	26.957
18.212	26.7898
18.296	26.9295
18.38	27.2056
18.464	27.4178
18.548	27.5118
18.632	27.5581
18.716	27.6375
18.8	27.7825
18.884	27.9793
18.968	28.1878
19.052	28.3492
19.136	28.3953
19.22	28.2776
19.304	28.0108
19.388	27.6598
19.472	27.2894
19.556	26.9364
19.64	26.6293
19.724	26.4128
19.808	26.3227
19.892	26.3449
19.976	26.4239
20.06	26.4975
20.144	26.4961
20.228	26.3234
20.312	25.9182
20.396	25.3585
20.48	24.8737
20.564	24.7073
20.648	24.9294
20.732	25.3866
20.816	25.8337
20.9	26.1244
20.984	26.2941
21.068	26.4692
21.152	26.7262
21.236	27.0173
21.32	27.2064
21.404	27.1908
21.488	26.9845
21.572	26.7153
21.656	26.5261
21.74	26.4858
21.824	26.5635
21.908	26.6622
21.992	26.6784
22.076	26.5332
22.16	26.188
22.244	25.6728
22.328	25.0746
22.412	24.5342
22.496	24.213
22.58	24.2306
22.664	24.6328
22.748	25.3739
22.832	26.3392
22.916	27.3596
23	28.2439
23.084	28.817
23.168	28.9733
23.252	28.718
23.336	28.1349
23.42	27.3535
23.504	26.4693
23.588	25.5511
23.672	24.6822
23.756	23.9822
23.84	23.5542
23.924	23.4738
24.008	23.7398
24.092	24.2481
24.176	24.8382
24.26	25.3368
24.344	25.594
24.428	25.5258
24.512	25.0757
24.596	24.2716
24.68	23.1217
24.764	21.544
24.848	19.481
24.932	16.9141
25.016	13.9514
25.1	10.862
25.184	8.179534
25.268	6.490214
25.352	6.124960
25.436	7.312549
25.52	10.1327
25.604	14.4778
25.688	19.6385
25.772	24.4457
25.856	27.796
25.94	29.1131
26.024	28.7586
26.108	28.0706
26.192	28.3121
26.276	30.2397
26.36	33.5856
26.444	38.2137
26.528	44.3209
26.612	53.0621
26.696	64.6319
26.78	77.4279
26.864	87.274
26.948	89.2194
27.028	81.1811