File: Bakgrunnsmateriale/MATLAB/FTIR/ftir_data/LPE454/Mapping_121/LPE454_t101_cm-1.asc
PE IR       SPECTRUM    SPECTRUM    ASCII       PEDS        1.60
  -1
LP04DC~1.ASC
17/05/19
22:40:45.00
17/05/19
22:40:45.00
tln
$LPE454_t0101$<tbV0>[10.4,10.4,8.0,0.0,27,1,0]
370
64

2002,4.07
MIRTGS : RIGHTBACK : INTERNAL 2
MIR : ON : INTERNAL 2
OPTKBR

0.200000
8
8.000000
FILLER
RATIO
SPECTRUM
UNLOCKED 256

DOUBLE
64
COMBINED
1
0
0

1.000000
RATIO

1
0
TRUE
51149
0
LEFT NOT FITTED RIGHT NOT FITTED 0
NONE
NONE
15600
12
4.427000
51148
TRUE
1 0 8 72 0 0 0 0

15798

#HDR
-1
-1
#GR
CM-1
%T
2.38419e-05
0.0
5000
-1.000000
4631
8
58.2957
-2.809405
#DATA
5000	0.335025
4984	-0.101375
4968	0.022554
4952	0.044083
4936	0.068640
4920	-0.035715
4904	-0.017738
4888	0.704121
4872	-0.152540
4856	-0.167322
4840	0.152420
4824	-0.017380
4808	-0.005412
4792	0.101327
4776	0.258469
4760	0.352120
4744	-0.245761
4728	0.250673
4712	-0.060129
4696	0.258946
4680	0.233459
4664	0.328493
4648	0.320196
4632	1.136827
4616	0.748443
4600	-0.790572
4584	6.488013
4568	0.929403
4552	0.632667
4536	-0.060915
4520	0.749826
4504	0.226974
4488	-0.003099
4472	-0.196576
4456	0.627064
4440	-0.095391
4424	-0.147128
4408	0.082063
4392	0.181078
4376	-0.074458
4360	0.291419
4344	0.017738
4328	0.239062
4312	0.118231
4296	0.166058
4280	-0.028204
4264	0.482225
4248	0.219988
4232	0.311303
4216	0.088071
4200	0.112485
4184	-0.072026
4168	-0.326347
4152	-0.095629
4136	-0.044560
4120	0.177478
4104	0.590610
4088	0.227689
4072	0.914788
4056	-0.205874
4040	0.154709
4024	0.256490
4008	-0.287628
3992	0.104641
3976	0.023865
3960	0.085139
3944	0.209069
3928	0.116181
3912	-0.148916
3896	-0.139880
3880	0.187993
3864	0.079298
3848	-0.069069
3832	0.129294
3816	0.172305
3800	-0.034093
3784	0.042295
3768	0.030112
3752	0.118160
3736	-0.051116
3720	0.001692
3704	0.012254
3688	-0.005459
3672	0.010418
3656	-0.001835
3640	0.102400
3624	0.200414
3608	0.017714
3592	-0.020718
3576	-0.007271
3560	0.160408
3544	0.021409
3528	0.181865
3512	-0.017857
3496	-0.028562
3480	-0.006866
3464	-0.008845
3448	-0.012874
3432	0.047993
3416	0.176525
3400	0.118446
3384	0.029587
3368	0.079798
3352	0.146389
3336	0.059747
3320	-0.002217
3304	-0.116467
3288	0.023388
3272	-0.047755
3256	0.097227
3240	0.069427
3224	0.062608
3208	0.012254
3192	0.044274
3176	0.085663
3160	-0.027203
3144	0.074315
3128	0.123476
3112	0.066709
3096	0.150513
3080	0.029087
3064	0.073146
3048	0.056672
3032	-0.089359
3016	-0.037956
3000	0.002527
2984	-0.006294
2968	0.135922
2952	0.028562
2936	-0.012564
2920	0.007128
2904	0.026655
2888	-0.007748
2872	0.051379
2856	0.097584
2840	-0.036525
2824	0.042152
2808	-0.001978
2792	0.068950
2776	0.093221
2760	0.120735
2744	0.149917
2728	0.074696
2712	0.087285
2696	-0.019264
2680	-0.011634
2664	0.124239
2648	0.016474
2632	0.170969
2616	0.058650
2600	0.051975
2584	-0.060749
2568	-0.055456
2552	-0.028443
2536	-0.014734
2520	0.034165
2504	-0.014901
2488	0.003147
2472	-0.054788
2456	-0.017690
2440	-0.005674
2424	-0.094389
2408	0.123620
2392	0.082302
2376	0.069522
2360	0.184011
2344	0.334072
2328	0.439524
2312	0.700664
2296	1.130604
2280	1.589345
2264	2.065157
2248	2.787899
2232	3.721261
2216	4.956483
2200	6.353783
2184	7.929134
2168	9.891605
2152	11.7402
2136	13.7519
2120	15.8558
2104	17.9434
2088	19.8632
2072	21.7233
2056	23.5784
2040	25.2191
2024	26.7656
2008	28.0879
1992	29.3359
1976	30.4236
1960	31.3547
1944	32.2574
1928	33.0412
1912	33.6769
1896	34.1559
1880	34.4774
1864	35.0245
1848	35.25
1832	35.601
1816	35.9541
1800	35.9792
1784	36.1786
1768	36.3062
1752	36.4161
1736	36.3762
1720	36.4981
1704	36.5097
1688	36.6612
1672	36.4843
1656	36.6044
1640	36.578
1624	36.6077
1608	36.6365
1592	36.6225
1576	36.5906
1560	36.6259
1544	36.5432
1528	36.4816
1512	36.3545
1496	36.5997
1480	36.3018
1464	36.3487
1448	36.2611
1432	36.2968
1416	36.3093
1400	36.1613
1384	36.0582
1368	36.1323
1352	36.0727
1336	35.8759
1320	35.9469
1304	35.832
1288	35.8283
1272	35.7861
1256	35.8184
1240	35.7143
1224	35.6427
1208	35.5327
1192	35.5144
1176	35.4371
1160	35.3974
1144	35.1632
1128	35.2299
1112	35.0706
1096	35.0637
1080	34.9658
1064	34.8046
1048	34.7335
1032	34.7145
1016	34.7021
1000	34.5642
984	 34.2021
968	 34.1831
952	 34.1382
936	 33.928
920	 33.9506
904	 33.7759
888	 33.3828
872	 32.9849
856	 33.204
840	 32.8781
824	 32.6218
808	 32.3233
792	 32.3884
776	 32.0478
760	 31.8079
744	 31.4485
728	 31.368
712	 31.0746
696	 30.5058
680	 30.721
664	 30.479
648	 30.1456
632	 29.5863
616	 29.0997
600	 29.0318
584	 28.5431
568	 28.2619
552	 27.6221
536	 24.946
520	 26.2895
504	 27.4619
488	 26.8058
472	 25.7355
456	 24.716
440	 23.933
424	 24.8301
408	 17.8488
392	 8.337879
376	 42.5338
370	 58.2957