File: Bakgrunnsmateriale/MATLAB/FTIR/ftir_data/LPE454/Mapping_121/LPE454_t01.asc
PE IR       SPECTRUM    SPECTRUM    ASCII       PEDS        1.60
  -1
LPE454~4.ASC
17/05/19
14:29:21.00
17/05/19
14:29:46.00
tln
$LPE454_t0001$<tbV0>[13.0,-13.0,8.0,0.0,27,1,0]
27.028
64

2002,4.07
MIRTGS : RIGHTBACK : INTERNAL 2
MIR : ON : INTERNAL 2
OPTKBR

0.200000
8
8.000000
FILLER
RATIO
SPECTRUM
UNLOCKED 256

DOUBLE
64
COMBINED
1
0
0

0.002000
RATIO

1
0
TRUE
51149
0
LEFT NOT FITTED RIGHT NOT FITTED 0
NONE
NONE
15600
12
4.427000
51148
TRUE
1 0 8 72 0 0 0 0

15798

#HDR
-1
-1
#GR
µM
%T
2.38419e-05
0.0
2.000000
0.002000
12515
8
46.0631
-35.7296
#DATA
2.000000	 0.215363
2.084000	 0.550350
2.168000	 0.383039
2.252000	 0.954859
2.336000	 0.194377
2.420000	 0.222876
2.504000	 0.024423
2.588000	 0.130847
2.672000	 -0.121291
2.756000	 0.042221
2.840000	 -0.164497
2.924000	 0.048183
3.008000	 0.093420
3.092000	 -0.012491
3.176000	 -0.016242
3.260000	 -0.055843
3.344000	 -0.010883
3.428000	 -0.096716
3.512000	 0.197916
3.596000	 0.073536
3.680000	 0.059939
3.764000	 0.089952
3.848000	 0.046658
3.932000	 0.007948
4.016000	 0.198378
4.100000	 0.013924
4.184000	 -0.167810
4.268000	 0.026881
4.352000	 0.043308
4.436000	 0.141496
4.520000	 0.588450
4.604000	 1.094433
4.688000	 1.937388
4.772000	 2.938308
4.856000	 3.820438
4.940000	 4.684300
5.024000	 5.332236
5.108000	 5.854638
5.192000	 6.199741
5.276000	 6.485601
5.359999	 6.685252
5.444000	 6.741998
5.528000	 6.806822
5.612000	 6.974452
5.696000	 7.089581
5.780000	 7.106065
5.864000	 7.340274
5.948000	 7.366661
6.032000	 7.393442
6.116000	 7.297162
6.200000	 7.263325
6.284000	 7.339820
6.368000	 7.411267
6.452000	 7.397601
6.536000	 7.264498
6.620000	 7.439796
6.704000	 7.341780
6.788000	 7.527117
6.872000	 7.530389
6.956000	 7.555674
7.040000	 7.467861
7.124000	 7.502074
7.208000	 7.513731
7.292000	 7.480993
7.376000	 7.495180
7.460000	 7.447661
7.544000	 7.390752
7.628000	 7.418685
7.712000	 7.509363
7.796000	 7.315040
7.880000	 7.444700
7.964000	 7.410705
8.048000	 7.379885
8.132000	 7.363200
8.216000	 7.353702
8.300000	 7.403651
8.384000	 7.699446
8.468000	 7.452875
8.552000	 7.490598
8.635999	 7.335020
8.719999	 7.459493
8.804000	 7.417688
8.888000	 7.413733
8.972000	 7.485605
9.056000	 7.162022
9.140000	 7.273332
9.224000	 7.181950
9.308000	 7.215973
9.391999	 7.402254
9.475999	 7.409181
9.560000	 7.401825
9.644000	 7.233339
9.728000	 7.199409
9.812000	 7.293061
9.896000	 7.234953
9.980000	 7.269544
10.064	7.327710
10.148	7.115263
10.232	7.024833
10.316	7.150534
10.4	7.175704
10.484	7.205296
10.568	6.960001
10.652	7.070061
10.736	7.104188
10.82	7.147994
10.904	7.069607
10.988	6.962741
11.072	6.891850
11.156	6.994538
11.24	7.000295
11.324	6.892867
11.408	7.026536
11.492	7.091355
11.576	6.954370
11.66	6.906882
11.744	6.877822
11.828	6.909877
11.912	6.907561
11.996	6.851825
12.08	6.700481
12.164	6.756231
12.248	6.952833
12.332	6.713221
12.416	6.594084
12.5	6.666874
12.584	6.848104
12.668	6.925486
12.752	6.726862
12.836	6.733652
12.92	6.699692
13.004	6.649520
13.088	6.598505
13.172	6.512931
13.256	6.381369
13.34	6.280386
13.424	6.266723
13.508	6.533010
13.592	6.729209
13.676	6.619052
13.76	6.636778
13.844	6.743880
13.928	6.629350
14.012	6.310383
14.096	6.177387
14.18	6.173391
14.264	6.025564
14.348	5.925244
14.432	6.057946
14.516	6.239967
14.6	6.251633
14.684	6.246184
14.768	6.290356
14.852	6.261640
14.936	6.346077
15.02	6.597099
15.104	6.617737
15.188	6.250798
15.272	5.875422
15.356	5.776992
15.44	5.833022
15.524	5.907404
15.608	5.936730
15.692	5.800289
15.776	5.593371
15.86	5.631263
15.944	5.965098
16.028	6.280355
16.112	6.327731
16.196	6.159262
16.28	5.954784
16.364	5.859846
16.448	5.953605
16.532	6.142165
16.616	6.203973
16.7	6.093810
16.784	5.959911
16.868	5.837842
16.952	5.684392
17.036	5.593128
17.12	5.629035
17.204	5.624555
17.288	5.442146
17.372	5.216134
17.456	5.134869
17.54	5.175205
17.624	5.185576
17.708	5.122284
17.792	5.070253
17.876	5.075756
17.96	5.065124
18.044	4.979451
18.128	4.914923
18.212	5.021972
18.296	5.299424
18.38	5.574494
18.464	5.671381
18.548	5.564986
18.632	5.388113
18.716	5.299212
18.8	5.350287
18.884	5.462695
18.968	5.533613
19.052	5.543464
19.136	5.539102
19.22	5.549683
19.304	5.556619
19.388	5.515039
19.472	5.388639
19.556	5.192861
19.64	5.011599
19.724	4.943636
19.808	5.002144
19.892	5.084279
19.976	5.060031
20.06	4.896779
20.144	4.666478
20.228	4.453800
20.312	4.310063
20.396	4.284426
20.48	4.440036
20.564	4.799335
20.648	5.268212
20.732	5.647898
20.816	5.749409
20.9	5.520002
20.984	5.078427
21.068	4.646470
21.152	4.427120
21.236	4.510616
21.32	4.824044
21.404	5.180662
21.488	5.415305
21.572	5.488845
21.656	5.484137
21.74	5.519132
21.824	5.645427
21.908	5.801955
21.992	5.867440
22.076	5.751571
22.16	5.467216
22.244	5.161041
22.328	5.030367
22.412	5.233186
22.496	5.788369
22.58	6.531504
22.664	7.193311
22.748	7.532355
22.832	7.481669
22.916	7.182969
23	6.855668
23.084	6.675467
23.168	6.687416
23.252	6.786417
23.336	6.796809
23.42	6.629097
23.504	6.263415
23.588	5.767391
23.672	5.239738
23.756	4.745753
23.84	4.380084
23.924	4.273770
24.008	4.494906
24.092	5.007914
24.176	5.798316
24.26	6.923906
24.344	8.602154
24.428	11.0861
24.512	14.4355
24.596	18.2746
24.68	21.8064
24.764	24.0727
24.848	24.2854
24.932	22.0298
25.016	17.4856
25.1	11.3622
25.184	4.467433
25.268	-2.478880
25.352	-8.760547
25.436	-13.5915
25.52	-16.2442
25.604	-16.1854
25.688	-12.9712
25.772	-6.347091
25.856	3.554636
25.94	15.7027
26.024	28.1217
26.108	38.3057
26.192	44.5273
26.276	45.9742
26.36	42.9617
26.444	35.7011
26.528	24.3511
26.612	8.813427
26.696	-9.299203
26.78	-25.994
26.864	-35.2967
26.948	-31.7285
27.028	-14.7108