File: Bakgrunnsmateriale/MATLAB/FTIR/ftir_data/LPE454/Mapping_121/LPE454_t08_cm-1.asc
PE IR       SPECTRUM    SPECTRUM    ASCII       PEDS        1.60
  -1
LP67B9~1.ASC
17/05/19
15:01:37.00
17/05/19
15:01:37.00
tln
$LPE454_t0008$<tbV0>[-5.2,-13.0,8.0,0.0,27,1,0]
370
64

2002,4.07
MIRTGS : RIGHTBACK : INTERNAL 2
MIR : ON : INTERNAL 2
OPTKBR

0.200000
8
8.000000
FILLER
RATIO
SPECTRUM
UNLOCKED 256

DOUBLE
64
COMBINED
1
0
0

1.000000
RATIO

1
0
TRUE
51149
0
LEFT NOT FITTED RIGHT NOT FITTED 0
NONE
NONE
15600
12
4.427000
51148
TRUE
1 0 8 72 0 0 0 0

15798

#HDR
-1
-1
#GR
CM-1
%T
2.38419e-05
0.0
5000
-1.000000
4631
8
35.4016
-13.575
#DATA
5000	-0.122332
4984	0.159764
4968	0.276923
4952	0.242114
4936	0.880718
4920	0.219464
4904	-0.153994
4888	0.960993
4872	-0.771832
4856	0.304722
4840	0.613093
4824	1.316213
4808	0.257301
4792	2.108168
4776	-0.591087
4760	0.016117
4744	0.051760
4728	0.109791
4712	-0.236415
4696	0.275397
4680	0.413131
4664	0.168204
4648	-0.003337
4632	0.110125
4616	0.264859
4600	0.082612
4584	0.220179
4568	0.452780
4552	0.700116
4536	0.371527
4520	0.644803
4504	0.470519
4488	2.302050
4472	3.366661
4456	0.765085
4440	-0.077867
4424	0.342655
4408	0.752115
4392	0.522184
4376	0.518202
4360	0.500583
4344	0.507116
4328	0.413417
4312	0.287485
4296	0.331616
4280	0.189185
4264	0.574254
4248	0.305438
4232	-0.103425
4216	0.146198
4200	0.038814
4184	-0.107645
4168	0.486874
4152	-0.115704
4136	0.638818
4120	0.230216
4104	0.244903
4088	0.021886
4072	-0.146245
4056	0.153398
4040	0.367259
4024	0.446009
4008	0.227069
3992	0.061058
3976	0.306057
3960	0.272035
3944	0.066041
3928	-0.055623
3912	-0.065994
3896	0.044822
3880	0.135087
3864	0.150752
3848	-0.074791
3832	0.050616
3816	-0.153350
3800	-0.029182
3784	0.010061
3768	0.058269
3752	0.133728
3736	-0.102210
3720	-0.079727
3704	0.105237
3688	-0.038433
3672	-0.060367
3656	0.258970
3640	-0.127458
3624	-0.120830
3608	0.170183
3592	0.191593
3576	0.012397
3560	0.053167
3544	0.115108
3528	-0.065064
3512	-0.157976
3496	0.104689
3480	0.034856
3464	0.166225
3448	0.186014
3432	-0.160193
3416	0.044536
3400	0.010418
3384	0.012016
3368	0.123190
3352	-0.040459
3336	0.055408
3320	0.229883
3304	0.071024
3288	0.101304
3272	0.037574
3256	0.044822
3240	0.075745
3224	0.089907
3208	0.054645
3192	0.060796
3176	-0.068902
3160	0.099253
3144	0.111508
3128	0.403475
3112	0.184488
3096	0.075197
3080	0.062036
3064	-0.046181
3048	0.087857
3032	-0.037837
3016	-0.021195
3000	0.093030
2984	-0.097632
2968	-0.084781
2952	0.114345
2936	0.030589
2920	0.030112
2904	0.099539
2888	0.078797
2872	-0.000119
2856	0.021028
2840	0.076675
2824	0.021219
2808	-0.103402
2792	-0.023937
2776	0.085139
2760	0.054407
2744	0.034379
2728	0.022649
2712	0.013518
2696	0.076794
2680	0.026464
2664	0.020360
2648	0.180149
2632	0.021123
2616	0.035786
2600	-0.021505
2584	0.114512
2568	0.032210
2552	0.020909
2536	-0.019669
2520	0.180792
2504	0.240087
2488	0.143575
2472	-0.005221
2456	-0.086951
2440	0.021886
2424	0.319099
2408	0.305294
2392	0.039958
2376	0.062513
2360	0.110435
2344	0.279116
2328	0.362300
2312	0.388598
2296	0.678944
2280	0.919651
2264	1.341962
2248	1.716542
2232	2.428221
2216	3.292989
2200	4.270839
2184	5.577850
2168	6.810712
2152	8.368229
2136	10.0052
2120	11.6159
2104	13.4254
2088	15.0635
2072	16.6182
2056	18.0586
2040	19.4836
2024	20.7693
2008	21.8687
1992	22.9114
1976	24.1382
1960	24.8332
1944	25.346
1928	26.236
1912	26.9027
1896	27.1076
1880	27.8707
1864	28.6022
1848	28.5966
1832	28.8987
1816	29.5657
1800	29.5986
1784	29.5986
1768	30.3553
1752	30.6466
1736	30.2572
1720	30.802
1704	31.1247
1688	30.8015
1672	30.6675
1656	31.4533
1640	31.477
1624	30.9592
1608	31.046
1592	31.823
1576	31.4046
1560	31.2231
1544	31.7421
1528	31.8793
1512	31.205
1496	31.2824
1480	31.9411
1464	31.5934
1448	30.7741
1432	31.5364
1416	31.8114
1400	31.2294
1384	30.9899
1368	31.7343
1352	31.5417
1336	30.8034
1320	31.2469
1304	31.7434
1288	31.127
1272	30.7936
1256	31.5998
1240	31.5518
1224	30.6946
1208	30.9272
1192	31.7077
1176	31.1662
1160	30.6206
1144	31.0897
1128	31.5248
1112	30.6046
1096	30.1322
1080	30.9765
1064	30.9969
1048	30.0497
1032	30.5542
1016	31.2428
1000	30.3108
984	 29.7498
968	 30.4475
952	 30.6328
936	 29.5553
920	 29.6337
904	 30.286
888	 29.7443
872	 28.7377
856	 29.2614
840	 29.9297
824	 28.7332
808	 28.3121
792	 28.9029
776	 28.9081
760	 27.9737
744	 27.8623
728	 28.1662
712	 27.7203
696	 26.8986
680	 27.2981
664	 27.1033
648	 26.2054
632	 25.8431
616	 25.9087
600	 25.7318
584	 24.5729
568	 24.4191
552	 24.6016
536	 23.9157
520	 23.6528
504	 23.1879
488	 24.4625
472	 22.4747
456	 22.0938
440	 21.5631
424	 20.8849
408	 17.0736
392	 30.2441
376	 35.4016
370	 -13.575