File: Bakgrunnsmateriale/MATLAB/FTIR/ftir_data/LPE454/Mapping_121/LPE454_t114.asc
PE IR       SPECTRUM    SPECTRUM    ASCII       PEDS        1.60
  -1
LP930E~1.ASC
17/05/19
23:46:54.00
17/05/19
23:47:20.00
tln
$LPE454_t0114$<tbV0>[5.2,13.0,8.0,0.0,27,1,0]
27.028
64

2002,4.07
MIRTGS : RIGHTBACK : INTERNAL 2
MIR : ON : INTERNAL 2
OPTKBR

0.200000
8
8.000000
FILLER
RATIO
SPECTRUM
UNLOCKED 256

DOUBLE
64
COMBINED
1
0
0

0.002000
RATIO

1
0
TRUE
51149
0
LEFT NOT FITTED RIGHT NOT FITTED 0
NONE
NONE
15600
12
4.427000
51148
TRUE
1 0 8 72 0 0 0 0

15798

#HDR
-1
-1
#GR
µM
%T
2.38419e-05
0.0
2.000000
0.002000
12515
8
40.483
-4.775338
#DATA
2.000000	 -0.021624
2.084000	 0.339498
2.168000	 -1.227805
2.252000	 0.467917
2.336000	 0.048587
2.420000	 0.501036
2.504000	 -0.061537
2.588000	 0.085928
2.672000	 0.038366
2.756000	 0.104601
2.840000	 0.014064
2.924000	 0.117297
3.008000	 0.105754
3.092000	 0.105509
3.176000	 0.075407
3.260000	 0.077841
3.344000	 -0.053333
3.428000	 0.082398
3.512000	 0.038643
3.596000	 0.071469
3.680000	 0.082487
3.764000	 0.090138
3.848000	 -0.055771
3.932000	 0.048446
4.016000	 0.043040
4.100000	 0.100609
4.184000	 0.354329
4.268000	 0.826284
4.352000	 2.118643
4.436000	 4.255918
4.520000	 8.006367
4.604000	 12.8167
4.688000	 18.0638
4.772000	 23.218
4.856000	 27.3751
4.940000	 30.9162
5.024000	 33.5734
5.108000	 35.4547
5.192000	 37.0638
5.276000	 38.0057
5.359999	 38.7584
5.444000	 39.3971
5.528000	 39.8051
5.612000	 39.9511
5.696000	 40.1097
5.780000	 40.2765
5.864000	 40.2235
5.948000	 40.4099
6.032000	 40.4719
6.116000	 40.2741
6.200000	 40.4049
6.284000	 40.394
6.368000	 40.2012
6.452000	 40.2621
6.536000	 40.2323
6.620000	 40.1122
6.704000	 40.1218
6.788000	 40.0562
6.872000	 39.855
6.956000	 40.0502
7.040000	 39.7923
7.124000	 39.6722
7.208000	 39.6964
7.292000	 39.6695
7.376000	 39.4922
7.460000	 39.5185
7.544000	 39.69
7.628000	 39.5483
7.712000	 39.4952
7.796000	 39.2369
7.880000	 39.2826
7.964000	 39.2611
8.048000	 39.3377
8.132000	 39.1716
8.216000	 38.9908
8.300000	 38.8954
8.384000	 38.8464
8.468000	 38.9493
8.552000	 39.139
8.635999	 38.9272
8.719999	 38.7979
8.804000	 38.5233
8.888000	 38.5338
8.972000	 38.7599
9.056000	 39.0362
9.140000	 38.8582
9.224000	 38.4679
9.308000	 38.2337
9.391999	 38.3396
9.475999	 38.4066
9.560000	 38.4024
9.644000	 38.4062
9.728000	 38.4596
9.812000	 38.2478
9.896000	 37.8681
9.980000	 37.8826
10.064	37.8901
10.148	38.0153
10.232	38.1211
10.316	37.9959
10.4	38.0517
10.484	38.1086
10.568	37.9479
10.652	37.6086
10.736	37.393
10.82	37.463
10.904	37.466
10.988	37.5007
11.072	37.564
11.156	37.5908
11.24	37.5816
11.324	37.3873
11.408	37.4415
11.492	37.2801
11.576	36.8459
11.66	36.7441
11.744	36.6819
11.828	36.7604
11.912	36.6357
11.996	36.5874
12.08	36.8272
12.164	36.8286
12.248	36.9361
12.332	37.0254
12.416	36.8888
12.5	36.6074
12.584	36.3189
12.668	36.1727
12.752	36.1148
12.836	36.1149
12.92	36.1186
13.004	36.0509
13.088	36.015
13.172	36.149
13.256	36.387
13.34	36.5652
13.424	36.3519
13.508	35.9422
13.592	35.7785
13.676	35.7082
13.76	35.5765
13.844	35.4915
13.928	35.3779
14.012	35.1392
14.096	34.8658
14.18	34.7175
14.264	34.6831
14.348	34.6096
14.432	34.7052
14.516	35.0385
14.6	35.223
14.684	35.2672
14.768	35.4156
14.852	35.5413
14.936	35.4658
15.02	35.2598
15.104	35.0389
15.188	34.8224
15.272	34.6808
15.356	34.6743
15.44	34.7234
15.524	34.7046
15.608	34.5178
15.692	34.14
15.776	33.737
15.86	33.5683
15.944	33.7057
16.028	33.957
16.112	34.127
16.196	34.1815
16.28	34.1454
16.364	34.0566
16.448	33.9889
16.532	33.9743
16.616	33.9934
16.7	34.0633
16.784	34.1925
16.868	34.2752
16.952	34.1838
17.036	33.942
17.12	33.6957
17.204	33.5345
17.288	33.4356
17.372	33.369
17.456	33.3605
17.54	33.4217
17.624	33.4853
17.708	33.4573
17.792	33.3146
17.876	33.1297
17.96	32.9905
18.044	32.933
18.128	32.9505
18.212	33.0071
18.296	33.0414
18.38	33.0035
18.464	32.9182
18.548	32.8481
18.632	32.7733
18.716	32.594
18.8	32.2636
18.884	31.8747
18.968	31.601
19.052	31.596
19.136	31.8951
19.22	32.365
19.304	32.7427
19.388	32.8381
19.472	32.7107
19.556	32.5904
19.64	32.6119
19.724	32.6657
19.808	32.5216
19.892	32.0518
19.976	31.3417
20.06	30.6344
20.144	30.1892
20.228	30.1443
20.312	30.4358
20.396	30.819
20.48	31.0311
20.564	30.9678
20.648	30.7397
20.732	30.5338
20.816	30.4372
20.9	30.3867
20.984	30.28
21.068	30.1225
21.152	30.0503
21.236	30.2082
21.32	30.5984
21.404	31.0685
21.488	31.4287
21.572	31.5859
21.656	31.5519
21.74	31.3688
21.824	31.057
21.908	30.6247
21.992	30.1163
22.076	29.6317
22.16	29.2838
22.244	29.1282
22.328	29.1485
22.412	29.3015
22.496	29.5466
22.58	29.864
22.664	30.223
22.748	30.5638
22.832	30.8314
22.916	30.9827
23	30.9957
23.084	30.8273
23.168	30.4393
23.252	29.8402
23.336	29.0928
23.42	28.3589
23.504	27.8424
23.588	27.6899
23.672	27.9086
23.756	28.3264
23.84	28.6364
23.924	28.5149
24.008	27.7793
24.092	26.4773
24.176	24.8636
24.26	23.3104
24.344	22.1361
24.428	21.3939
24.512	20.8384
24.596	20.0282
24.68	18.4992
24.764	15.9983
24.848	12.6442
24.932	8.943703
25.016	5.617463
25.1	3.343227
25.184	2.576720
25.268	3.352921
25.352	5.328721
25.436	7.976344
25.52	10.7484
25.604	13.1787
25.688	14.8211
25.772	15.3271
25.856	14.5178
25.94	12.3678
26.024	9.066050
26.108	5.030106
26.192	0.970063
26.276	-2.332929
26.36	-4.321518
26.444	-4.726284
26.528	-3.569296
26.612	-1.072460
26.696	2.423887
26.78	6.517118
26.864	10.8128
26.948	14.8328
27.028	17.7553