File: Bakgrunnsmateriale/MATLAB/FTIR/ftir_data/LPE454/Mapping_121/LPE454_t02.asc
PE IR       SPECTRUM    SPECTRUM    ASCII       PEDS        1.60
  -1
LPC394~1.ASC
17/05/19
14:33:57.00
17/05/19
14:34:23.00
tln
$LPE454_t0002$<tbV0>[10.4,-13.0,8.0,0.0,27,1,0]
27.028
64

2002,4.07
MIRTGS : RIGHTBACK : INTERNAL 2
MIR : ON : INTERNAL 2
OPTKBR

0.200000
8
8.000000
FILLER
RATIO
SPECTRUM
UNLOCKED 256

DOUBLE
64
COMBINED
1
0
0

0.002000
RATIO

1
0
TRUE
51149
0
LEFT NOT FITTED RIGHT NOT FITTED 0
NONE
NONE
15600
12
4.427000
51148
TRUE
1 0 8 72 0 0 0 0

15798

#HDR
-1
-1
#GR
µM
%T
2.38419e-05
0.0
2.000000
0.002000
12515
8
62.0076
-13.2615
#DATA
2.000000	 0.196385
2.084000	 0.666584
2.168000	 0.802563
2.252000	 -0.709784
2.336000	 -0.213622
2.420000	 0.223514
2.504000	 0.093601
2.588000	 0.030164
2.672000	 -0.055528
2.756000	 0.019587
2.840000	 0.085790
2.924000	 -0.122769
3.008000	 -0.083374
3.092000	 0.207977
3.176000	 0.038509
3.260000	 -0.079069
3.344000	 -0.026231
3.428000	 0.045673
3.512000	 0.207710
3.596000	 0.117630
3.680000	 -0.059804
3.764000	 0.016426
3.848000	 0.022875
3.932000	 -0.013950
4.016000	 0.135142
4.100000	 0.050867
4.184000	 0.045105
4.268000	 0.254992
4.352000	 0.909486
4.436000	 2.189129
4.520000	 4.468423
4.604000	 8.039354
4.688000	 12.016
4.772000	 16.1912
4.856000	 19.8007
4.940000	 22.6527
5.024000	 25.0623
5.108000	 26.7749
5.192000	 28.0465
5.276000	 29.2654
5.359999	 30.054
5.444000	 30.6942
5.528000	 31.2443
5.612000	 31.7492
5.696000	 31.907
5.780000	 32.3638
5.864000	 32.5349
5.948000	 32.884
6.032000	 33.012
6.116000	 33.0777
6.200000	 33.2348
6.284000	 33.2622
6.368000	 33.3369
6.452000	 33.5297
6.536000	 33.389
6.620000	 33.5792
6.704000	 33.8279
6.788000	 33.5941
6.872000	 33.7848
6.956000	 33.7286
7.040000	 33.723
7.124000	 33.5509
7.208000	 33.6413
7.292000	 33.8651
7.376000	 33.6172
7.460000	 33.6063
7.544000	 33.6838
7.628000	 33.7412
7.712000	 33.4774
7.796000	 33.476
7.880000	 33.5041
7.964000	 33.5988
8.048000	 33.5722
8.132000	 33.2918
8.216000	 33.3867
8.300000	 33.5254
8.384000	 33.4002
8.468000	 33.3638
8.552000	 33.2504
8.635999	 33.2371
8.719999	 33.3754
8.804000	 33.4018
8.888000	 33.2482
8.972000	 33.0472
9.056000	 32.9361
9.140000	 32.6577
9.224000	 32.9304
9.308000	 32.944
9.391999	 32.9979
9.475999	 32.789
9.560000	 32.6021
9.644000	 32.5086
9.728000	 32.5129
9.812000	 32.9816
9.896000	 32.7555
9.980000	 32.4785
10.064	32.4512
10.148	32.4234
10.232	32.08
10.316	32.2451
10.4	32.2796
10.484	32.1466
10.568	32.0346
10.652	32.1624
10.736	32.162
10.82	31.9869
10.904	31.7836
10.988	31.7385
11.072	31.7201
11.156	31.8743
11.24	31.8895
11.324	31.7642
11.408	31.4865
11.492	31.2898
11.576	31.3894
11.66	31.2425
11.744	31.1388
11.828	30.7858
11.912	30.7921
11.996	30.8194
12.08	31.0443
12.164	30.9614
12.248	30.9805
12.332	30.8827
12.416	30.603
12.5	30.5106
12.584	30.5508
12.668	30.3805
12.752	30.362
12.836	30.3406
12.92	30.3484
13.004	30.3256
13.088	30.3655
13.172	30.7009
13.256	30.8733
13.34	30.8345
13.424	30.6587
13.508	30.3439
13.592	30.0836
13.676	29.7991
13.76	29.5398
13.844	29.5136
13.928	29.5509
14.012	29.6658
14.096	29.7436
14.18	29.6475
14.264	29.539
14.348	29.5155
14.432	29.5624
14.516	29.5428
14.6	29.2859
14.684	28.9552
14.768	28.837
14.852	28.7848
14.936	28.5005
15.02	28.0807
15.104	27.9162
15.188	28.0938
15.272	28.2565
15.356	28.2437
15.44	28.2221
15.524	28.2486
15.608	28.3293
15.692	28.4545
15.776	28.4492
15.86	28.2517
15.944	28.0682
16.028	28.0317
16.112	28.0477
16.196	27.9985
16.28	27.8712
16.364	27.7354
16.448	27.6816
16.532	27.6817
16.616	27.5737
16.7	27.277
16.784	26.9346
16.868	26.761
16.952	26.7844
17.036	26.8475
17.12	26.8547
17.204	26.8897
17.288	27.0386
17.372	27.2292
17.456	27.3064
17.54	27.2019
17.624	27.0154
17.708	26.9199
17.792	26.9636
17.876	26.9921
17.96	26.8055
18.044	26.38
18.128	25.8952
18.212	25.5662
18.296	25.5053
18.38	25.6946
18.464	26.0091
18.548	26.2482
18.632	26.2478
18.716	26.0323
18.8	25.82
18.884	25.8125
18.968	25.9905
19.052	26.1638
19.136	26.2384
19.22	26.3305
19.304	26.5736
19.388	26.8899
19.472	27.0356
19.556	26.8596
19.64	26.4517
19.724	26.0368
19.808	25.7635
19.892	25.6213
19.976	25.508
20.06	25.3363
20.144	25.0902
20.228	24.8241
20.312	24.6269
20.396	24.5525
20.48	24.5582
20.564	24.5068
20.648	24.2875
20.732	23.9204
20.816	23.5509
20.9	23.3346
20.984	23.3174
21.068	23.4342
21.152	23.5993
21.236	23.7968
21.32	24.0915
21.404	24.5279
21.488	25.0326
21.572	25.3943
21.656	25.3732
21.74	24.8551
21.824	23.9602
21.908	23.0267
21.992	22.431
22.076	22.394
22.16	22.8741
22.244	23.5922
22.328	24.21
22.412	24.4747
22.496	24.3064
22.58	23.7676
22.664	22.9676
22.748	21.9882
22.832	20.8663
22.916	19.6553
23	18.4752
23.084	17.5231
23.168	17.0056
23.252	17.0264
23.336	17.5651
23.42	18.4029
23.504	19.2644
23.588	19.9178
23.672	20.2599
23.756	20.3501
23.84	20.2801
23.924	20.1247
24.008	19.9439
24.092	19.8008
24.176	19.7308
24.26	19.7926
24.344	20.0122
24.428	20.3965
24.512	21.0817
24.596	22.2828
24.68	24.2971
24.764	27.4013
24.848	31.6557
24.932	36.7635
25.016	42.1284
25.1	47.1757
25.184	51.457
25.268	54.8066
25.352	57.3161
25.436	59.2101
25.52	60.689
25.604	61.7804
25.688	61.8781
25.772	60.029
25.856	55.4955
25.94	48.3039
26.024	39.182
26.108	29.2083
26.192	19.3868
26.276	10.3901
26.36	2.364383
26.444	-4.615757
26.528	-10.1103
26.612	-13.0602
26.696	-12.0233
26.78	-5.739194
26.864	5.795031
26.948	20.8907
27.028	35.3394