File: Bakgrunnsmateriale/MATLAB/FTIR/ftir_data/LPE454/Mapping_121/LPE454_t100.asc
PE IR       SPECTRUM    SPECTRUM    ASCII       PEDS        1.60
  -1
LP93F7~1.ASC
17/05/19
22:36:08.00
17/05/19
22:36:34.00
tln
$LPE454_t0100$<tbV0>[13.0,10.4,8.0,0.0,27,1,0]
27.028
64

2002,4.07
MIRTGS : RIGHTBACK : INTERNAL 2
MIR : ON : INTERNAL 2
OPTKBR

0.200000
8
8.000000
FILLER
RATIO
SPECTRUM
UNLOCKED 256

DOUBLE
64
COMBINED
1
0
0

0.002000
RATIO

1
0
TRUE
51149
0
LEFT NOT FITTED RIGHT NOT FITTED 0
NONE
NONE
15600
12
4.427000
51148
TRUE
1 0 8 72 0 0 0 0

15798

#HDR
-1
-1
#GR
µM
%T
2.38419e-05
0.0
2.000000
0.002000
12515
8
32.2254
-13.0816
#DATA
2.000000	 0.303506
2.084000	 0.358790
2.168000	 -0.069727
2.252000	 0.278671
2.336000	 0.368013
2.420000	 0.166127
2.504000	 0.464869
2.588000	 0.297140
2.672000	 0.019534
2.756000	 0.069546
2.840000	 0.079966
2.924000	 0.279551
3.008000	 0.006035
3.092000	 -0.039694
3.176000	 0.186889
3.260000	 -0.061091
3.344000	 0.172391
3.428000	 0.160516
3.512000	 0.018997
3.596000	 -0.054449
3.680000	 0.022890
3.764000	 0.036633
3.848000	 0.039867
3.932000	 0.068241
4.016000	 0.006689
4.100000	 -0.005128
4.184000	 0.033024
4.268000	 0.208618
4.352000	 0.343845
4.436000	 1.157777
4.520000	 3.040626
4.604000	 5.824027
4.688000	 9.847004
4.772000	 13.7793
4.856000	 17.703
4.940000	 21.0564
5.024000	 23.7284
5.108000	 25.6957
5.192000	 27.3922
5.276000	 28.553
5.359999	 29.5054
5.444000	 30.1102
5.528000	 30.7516
5.612000	 31.1464
5.696000	 31.4839
5.780000	 31.7416
5.864000	 31.8835
5.948000	 32.0167
6.032000	 32.1351
6.116000	 32.1342
6.200000	 32.1325
6.284000	 32.1525
6.368000	 32.177
6.452000	 32.0001
6.536000	 31.921
6.620000	 31.9493
6.704000	 31.852
6.788000	 31.8499
6.872000	 31.7134
6.956000	 31.6896
7.040000	 31.7035
7.124000	 31.5562
7.208000	 31.466
7.292000	 31.4337
7.376000	 31.3896
7.460000	 31.2905
7.544000	 31.2064
7.628000	 31.196
7.712000	 31.1577
7.796000	 31.1003
7.880000	 30.966
7.964000	 30.9116
8.048000	 30.9931
8.132000	 30.8025
8.216000	 30.6822
8.300000	 30.6414
8.384000	 30.5563
8.468000	 30.4447
8.552000	 30.2857
8.635999	 30.4392
8.719999	 30.3554
8.804000	 30.3325
8.888000	 30.1913
8.972000	 30.2025
9.056000	 29.9813
9.140000	 29.8272
9.224000	 29.8344
9.308000	 29.831
9.391999	 29.722
9.475999	 29.5927
9.560000	 29.4531
9.644000	 29.4725
9.728000	 29.694
9.812000	 29.3734
9.896000	 29.2255
9.980000	 29.4391
10.064	29.0258
10.148	29.1108
10.232	29.1455
10.316	28.863
10.4	28.7271
10.484	28.7952
10.568	28.9516
10.652	28.7304
10.736	28.751
10.82	28.7373
10.904	28.533
10.988	28.2666
11.072	28.1888
11.156	28.1217
11.24	28.0483
11.324	27.7913
11.408	27.8369
11.492	27.9156
11.576	27.813
11.66	27.639
11.744	27.5182
11.828	27.5068
11.912	27.5988
11.996	27.5019
12.08	27.487
12.164	27.4326
12.248	27.3502
12.332	27.2264
12.416	26.8978
12.5	26.874
12.584	26.9632
12.668	26.8845
12.752	26.7419
12.836	26.54
12.92	26.5012
13.004	26.6185
13.088	26.6248
13.172	26.7154
13.256	26.8315
13.34	26.5256
13.424	26.183
13.508	25.9079
13.592	25.7933
13.676	25.797
13.76	25.7232
13.844	25.6252
13.928	25.5027
14.012	25.4468
14.096	25.4409
14.18	25.4274
14.264	25.3516
14.348	25.1993
14.432	25.0663
14.516	24.9103
14.6	24.7557
14.684	24.7651
14.768	24.7722
14.852	24.5601
14.936	24.3249
15.02	24.2969
15.104	24.338
15.188	24.3515
15.272	24.4496
15.356	24.5303
15.44	24.447
15.524	24.2981
15.608	24.0708
15.692	23.6752
15.776	23.3686
15.86	23.3958
15.944	23.6156
16.028	23.7606
16.112	23.7164
16.196	23.6462
16.28	23.7872
16.364	24.0082
16.448	23.9916
16.532	23.7407
16.616	23.4685
16.7	23.245
16.784	23.0419
16.868	22.8921
16.952	22.8859
17.036	23.0184
17.12	23.1617
17.204	23.2702
17.288	23.4227
17.372	23.5634
17.456	23.4814
17.54	23.1182
17.624	22.604
17.708	22.0586
17.792	21.6282
17.876	21.554
17.96	21.9259
18.044	22.4706
18.128	22.7791
18.212	22.7306
18.296	22.499
18.38	22.2502
18.464	22.0082
18.548	21.7725
18.632	21.5639
18.716	21.3397
18.8	21.0567
18.884	20.8623
18.968	21.0051
19.052	21.4539
19.136	21.8228
19.22	21.7773
19.304	21.4302
19.388	21.1594
19.472	21.1605
19.556	21.3301
19.64	21.5291
19.724	21.7483
19.808	22.0006
19.892	22.1921
19.976	22.1969
20.06	22.0021
20.144	21.7034
20.228	21.3616
20.312	20.9445
20.396	20.4128
20.48	19.8275
20.564	19.3383
20.648	19.0864
20.732	19.1235
20.816	19.3996
20.9	19.7996
20.984	20.1856
21.068	20.4405
21.152	20.5078
21.236	20.3991
21.32	20.1593
21.404	19.8217
21.488	19.4149
21.572	18.9956
21.656	18.6449
21.74	18.4386
21.824	18.402
21.908	18.4947
21.992	18.6498
22.076	18.8235
22.16	19.0147
22.244	19.2347
22.328	19.4633
22.412	19.6394
22.496	19.6617
22.58	19.4392
22.664	18.9337
22.748	18.2139
22.832	17.4635
22.916	16.9218
23	16.7579
23.084	16.9886
23.168	17.4566
23.252	17.9291
23.336	18.208
23.42	18.2576
23.504	18.1696
23.588	18.0811
23.672	18.0609
23.756	18.0479
23.84	17.9123
23.924	17.5337
24.008	16.8701
24.092	15.9758
24.176	14.9757
24.26	14.044
24.344	13.3831
24.428	13.1506
24.512	13.4401
24.596	14.1934
24.68	15.2024
24.764	16.1637
24.848	16.7756
24.932	16.7531
25.016	15.9487
25.1	14.4649
25.184	12.5697
25.268	10.5895
25.352	8.811414
25.436	7.451370
25.52	6.640267
25.604	6.442257
25.688	6.685026
25.772	7.018233
25.856	7.091471
25.94	6.790690
26.024	6.253874
26.108	5.753371
26.192	5.213169
26.276	4.173600
26.36	1.736589
26.444	-2.374530
26.528	-7.416862
26.612	-11.6285
26.696	-13.0523
26.78	-10.4167
26.864	-3.934618
26.948	4.856990
27.028	13.4183