File: Bakgrunnsmateriale/MATLAB/FTIR/ftir_data/LPE454/Mapping_121/LPE454_t111.asc
PE IR       SPECTRUM    SPECTRUM    ASCII       PEDS        1.60
  -1
LP97FD~1.ASC
17/05/19
23:33:04.00
17/05/19
23:33:30.00
tln
$LPE454_t0111$<tbV0>[13.0,13.0,8.0,0.0,27,1,0]
27.028
64

2002,4.07
MIRTGS : RIGHTBACK : INTERNAL 2
MIR : ON : INTERNAL 2
OPTKBR

0.200000
8
8.000000
FILLER
RATIO
SPECTRUM
UNLOCKED 256

DOUBLE
64
COMBINED
1
0
0

0.002000
RATIO

1
0
TRUE
51149
0
LEFT NOT FITTED RIGHT NOT FITTED 0
NONE
NONE
15600
12
4.427000
51148
TRUE
1 0 8 72 0 0 0 0

15798

#HDR
-1
-1
#GR
µM
%T
2.38419e-05
0.0
2.000000
0.002000
12515
8
31.3798
-7.284074
#DATA
2.000000	 0.378704
2.084000	 -0.210091
2.168000	 0.091498
2.252000	 0.001032
2.336000	 0.034376
2.420000	 0.168385
2.504000	 -0.020299
2.588000	 0.048811
2.672000	 0.012497
2.756000	 0.084094
2.840000	 -0.065255
2.924000	 -0.024160
3.008000	 0.031819
3.092000	 0.085074
3.176000	 0.064457
3.260000	 -0.149307
3.344000	 -0.019186
3.428000	 -0.004805
3.512000	 0.009779
3.596000	 0.115870
3.680000	 -0.021400
3.764000	 -0.025691
3.848000	 -0.041975
3.932000	 -0.055531
4.016000	 -0.071115
4.100000	 -0.041880
4.184000	 0.027234
4.268000	 0.045760
4.352000	 0.119172
4.436000	 0.569041
4.520000	 1.567405
4.604000	 3.337861
4.688000	 6.123781
4.772000	 9.045946
4.856000	 12.1412
4.940000	 14.7331
5.024000	 16.8909
5.108000	 18.7308
5.192000	 20.1027
5.276000	 21.2496
5.359999	 22.013
5.444000	 22.762
5.528000	 23.3418
5.612000	 23.5613
5.696000	 23.8658
5.780000	 24.17
5.864000	 24.3717
5.948000	 24.5969
6.032000	 24.8751
6.116000	 24.9821
6.200000	 25.0334
6.284000	 25.1997
6.368000	 25.2059
6.452000	 25.1469
6.536000	 25.1443
6.620000	 25.2067
6.704000	 25.1914
6.788000	 25.073
6.872000	 25.0451
6.956000	 24.9622
7.040000	 25.118
7.124000	 25.0727
7.208000	 24.9409
7.292000	 24.9374
7.376000	 24.9537
7.460000	 24.8934
7.544000	 24.7094
7.628000	 24.5925
7.712000	 24.6318
7.796000	 24.4095
7.880000	 24.3929
7.964000	 24.2962
8.048000	 24.0072
8.132000	 23.9167
8.216000	 23.9209
8.300000	 23.806
8.384000	 23.8744
8.468000	 23.7705
8.552000	 23.7591
8.635999	 23.5243
8.719999	 23.3772
8.804000	 23.3344
8.888000	 23.1015
8.972000	 23.0049
9.056000	 22.9455
9.140000	 22.6704
9.224000	 22.8775
9.308000	 22.7088
9.391999	 22.6633
9.475999	 22.5497
9.560000	 22.4056
9.644000	 22.286
9.728000	 22.2488
9.812000	 22.16
9.896000	 21.9171
9.980000	 21.8978
10.064	21.8406
10.148	21.8051
10.232	21.5996
10.316	21.5382
10.4	21.4043
10.484	21.2059
10.568	21.3553
10.652	21.1504
10.736	21.0106
10.82	20.9454
10.904	20.7216
10.988	20.6897
11.072	20.8376
11.156	20.7519
11.24	20.5088
11.324	20.3559
11.408	20.3623
11.492	20.342
11.576	20.2617
11.66	20.1278
11.744	20.1556
11.828	19.9934
11.912	19.8066
11.996	19.6897
12.08	19.6144
12.164	19.469
12.248	19.5187
12.332	19.5111
12.416	19.5882
12.5	19.1915
12.584	18.9489
12.668	19.109
12.752	19.1789
12.836	18.9931
12.92	18.7691
13.004	18.7682
13.088	18.7721
13.172	18.6299
13.256	18.3901
13.34	18.1875
13.424	18.2688
13.508	18.2853
13.592	18.2979
13.676	18.3646
13.76	18.3151
13.844	18.1613
13.928	18.017
14.012	17.8527
14.096	17.6358
14.18	17.5288
14.264	17.5035
14.348	17.5289
14.432	17.568
14.516	17.4725
14.6	17.243
14.684	16.9721
14.768	16.7998
14.852	16.7124
14.936	16.6521
15.02	16.7085
15.104	16.7461
15.188	16.7032
15.272	16.739
15.356	16.7574
15.44	16.6577
15.524	16.5403
15.608	16.4553
15.692	16.3969
15.776	16.3363
15.86	16.2383
15.944	16.1226
16.028	16.0077
16.112	15.8662
16.196	15.7636
16.28	15.8335
16.364	15.9906
16.448	15.9671
16.532	15.6979
16.616	15.3964
16.7	15.2632
16.784	15.2946
16.868	15.3526
16.952	15.3755
17.036	15.4399
17.12	15.5937
17.204	15.7338
17.288	15.7054
17.372	15.47
17.456	15.1424
17.54	14.8694
17.624	14.6606
17.708	14.4123
17.792	14.1169
17.876	13.9438
17.96	14.0164
18.044	14.2062
18.128	14.2637
18.212	14.1152
18.296	13.9184
18.38	13.8375
18.464	13.8525
18.548	13.8362
18.632	13.7574
18.716	13.7222
18.8	13.7972
18.884	13.8848
18.968	13.8328
19.052	13.6473
19.136	13.4881
19.22	13.4679
19.304	13.5137
19.388	13.4896
19.472	13.4007
19.556	13.4076
19.64	13.6176
19.724	13.8865
19.808	13.8809
19.892	13.3358
19.976	12.3073
20.06	11.1803
20.144	10.4204
20.228	10.2774
20.312	10.6634
20.396	11.276
20.48	11.8212
20.564	12.1685
20.648	12.3675
20.732	12.5368
20.816	12.7564
20.9	13.0055
20.984	13.1881
21.068	13.2068
21.152	13.0361
21.236	12.7513
21.32	12.5018
21.404	12.4511
21.488	12.68
21.572	13.151
21.656	13.7132
21.74	14.1472
21.824	14.2442
21.908	13.8857
21.992	13.0993
22.076	12.062
22.16	11.0414
22.244	10.2772
22.328	9.878474
22.412	9.800409
22.496	9.900164
22.58	10.0669
22.664	10.2875
22.748	10.6312
22.832	11.1401
22.916	11.751
23	12.2781
23.084	12.5056
23.168	12.3058
23.252	11.7349
23.336	11.0028
23.42	10.3763
23.504	10.0791
23.588	10.2002
23.672	10.6943
23.756	11.426
23.84	12.2234
23.924	12.9496
24.008	13.5336
24.092	13.9703
24.176	14.3186
24.26	14.641
24.344	14.9433
24.428	15.1399
24.512	15.0678
24.596	14.5333
24.68	13.4384
24.764	11.905
24.848	10.2301
24.932	8.847436
25.016	8.145376
25.1	8.295749
25.184	9.237606
25.268	10.7382
25.352	12.5525
25.436	14.4086
25.52	16.1404
25.604	17.7591
25.688	19.4028
25.772	21.2193
25.856	23.215
25.94	25.2196
26.024	26.8102
26.108	27.3819
26.192	26.5261
26.276	24.1185
26.36	20.317
26.444	15.6084
26.528	10.6483
26.612	6.007202
26.696	2.050558
26.78	-1.121809
26.864	-3.615567
26.948	-5.407851
27.028	-6.044316