File: Bakgrunnsmateriale/MATLAB/FTIR/ftir_data/LPE454/Mapping_121/LPE454_t110.asc
PE IR       SPECTRUM    SPECTRUM    ASCII       PEDS        1.60
  -1
LP93FD~1.ASC
17/05/19
23:22:14.00
17/05/19
23:22:40.00
tln
$LPE454_t0110$<tbV0>[-13.0,10.4,8.0,0.0,27,1,0]
27.028
64

2002,4.07
MIRTGS : RIGHTBACK : INTERNAL 2
MIR : ON : INTERNAL 2
OPTKBR

0.200000
8
8.000000
FILLER
RATIO
SPECTRUM
UNLOCKED 256

DOUBLE
64
COMBINED
1
0
0

0.002000
RATIO

1
0
TRUE
51149
0
LEFT NOT FITTED RIGHT NOT FITTED 0
NONE
NONE
15600
12
4.427000
51148
TRUE
1 0 8 72 0 0 0 0

15798

#HDR
-1
-1
#GR
µM
%T
2.38419e-05
0.0
2.000000
0.002000
12515
8
40.554
-4.410927
#DATA
2.000000	 0.317454
2.084000	 0.173590
2.168000	 0.889757
2.252000	 0.209206
2.336000	 0.186834
2.420000	 -0.121536
2.504000	 0.087856
2.588000	 -0.049962
2.672000	 0.120599
2.756000	 0.126824
2.840000	 0.042446
2.924000	 0.109830
3.008000	 -0.002780
3.092000	 -0.008089
3.176000	 0.013126
3.260000	 0.083042
3.344000	 0.115643
3.428000	 -0.116358
3.512000	 0.119738
3.596000	 -0.077688
3.680000	 0.095201
3.764000	 0.030550
3.848000	 0.098051
3.932000	 0.031919
4.016000	 -0.038305
4.100000	 -0.056630
4.184000	 -0.029870
4.268000	 0.233577
4.352000	 0.652019
4.436000	 1.779212
4.520000	 3.595455
4.604000	 6.377651
4.688000	 9.898393
4.772000	 13.3892
4.856000	 16.3861
4.940000	 19.3192
5.024000	 21.3141
5.108000	 22.7983
5.192000	 24.0396
5.276000	 24.8895
5.359999	 25.3814
5.444000	 25.922
5.528000	 26.1837
5.612000	 26.4374
5.696000	 26.5604
5.780000	 26.7012
5.864000	 26.7483
5.948000	 26.8905
6.032000	 26.848
6.116000	 26.9084
6.200000	 26.845
6.284000	 26.8296
6.368000	 26.8779
6.452000	 26.9002
6.536000	 26.8571
6.620000	 26.7629
6.704000	 26.8708
6.788000	 26.7797
6.872000	 26.7739
6.956000	 26.8413
7.040000	 26.667
7.124000	 26.5342
7.208000	 26.5284
7.292000	 26.6585
7.376000	 26.5149
7.460000	 26.4532
7.544000	 26.4722
7.628000	 26.5374
7.712000	 26.4591
7.796000	 26.3916
7.880000	 26.3537
7.964000	 26.403
8.048000	 26.2888
8.132000	 26.2313
8.216000	 26.1345
8.300000	 26.0483
8.384000	 26.0229
8.468000	 25.9289
8.552000	 25.7426
8.635999	 25.74
8.719999	 25.7215
8.804000	 25.7401
8.888000	 25.6504
8.972000	 25.5985
9.056000	 25.3879
9.140000	 25.2046
9.224000	 25.393
9.308000	 25.2834
9.391999	 25.3736
9.475999	 25.2302
9.560000	 25.0412
9.644000	 24.9605
9.728000	 25.0467
9.812000	 24.96
9.896000	 24.9384
9.980000	 24.7531
10.064	24.5786
10.148	24.4784
10.232	24.4181
10.316	24.3665
10.4	24.3656
10.484	24.1478
10.568	24.2505
10.652	24.376
10.736	24.0845
10.82	23.7515
10.904	23.5695
10.988	23.6092
11.072	23.8408
11.156	23.7879
11.24	23.8566
11.324	23.6508
11.408	23.4588
11.492	23.1257
11.576	23.1638
11.66	23.2026
11.744	23.0176
11.828	22.9096
11.912	23.0573
11.996	23.1095
12.08	22.9876
12.164	22.916
12.248	22.7982
12.332	22.5143
12.416	22.4075
12.5	22.3178
12.584	22.2366
12.668	22.142
12.752	22.1547
12.836	22.1582
12.92	22.1518
13.004	22.2918
13.088	22.4437
13.172	22.382
13.256	22.1009
13.34	21.8033
13.424	21.6102
13.508	21.6583
13.592	21.6899
13.676	21.5249
13.76	21.3002
13.844	21.0997
13.928	21.0079
14.012	21.1345
14.096	21.1961
14.18	21.1495
14.264	21.2041
14.348	21.1751
14.432	21.0718
14.516	20.97
14.6	20.6728
14.684	20.3585
14.768	20.3753
14.852	20.4608
14.936	20.2774
15.02	20.0523
15.104	20.1569
15.188	20.4936
15.272	20.6226
15.356	20.4076
15.44	20.165
15.524	20.0814
15.608	20.0143
15.692	19.9604
15.776	20.0138
15.86	20.0142
15.944	19.8207
16.028	19.5308
16.112	19.2603
16.196	19.0352
16.28	18.8493
16.364	18.7424
16.448	18.8228
16.532	19.1263
16.616	19.4746
16.7	19.5679
16.784	19.2687
16.868	18.7837
16.952	18.4633
17.036	18.4091
17.12	18.4575
17.204	18.5146
17.288	18.6222
17.372	18.7403
17.456	18.7676
17.54	18.7265
17.624	18.6862
17.708	18.5945
17.792	18.3964
17.876	18.1741
17.96	18.0467
18.044	18.0227
18.128	18.0401
18.212	18.0442
18.296	17.9498
18.38	17.6407
18.464	17.1256
18.548	16.6212
18.632	16.3669
18.716	16.3597
18.8	16.3647
18.884	16.2203
18.968	16.0136
19.052	15.9664
19.136	16.2111
19.22	16.7092
19.304	17.2955
19.388	17.7787
19.472	18.0434
19.556	18.1029
19.64	18.0423
19.724	17.8644
19.808	17.4767
19.892	16.8521
19.976	16.1631
20.06	15.6835
20.144	15.5714
20.228	15.7618
20.312	16.043
20.396	16.2166
20.48	16.2146
20.564	16.093
20.648	15.9621
20.732	15.9079
20.816	15.9437
20.9	16.0214
20.984	16.0697
21.068	16.0378
21.152	15.9181
21.236	15.737
21.32	15.5372
21.404	15.3616
21.488	15.2303
21.572	15.1357
21.656	15.052
21.74	14.9648
21.824	14.9064
21.908	14.9578
21.992	15.1887
22.076	15.5837
22.16	16.008
22.244	16.2556
22.328	16.1641
22.412	15.7003
22.496	14.996
22.58	14.2704
22.664	13.7288
22.748	13.4782
22.832	13.5043
22.916	13.722
23	14.045
23.084	14.4187
23.168	14.8232
23.252	15.2452
23.336	15.6331
23.42	15.8767
23.504	15.8588
23.588	15.53
23.672	14.9477
23.756	14.2701
23.84	13.6773
23.924	13.301
24.008	13.181
24.092	13.2738
24.176	13.494
24.26	13.7484
24.344	13.9292
24.428	13.9248
24.512	13.6045
24.596	12.9235
24.68	11.9678
24.764	10.9511
24.848	10.1971
24.932	10.0334
25.016	10.5906
25.1	11.6613
25.184	12.8267
25.268	13.6843
25.352	14.0459
25.436	13.901
25.52	13.369
25.604	12.5974
25.688	11.8978
25.772	11.607
25.856	11.8955
25.94	12.5287
26.024	12.9519
26.108	12.5962
26.192	11.6408
26.276	11.0737
26.36	12.6158
26.444	17.283
26.528	24.6516
26.612	32.6981
26.696	38.7287
26.78	40.4985
26.864	37.3949
26.948	30.6277
27.028	23.0528