File: Bakgrunnsmateriale/MATLAB/FTIR/ftir_data/LPE454/Mapping_121/LPE454_t118_cm-1.asc
PE IR       SPECTRUM    SPECTRUM    ASCII       PEDS        1.60
  -1
LP0B58~1.ASC
17/05/20
00:19:49.00
17/05/20
00:19:49.00
tln
$LPE454_t0118$<tbV0>[-5.2,13.0,8.0,0.0,27,1,0]
370
64

2002,4.07
MIRTGS : RIGHTBACK : INTERNAL 2
MIR : ON : INTERNAL 2
OPTKBR

0.200000
8
8.000000
FILLER
RATIO
SPECTRUM
UNLOCKED 256

DOUBLE
64
COMBINED
1
0
0

1.000000
RATIO

1
0
TRUE
51149
0
LEFT NOT FITTED RIGHT NOT FITTED 0
NONE
NONE
15600
12
4.427000
51148
TRUE
1 0 8 72 0 0 0 0

15798

#HDR
-1
-1
#GR
CM-1
%T
2.38419e-05
0.0
5000
-1.000000
4631
8
34.3055
-2.301430
#DATA
5000	-0.100803
4984	0.022888
4968	0.307488
4952	0.616884
4936	0.491476
4920	0.278472
4904	0.519418
4888	0.383210
4872	0.245594
4856	0.107502
4840	-0.001764
4824	-0.173544
4808	0.036287
4792	0.632739
4776	0.358271
4760	0.821375
4744	0.650262
4728	0.704884
4712	0.768327
4696	0.261950
4680	0.788879
4664	0.369596
4648	-0.539183
4632	-0.144338
4616	0.209093
4600	-0.861024
4584	11.4678
4568	9.059977
4552	-1.918315
4536	-0.523138
4520	-1.476907
4504	-0.417685
4488	-0.344920
4472	0.842070
4456	0.464415
4440	0.512313
4424	0.218486
4408	0.327873
4392	0.081062
4376	0.179028
4360	0.038337
4344	0.016403
4328	0.063443
4312	0.191760
4296	0.083661
4280	0.441050
4264	0.137066
4248	0.183391
4232	0.045800
4216	0.415539
4200	0.591635
4184	-0.389099
4168	-0.053834
4152	0.835442
4136	-0.219154
4120	-0.205159
4104	0.905323
4088	-0.379753
4072	0.863552
4056	0.439190
4040	0.184798
4024	0.249552
4008	0.205278
3992	0.124335
3976	-0.177145
3960	0.101208
3944	0.000810
3928	-0.129127
3912	0.081157
3896	0.085163
3880	0.219893
3864	0.204610
3848	0.151443
3832	0.314426
3816	0.189638
3800	-0.098538
3784	-0.190234
3768	0.064754
3752	0.140595
3736	0.142598
3720	-0.002741
3704	-0.028133
3688	0.127387
3672	0.090289
3656	0.052046
3640	-0.000405
3624	0.108957
3608	-0.006699
3592	-0.112652
3576	-0.022578
3560	0.165081
3544	0.082015
3528	-0.085353
3512	-0.041985
3496	0.028944
3480	0.084519
3464	0.230669
3448	0.118684
3432	-0.097084
3416	0.063824
3400	0.137710
3384	0.109004
3368	0.147080
3352	0.112724
3336	0.053477
3320	-0.078845
3304	0.010251
3288	0.014448
3272	0.145030
3256	0.034022
3240	-0.017833
3224	0.009799
3208	0.051307
3192	-0.008559
3176	-0.054240
3160	-0.047183
3144	0.041890
3128	0.133609
3112	0.014495
3096	-0.044488
3080	0.103211
3064	-0.008130
3048	0.105738
3032	0.178790
3016	0.010561
3000	0.099921
2984	-0.034761
2968	0.104188
2952	0.052142
2936	0.206279
2920	-0.014734
2904	-0.039911
2888	0.048255
2872	0.130510
2856	0.124621
2840	-0.015282
2824	-0.029802
2808	-0.040459
2792	0.018572
2776	0.092458
2760	0.075221
2744	0.063514
2728	0.056672
2712	0.090312
2696	0.009274
2680	0.038695
2664	0.064969
2648	-0.019860
2632	0.022649
2616	0.021028
2600	-0.024747
2584	0.053286
2568	0.091934
2552	-0.040125
2536	0.126981
2520	0.020432
2504	-0.144028
2488	-0.036716
2472	0.072145
2456	0.037622
2440	0.008344
2424	-0.068235
2408	0.005531
2392	0.134587
2376	0.077867
2360	0.174450
2344	0.365281
2328	0.520110
2312	0.825691
2296	0.958180
2280	1.490616
2264	1.889109
2248	2.631855
2232	3.603816
2216	4.553747
2200	5.877566
2184	7.336711
2168	9.027910
2152	10.5179
2136	12.5242
2120	14.3585
2104	16.0911
2088	17.9327
2072	19.5786
2056	21.0094
2040	22.6168
2024	23.9739
2008	25.0865
1992	26.1413
1976	27.181
1960	27.9982
1944	28.8129
1928	29.5564
1912	30.3272
1896	30.5914
1880	31.1394
1864	31.6292
1848	32.0182
1832	32.2052
1816	32.6111
1800	32.9248
1784	33.0621
1768	33.2375
1752	33.3173
1736	33.4945
1720	33.4703
1704	33.4916
1688	33.8253
1672	33.9399
1656	33.8272
1640	33.9188
1624	33.9933
1608	34.0087
1592	33.9999
1576	34.0641
1560	34.156
1544	34.0269
1528	33.9862
1512	34.2232
1496	34.0407
1480	34.0644
1464	33.892
1448	34.0324
1432	34.197
1416	33.8795
1400	33.8102
1384	34.046
1368	33.9044
1352	33.8269
1336	33.8641
1320	34.0899
1304	33.9929
1288	33.7727
1272	33.7668
1256	33.9493
1240	33.7308
1224	33.5373
1208	33.7659
1192	33.7964
1176	33.4214
1160	33.3317
1144	33.4301
1128	33.4726
1112	33.0941
1096	33.0084
1080	33.3505
1064	33.2926
1048	32.7758
1032	32.778
1016	32.8087
1000	32.8542
984	 32.5397
968	 32.4172
952	 32.7219
936	 32.3301
920	 31.7882
904	 32.1226
888	 31.9791
872	 31.7044
856	 31.5258
840	 31.4079
824	 31.3212
808	 31.161
792	 30.7064
776	 30.7176
760	 30.7646
744	 30.0898
728	 29.4396
712	 30.0534
696	 29.8511
680	 28.9916
664	 29.0552
648	 29.113
632	 28.3688
616	 27.9743
600	 27.7741
584	 27.4516
568	 27.1302
552	 26.355
536	 26.091
520	 26.5558
504	 25.4935
488	 24.5761
472	 23.9782
456	 23.2844
440	 24.1752
424	 21.9643
408	 18.6841
392	 18.4747
376	 23.661
370	 7.745909