File: Bakgrunnsmateriale/MATLAB/FTIR/ftir_data/LPE454/Mapping_121/LPE454_t112.asc
PE IR       SPECTRUM    SPECTRUM    ASCII       PEDS        1.60
  -1
LP9BFD~1.ASC
17/05/19
23:37:40.00
17/05/19
23:38:06.00
tln
$LPE454_t0112$<tbV0>[10.4,13.0,8.0,0.0,27,1,0]
27.028
64

2002,4.07
MIRTGS : RIGHTBACK : INTERNAL 2
MIR : ON : INTERNAL 2
OPTKBR

0.200000
8
8.000000
FILLER
RATIO
SPECTRUM
UNLOCKED 256

DOUBLE
64
COMBINED
1
0
0

0.002000
RATIO

1
0
TRUE
51149
0
LEFT NOT FITTED RIGHT NOT FITTED 0
NONE
NONE
15600
12
4.427000
51148
TRUE
1 0 8 72 0 0 0 0

15798

#HDR
-1
-1
#GR
µM
%T
2.38419e-05
0.0
2.000000
0.002000
12515
8
38.8807
-4.534870
#DATA
2.000000	 -0.135278
2.084000	 0.391150
2.168000	 0.886032
2.252000	 -0.337795
2.336000	 0.170607
2.420000	 0.321229
2.504000	 -0.016268
2.588000	 0.071536
2.672000	 0.119818
2.756000	 0.060327
2.840000	 -0.088899
2.924000	 -0.007858
3.008000	 0.075642
3.092000	 0.029481
3.176000	 0.094797
3.260000	 0.029096
3.344000	 0.030281
3.428000	 -0.043351
3.512000	 0.048817
3.596000	 0.118018
3.680000	 0.005389
3.764000	 -0.038503
3.848000	 0.002801
3.932000	 0.063581
4.016000	 -0.055202
4.100000	 0.103688
4.184000	 0.250362
4.268000	 0.640875
4.352000	 1.664418
4.436000	 3.748420
4.520000	 7.064136
4.604000	 11.6469
4.688000	 16.5314
4.772000	 21.1529
4.856000	 25.2571
4.940000	 28.321
5.024000	 30.7958
5.108000	 32.659
5.192000	 34.1894
5.276000	 35.3722
5.359999	 36.1081
5.444000	 36.8229
5.528000	 37.2383
5.612000	 37.6628
5.696000	 37.843
5.780000	 38.1708
5.864000	 38.279
5.948000	 38.5642
6.032000	 38.7933
6.116000	 38.7331
6.200000	 38.8807
6.284000	 38.7546
6.368000	 38.7369
6.452000	 38.6813
6.536000	 38.5719
6.620000	 38.441
6.704000	 38.5268
6.788000	 38.4505
6.872000	 38.3214
6.956000	 38.2639
7.040000	 38.285
7.124000	 38.1087
7.208000	 38.0819
7.292000	 38.0293
7.376000	 37.9566
7.460000	 38.0486
7.544000	 37.8631
7.628000	 37.6594
7.712000	 37.6934
7.796000	 37.5211
7.880000	 37.4716
7.964000	 37.386
8.048000	 37.3249
8.132000	 37.2268
8.216000	 37.2652
8.300000	 37.1961
8.384000	 37.1435
8.468000	 37.0508
8.552000	 36.9767
8.635999	 36.9657
8.719999	 36.9049
8.804000	 36.9443
8.888000	 36.9222
8.972000	 36.705
9.056000	 36.7463
9.140000	 36.6225
9.224000	 36.64
9.308000	 36.689
9.391999	 36.5121
9.475999	 36.4726
9.560000	 36.3442
9.644000	 36.1908
9.728000	 36.2851
9.812000	 36.2297
9.896000	 35.8816
9.980000	 35.9254
10.064	35.9185
10.148	35.9594
10.232	35.8606
10.316	35.7131
10.4	35.6991
10.484	35.5296
10.568	35.3891
10.652	35.5489
10.736	35.4609
10.82	35.3815
10.904	35.3524
10.988	35.3347
11.072	35.4088
11.156	35.2488
11.24	35.033
11.324	35.0293
11.408	35.0997
11.492	34.7568
11.576	34.6399
11.66	34.9773
11.744	34.9229
11.828	34.6751
11.912	34.6156
11.996	34.5704
12.08	34.3671
12.164	34.2549
12.248	34.2192
12.332	34.2481
12.416	34.354
12.5	34.1729
12.584	34.0756
12.668	33.929
12.752	33.7145
12.836	33.6834
12.92	33.8595
13.004	33.9156
13.088	33.6999
13.172	33.4258
13.256	33.1811
13.34	33.2697
13.424	33.6006
13.508	33.5931
13.592	33.4201
13.676	33.2986
13.76	33.2885
13.844	33.3529
13.928	33.2776
14.012	33.0926
14.096	32.8817
14.18	32.9607
14.264	33.1681
14.348	33.0223
14.432	32.8151
14.516	32.856
14.6	32.8711
14.684	32.7669
14.768	32.7843
14.852	32.8709
14.936	32.8636
15.02	32.8612
15.104	32.8564
15.188	32.6826
15.272	32.4589
15.356	32.3683
15.44	32.3266
15.524	32.2334
15.608	32.1436
15.692	32.1367
15.776	32.139
15.86	31.9954
15.944	31.7192
16.028	31.5153
16.112	31.5265
16.196	31.6854
16.28	31.8031
16.364	31.7608
16.448	31.6457
16.532	31.6676
16.616	31.8767
16.7	32.06
16.784	32.0182
16.868	31.8035
16.952	31.5801
17.036	31.3818
17.12	31.1586
17.204	30.9374
17.288	30.7697
17.372	30.6476
17.456	30.5673
17.54	30.5408
17.624	30.5273
17.708	30.4871
17.792	30.4837
17.876	30.5969
17.96	30.764
18.044	30.8226
18.128	30.7001
18.212	30.4919
18.296	30.3442
18.38	30.2931
18.464	30.2667
18.548	30.1996
18.632	30.0958
18.716	29.9904
18.8	29.8752
18.884	29.703
18.968	29.4802
19.052	29.3268
19.136	29.3851
19.22	29.6481
19.304	29.9256
19.388	30.0427
19.472	30.0354
19.556	30.0747
19.64	30.2263
19.724	30.3682
19.808	30.3508
19.892	30.1671
19.976	29.921
20.06	29.6757
20.144	29.4103
20.228	29.0987
20.312	28.7731
20.396	28.4823
20.48	28.2563
20.564	28.1024
20.648	28.0299
20.732	28.014
20.816	27.9831
20.9	27.8726
20.984	27.7329
21.068	27.7519
21.152	28.1256
21.236	28.8683
21.32	29.7363
21.404	30.3721
21.488	30.5382
21.572	30.2437
21.656	29.6596
21.74	28.9561
21.824	28.2095
21.908	27.4444
21.992	26.729
22.076	26.1885
22.16	25.9405
22.244	25.996
22.328	26.2475
22.412	26.551
22.496	26.8223
22.58	27.0797
22.664	27.3815
22.748	27.7391
22.832	28.0766
22.916	28.2551
23	28.1871
23.084	27.9022
23.168	27.5359
23.252	27.2475
23.336	27.1626
23.42	27.2968
23.504	27.5826
23.588	27.9064
23.672	28.1651
23.756	28.3023
23.84	28.3208
23.924	28.2613
24.008	28.1621
24.092	28.0137
24.176	27.7255
24.26	27.1739
24.344	26.28
24.428	25.1001
24.512	23.8566
24.596	22.8939
24.68	22.5815
24.764	23.1517
24.848	24.5383
24.932	26.388
25.016	28.1886
25.1	29.4285
25.184	29.8252
25.268	29.419
25.352	28.4263
25.436	27.2138
25.52	26.1008
25.604	25.2058
25.688	24.373
25.772	23.2681
25.856	21.6381
25.94	19.6388
26.024	17.9085
26.108	17.3471
26.192	18.4519
26.276	21.0715
26.36	24.3555
26.444	27.2041
26.528	28.6585
26.612	28.4173
26.696	26.4438
26.78	22.7739
26.864	17.2651
26.948	9.683787
27.028	0.591802