File: Bakgrunnsmateriale/MATLAB/FTIR/ftir_data/LPE454/Mapping_121/LPE454_t09_cm-1.asc
PE IR       SPECTRUM    SPECTRUM    ASCII       PEDS        1.60
  -1
LP673D~1.ASC
17/05/19
15:06:14.00
17/05/19
15:06:14.00
tln
$LPE454_t0009$<tbV0>[-7.8,-13.0,8.0,0.0,27,1,0]
370
64

2002,4.07
MIRTGS : RIGHTBACK : INTERNAL 2
MIR : ON : INTERNAL 2
OPTKBR

0.200000
8
8.000000
FILLER
RATIO
SPECTRUM
UNLOCKED 256

DOUBLE
64
COMBINED
1
0
0

1.000000
RATIO

1
0
TRUE
51149
0
LEFT NOT FITTED RIGHT NOT FITTED 0
NONE
NONE
15600
12
4.427000
51148
TRUE
1 0 8 72 0 0 0 0

15798

#HDR
-1
-1
#GR
CM-1
%T
2.38419e-05
0.0
5000
-1.000000
4631
8
59.9231
-2.050256
#DATA
5000	-0.031042
4984	0.319576
4968	-0.098252
4952	0.462126
4936	-0.143718
4920	-0.044965
4904	0.308775
4888	0.177001
4872	1.072311
4856	-0.193500
4840	-0.083136
4824	-1.973247
4808	1.262784
4792	1.333117
4776	0.024485
4760	0.963330
4744	0.918292
4728	-0.326132
4712	-0.156140
4696	0.169396
4680	0.170993
4664	0.345873
4648	0.497198
4632	0.166177
4616	0.212836
4600	0.648951
4584	0.176262
4568	0.229716
4552	-0.300884
4536	-0.113368
4520	0.145387
4504	-0.431418
4488	0.702524
4472	14.5201
4456	1.345825
4440	-1.811861
4424	-0.646448
4408	-0.247240
4392	0.050330
4376	0.215816
4360	0.126051
4344	0.353980
4328	0.117564
4312	0.118660
4296	0.153398
4280	0.236797
4264	-0.381374
4248	-0.246167
4232	-0.102448
4216	-0.016736
4200	-0.243806
4184	-0.514483
4168	-0.065493
4152	0.333690
4136	0.161123
4120	0.542211
4104	0.284457
4088	0.029015
4072	0.052475
4056	-0.057482
4040	0.255560
4024	0.156784
4008	0.167989
3992	0.066018
3976	0.157070
3960	0.038790
3944	0.118875
3928	0.123095
3912	-0.090360
3896	-0.060534
3880	-0.135588
3864	-0.010204
3848	0.078010
3832	-0.066351
3816	0.110030
3800	-0.128936
3784	-0.015592
3768	0.240468
3752	0.074219
3736	-0.036191
3720	0.069761
3704	0.057673
3688	0.191020
3672	0.025606
3656	0.029301
3640	0.163865
3624	0.028896
3608	0.087404
3592	-0.010418
3576	0.017452
3560	0.123095
3544	0.021910
3528	0.108098
3512	0.007653
3496	0.117826
3480	0.173926
3464	0.144624
3448	-0.016307
3432	0.006794
3416	0.017356
3400	-0.080323
3384	0.024938
3368	0.179743
3352	0.040912
3336	-0.039196
3320	0.045108
3304	0.119900
3288	0.136280
3272	0.037455
3256	0.123500
3240	0.006103
3224	0.078153
3208	0.041437
3192	0.160503
3176	0.147914
3160	0.091886
3144	0.049471
3128	-0.006699
3112	0.375652
3096	0.130271
3080	0.060439
3064	0.085544
3048	0.165724
3032	0.051331
3016	-0.063657
3000	0.033044
2984	0.054860
2968	0.113105
2952	0.068092
2936	0.056147
2920	0.062847
2904	0.019454
2888	0.080728
2872	0.057911
2856	-0.038743
2840	-0.011014
2824	0.068664
2808	-0.036644
2792	0.017881
2776	0.018429
2760	0.106525
2744	0.088167
2728	0.117135
2712	0.036120
2696	0.090241
2680	0.047159
2664	0.101971
2648	0.033497
2632	0.002169
2616	0.057864
2600	0.062060
2584	0.041866
2568	0.070571
2552	0.184607
2536	-0.016140
2520	-0.023126
2504	-0.097727
2488	0.074005
2472	-0.097751
2456	0.017380
2440	-0.056767
2424	0.170683
2408	0.033569
2392	-0.048923
2376	0.083470
2360	0.092291
2344	0.133490
2328	0.269818
2312	0.438117
2296	0.637602
2280	0.760960
2264	1.240587
2248	1.589059
2232	2.342224
2216	3.102707
2200	3.961968
2184	5.077195
2168	6.449532
2152	7.846426
2136	9.079766
2120	10.6871
2104	12.2002
2088	13.6912
2072	14.8731
2056	16.3788
2040	17.7351
2024	18.8757
2008	19.9721
1992	20.7481
1976	21.6175
1960	22.6007
1944	23.1434
1928	23.5639
1912	24.4045
1896	24.8226
1880	25.0792
1864	25.6268
1848	26.0534
1832	26.129
1816	26.4791
1800	26.9608
1784	27.0052
1768	27.1304
1752	27.6981
1736	27.7966
1720	27.5463
1704	27.9001
1688	28.4438
1672	28.1145
1656	28.3957
1640	28.7704
1624	28.6765
1608	28.597
1592	28.8364
1576	29.174
1560	29.068
1544	29.1232
1528	29.459
1512	29.4912
1496	29.1222
1480	29.5553
1464	29.804
1448	29.4023
1432	29.3816
1416	29.9801
1400	29.9631
1384	29.5768
1368	29.8707
1352	30.2875
1336	29.9432
1320	29.6438
1304	30.1792
1288	30.1827
1272	29.5546
1256	29.9637
1240	30.4959
1224	30.0227
1208	29.7114
1192	30.2766
1176	30.33
1160	29.7004
1144	29.6604
1128	30.3644
1112	30.0327
1096	29.5025
1080	29.6881
1064	30.164
1048	29.5072
1032	29.3378
1016	29.8911
1000	29.7459
984	 29.1673
968	 29.376
952	 29.6865
936	 29.212
920	 28.4884
904	 29.1677
888	 29.1909
872	 28.3933
856	 28.3432
840	 28.982
824	 28.4221
808	 27.6054
792	 27.905
776	 28.3552
760	 27.104
744	 26.6945
728	 27.3395
712	 27.2017
696	 26.5909
680	 25.8935
664	 26.7895
648	 26.231
632	 24.7924
616	 25.5879
600	 25.5764
584	 24.012
568	 23.5043
552	 24.5567
536	 23.521
520	 22.7438
504	 23.7969
488	 22.4406
472	 22.0195
456	 20.69
440	 21.5526
424	 21.3524
408	 32.2393
392	 36.0371
376	 59.9231
370	 15.4579