File: Bakgrunnsmateriale/MATLAB/FTIR/ftir_data/LPE454/Mapping_121/LPE454_t22_cm-1.asc
PE IR       SPECTRUM    SPECTRUM    ASCII       PEDS        1.60
  -1
LP58B0~1.ASC
17/05/19
16:06:47.00
17/05/19
16:06:47.00
tln
$LPE454_t0022$<tbV0>[-13.0,-10.4,8.0,0.0,27,1,0]
370
64

2002,4.07
MIRTGS : RIGHTBACK : INTERNAL 2
MIR : ON : INTERNAL 2
OPTKBR

0.200000
8
8.000000
FILLER
RATIO
SPECTRUM
UNLOCKED 256

DOUBLE
64
COMBINED
1
0
0

1.000000
RATIO

1
0
TRUE
51149
0
LEFT NOT FITTED RIGHT NOT FITTED 0
NONE
NONE
15600
12
4.427000
51148
TRUE
1 0 8 72 0 0 0 0

15798

#HDR
-1
-1
#GR
CM-1
%T
2.38419e-05
0.0
5000
-1.000000
4631
8
21.5982
-53.9671
#DATA
5000	0.969696
4984	0.158715
4968	0.135946
4952	0.173759
4936	-0.284647
4920	-0.256156
4904	0.256013
4888	-0.025773
4872	0.139737
4856	-0.055003
4840	0.013017
4824	0.438404
4808	-0.138902
4792	0.248241
4776	-0.036072
4760	-0.117659
4744	0.268816
4728	-0.234532
4712	0.393772
4696	0.504660
4680	0.342583
4664	0.091433
4648	0.136995
4632	0.085210
4616	0.410342
4600	-0.900387
4584	-0.546860
4568	1.252245
4552	0.862717
4536	0.578379
4520	3.220462
4504	17.7161
4488	-0.330615
4472	-1.396179
4456	0.406455
4440	-0.559997
4424	-0.200581
4408	0.372529
4392	0.125074
4376	0.622653
4360	0.056338
4344	0.434899
4328	-0.004076
4312	0.157761
4296	0.243425
4280	-0.259160
4264	0.084495
4248	0.302815
4232	0.175952
4216	0.031042
4200	-0.139188
4184	0.632119
4168	0.374221
4152	-0.214862
4136	0.171732
4120	0.074005
4104	0.226473
4088	0.163483
4072	0.092530
4056	0.103569
4040	0.098204
4024	-0.048422
4008	-0.243782
3992	0.251054
3976	0.032997
3960	-0.084447
3944	-0.090646
3928	-0.129532
3912	0.041937
3896	0.196790
3880	0.116181
3864	0.085902
3848	0.049328
3832	0.150704
3816	0.195622
3800	-0.162720
3784	0.067806
3768	0.077199
3752	-0.069475
3736	0.156617
3720	0.051045
3704	0.150561
3688	0.269055
3672	-0.018358
3656	-0.054478
3640	-0.036025
3624	0.016260
3608	-0.109934
3592	-0.018739
3576	0.075173
3560	0.038170
3544	-0.023818
3528	0.010466
3512	0.167655
3496	0.099277
3480	0.038194
3464	0.102448
3448	-0.095295
3432	0.046420
3416	-0.111937
3400	-0.026345
3384	0.178766
3368	0.052118
3352	0.090384
3336	0.109148
3320	0.133299
3304	0.065112
3288	0.068211
3272	-0.021314
3256	-0.058054
3240	-0.042152
3224	0.025439
3208	0.060653
3192	-0.016021
3176	0.016570
3160	0.056409
3144	0.055503
3128	0.190234
3112	0.050520
3096	-0.022077
3080	0.033760
3064	0.185394
3048	0.199174
3032	0.085997
3016	0.061702
3000	-0.027203
2984	0.077176
2968	0.075626
2952	-0.020933
2936	0.047230
2920	0.090861
2904	-0.049519
2888	0.040340
2872	0.191164
2856	-0.100660
2840	-0.066924
2824	0.030708
2808	0.006675
2792	0.050592
2776	0.014543
2760	0.068187
2744	0.019741
2728	0.049185
2712	0.034403
2696	0.084877
2680	0.060391
2664	0.116109
2648	-0.084590
2632	-0.045514
2616	0.082278
2600	0.050044
2584	0.034666
2568	-0.015878
2552	0.053119
2536	0.006222
2520	-0.035476
2504	0.118994
2488	-0.073242
2472	-0.045084
2456	0.016236
2440	0.000977
2424	0.152540
2408	0.049829
2392	0.014209
2376	0.166440
2360	-0.066471
2344	0.042748
2328	-0.031518
2312	-0.009465
2296	0.113010
2280	0.010085
2264	0.008153
2248	0.019001
2232	0.052356
2216	-0.002360
2200	0.008273
2184	0.048971
2168	0.096821
2152	0.074124
2136	-0.046133
2120	-0.029063
2104	0.053119
2088	0.029683
2072	0.061821
2056	0.037455
2040	0.213456
2024	0.130748
2008	0.155067
1992	0.167655
1976	0.166797
1960	0.124645
1944	0.074219
1928	0.224852
1912	0.200057
1896	0.052499
1880	0.005125
1864	0.114655
1848	0.124454
1832	0.139760
1816	0.229930
1800	0.283598
1784	0.200939
1768	0.060272
1752	0.152683
1736	0.257611
1720	0.235295
1704	0.205969
1688	0.239372
1672	0.142908
1656	0.277972
1640	0.258851
1624	0.235462
1608	0.375771
1592	0.217247
1576	0.091195
1560	0.325894
1544	0.358104
1528	0.093221
1512	0.203371
1496	0.138688
1480	0.310063
1464	0.309324
1448	0.366497
1432	0.340819
1416	0.220751
1400	0.165271
1384	0.232887
1368	0.332689
1352	0.246095
1336	0.213503
1320	0.324249
1304	0.215077
1288	0.385069
1272	0.376200
1256	0.440382
1240	0.500869
1224	0.396323
1208	0.590443
1192	0.587773
1176	0.518202
1160	0.682830
1144	0.584387
1128	0.603222
1112	0.785899
1096	0.863075
1080	0.847363
1064	0.674390
1048	0.857758
1032	0.664258
1016	0.536537
1000	0.836229
984	 0.819659
968	 0.755262
952	 0.996708
936	 1.072001
920	 0.879478
904	 0.915789
888	 1.201581
872	 1.109576
856	 0.891900
840	 1.122832
824	 0.977301
808	 1.183176
792	 1.377201
776	 1.425933
760	 1.460862
744	 1.310873
728	 1.714348
712	 1.724839
696	 1.612854
680	 1.746320
664	 1.715612
648	 1.783585
632	 0.887775
616	 1.661252
600	 2.048301
584	 1.528573
568	 1.839590
552	 1.312732
536	 1.582241
520	 1.675438
504	 1.493072
488	 1.558017
472	 2.484703
456	 -0.042271
440	 3.289508
424	 -0.874042
408	 -0.301194
392	 16.1695
376	 -5.946969
370	 -53.9671