File: Bakgrunnsmateriale/MATLAB/FTIR/ftir_data/LPE454/Mapping_121/LPE454_t120_cm-1.asc
PE IR       SPECTRUM    SPECTRUM    ASCII       PEDS        1.60
  -1
LP03D7~1.ASC
17/05/20
00:29:02.00
17/05/20
00:29:02.00
tln
$LPE454_t0120$<tbV0>[-10.4,13.0,8.0,0.0,27,1,0]
370
64

2002,4.07
MIRTGS : RIGHTBACK : INTERNAL 2
MIR : ON : INTERNAL 2
OPTKBR

0.200000
8
8.000000
FILLER
RATIO
SPECTRUM
UNLOCKED 256

DOUBLE
64
COMBINED
1
0
0

1.000000
RATIO

1
0
TRUE
51149
0
LEFT NOT FITTED RIGHT NOT FITTED 0
NONE
NONE
15600
12
4.427000
51148
TRUE
1 0 8 72 0 0 0 0

15798

#HDR
-1
-1
#GR
CM-1
%T
2.38419e-05
0.0
5000
-1.000000
4631
8
32.0673
-22.1326
#DATA
5000	0.463438
4984	-0.093507
4968	0.303125
4952	0.370287
4936	-0.117039
4920	-0.001716
4904	0.040292
4888	0.170826
4872	-0.104832
4856	0.038242
4840	0.011420
4824	0.292921
4808	0.147891
4792	-0.058650
4776	0.220751
4760	0.398755
4744	0.376248
4728	0.303006
4712	0.364017
4696	0.012803
4680	0.151085
4664	0.343966
4648	0.709056
4632	0.381517
4616	0.046825
4600	1.251339
4584	5.340385
4568	1.087808
4552	-0.979566
4536	0.174999
4520	0.106167
4504	0.699853
4488	0.413537
4472	0.162124
4456	0.046944
4440	0.156831
4424	0.039410
4408	0.078940
4392	0.115132
4376	0.149226
4360	0.079417
4344	0.005054
4328	0.137567
4312	0.218582
4296	-0.055313
4280	0.382542
4264	0.008726
4248	0.271582
4232	-0.149726
4216	0.257539
4200	-0.113439
4184	0.049328
4168	0.986170
4152	0.590205
4136	0.915384
4120	0.587105
4104	0.340700
4088	-0.109672
4072	0.192093
4056	-0.073266
4040	-0.119519
4024	0.057911
4008	0.223207
3992	-0.209665
3976	0.050735
3960	0.025868
3944	0.053286
3928	0.144338
3912	0.220870
3896	0.112891
3880	0.059580
3864	0.125789
3848	0.114798
3832	0.024247
3816	-0.008440
3800	0.190019
3784	0.092482
3768	0.174522
3752	0.057220
3736	0.064492
3720	0.078296
3704	0.124788
3688	0.165176
3672	-0.073385
3656	0.258708
3640	-0.147128
3624	0.052309
3608	0.030660
3592	0.163269
3576	0.102424
3560	-0.002169
3544	-0.088930
3528	0.063896
3512	0.075054
3496	0.104403
3480	0.118756
3464	0.011801
3448	0.095176
3432	-0.049781
3416	0.049495
3400	0.054621
3384	0.038790
3368	-0.003194
3352	0.057697
3336	0.147628
3320	0.026822
3304	-0.103354
3288	0.121164
3272	0.061583
3256	0.075459
3240	0.010108
3224	-0.060391
3208	-0.031614
3192	0.140523
3176	-0.113725
3160	0.096464
3144	0.065732
3128	-0.102233
3112	-0.029826
3096	0.007319
3080	0.080442
3064	-0.182414
3048	0.040030
3032	0.023269
3016	-0.056600
3000	0.143122
2984	0.104880
2968	0.182795
2952	-0.045156
2936	-0.028777
2920	0.038766
2904	0.075984
2888	0.038337
2872	0.088667
2856	-0.031471
2840	0.112199
2824	0.008344
2808	0.091361
2792	0.067639
2776	0.075674
2760	0.007629
2744	-0.100755
2728	0.030755
2712	0.007295
2696	0.022745
2680	0.059342
2664	-0.030350
2648	0.110960
2632	0.078868
2616	-0.042796
2600	-0.033879
2584	0.130176
2568	0.066375
2552	0.043487
2536	-0.004959
2520	0.011515
2504	0.108933
2488	-0.063443
2472	0.014042
2456	-0.010752
2440	0.079584
2424	-0.007128
2408	0.067281
2392	0.098776
2376	0.065231
2360	0.156998
2344	0.208950
2328	0.332212
2312	0.517940
2296	0.835251
2280	1.115870
2264	1.501822
2248	2.263975
2232	2.909803
2216	3.935980
2200	4.922318
2184	6.262445
2168	7.768058
2152	9.397101
2136	10.9489
2120	12.7516
2104	14.5468
2088	16.2995
2072	17.7612
2056	19.4384
2040	20.8894
2024	22.1341
2008	23.2229
1992	24.2889
1976	25.2563
1960	26.1023
1944	26.9397
1928	27.7111
1912	28.1986
1896	28.5475
1880	29.1741
1864	29.5241
1848	29.7331
1832	30.0972
1816	30.4719
1800	30.6202
1784	30.6203
1768	30.9566
1752	31.1213
1736	31.1437
1720	31.239
1704	31.2681
1688	31.4536
1672	31.3491
1656	31.5817
1640	31.7142
1624	31.6809
1608	31.5772
1592	31.7771
1576	31.9871
1560	31.6733
1544	31.8048
1528	31.9429
1512	31.8962
1496	31.7953
1480	31.8074
1464	31.9011
1448	31.7363
1432	31.7702
1416	31.8552
1400	32.052
1384	31.7639
1368	31.7107
1352	31.8977
1336	31.9927
1320	31.739
1304	31.7991
1288	31.9722
1272	31.8559
1256	31.6245
1240	31.8233
1224	31.7848
1208	31.652
1192	31.4798
1176	31.7838
1160	31.7757
1144	31.3827
1128	31.3439
1112	31.5097
1096	31.5562
1080	31.0682
1064	31.0766
1048	31.2387
1032	31.0861
1016	30.7419
1000	30.8193
984	 31.0634
968	 30.5117
952	 30.1955
936	 30.6623
920	 30.5381
904	 29.8269
888	 29.7481
872	 30.126
856	 29.9901
840	 29.1845
824	 28.9895
808	 29.6265
792	 29.1172
776	 28.4285
760	 28.4445
744	 28.6324
728	 27.9907
712	 27.5595
696	 27.7229
680	 27.6776
664	 26.9972
648	 26.6287
632	 26.5433
616	 26.5091
600	 25.6627
584	 25.3921
568	 25.9131
552	 25.5769
536	 24.3762
520	 24.2666
504	 24.0546
488	 23.6875
472	 23.272
456	 20.3922
440	 20.8895
424	 18.4854
408	 20.9644
392	 21.1368
376	 -6.371617
370	 29.8731