File: Bakgrunnsmateriale/MATLAB/FTIR/ftir_data/LPE454/Mapping_121/LPE454_t101.asc
PE IR       SPECTRUM    SPECTRUM    ASCII       PEDS        1.60
  -1
LP97F7~1.ASC
17/05/19
22:40:45.00
17/05/19
22:41:11.00
tln
$LPE454_t0101$<tbV0>[10.4,10.4,8.0,0.0,27,1,0]
27.028
64

2002,4.07
MIRTGS : RIGHTBACK : INTERNAL 2
MIR : ON : INTERNAL 2
OPTKBR

0.200000
8
8.000000
FILLER
RATIO
SPECTRUM
UNLOCKED 256

DOUBLE
64
COMBINED
1
0
0

0.002000
RATIO

1
0
TRUE
51149
0
LEFT NOT FITTED RIGHT NOT FITTED 0
NONE
NONE
15600
12
4.427000
51148
TRUE
1 0 8 72 0 0 0 0

15798

#HDR
-1
-1
#GR
µM
%T
2.38419e-05
0.0
2.000000
0.002000
12515
8
58.2957
-2.824060
#DATA
2.000000	 0.335025
2.084000	 0.019079
2.168000	 1.389263
2.252000	 -0.099030
2.336000	 -0.008634
2.420000	 0.015870
2.504000	 0.143908
2.588000	 0.079268
2.672000	 0.077265
2.756000	 0.080537
2.840000	 0.058565
2.924000	 0.073138
3.008000	 -0.023784
3.092000	 0.000596
3.176000	 0.044626
3.260000	 0.027627
3.344000	 -0.006278
3.428000	 0.009305
3.512000	 -0.003828
3.596000	 0.024499
3.680000	 0.017677
3.764000	 0.017900
3.848000	 0.057869
3.932000	 -0.086823
4.016000	 -0.007002
4.100000	 -0.012662
4.184000	 0.088782
4.268000	 0.351575
4.352000	 1.063516
4.436000	 2.474655
4.520000	 5.308533
4.604000	 9.373468
4.688000	 14.1206
4.772000	 18.952
4.856000	 23.213
4.940000	 26.7387
5.024000	 29.4321
5.108000	 31.465
5.192000	 33.1362
5.276000	 34.1714
5.359999	 34.9639
5.444000	 35.505
5.528000	 35.9488
5.612000	 36.1796
5.696000	 36.3824
5.780000	 36.4604
5.864000	 36.4976
5.948000	 36.5765
6.032000	 36.6024
6.116000	 36.6131
6.200000	 36.5989
6.284000	 36.6233
6.368000	 36.5751
6.452000	 36.4598
6.536000	 36.47
6.620000	 36.3664
6.704000	 36.5028
6.788000	 36.3705
6.872000	 36.1242
6.956000	 36.2927
7.040000	 36.3171
7.124000	 36.1677
7.208000	 36.0767
7.292000	 36.1297
7.376000	 36.1393
7.460000	 35.8848
7.544000	 36.0132
7.628000	 35.9271
7.712000	 35.9533
7.796000	 35.8319
7.880000	 35.8377
7.964000	 35.8174
8.048000	 35.7573
8.132000	 35.6292
8.216000	 35.5942
8.300000	 35.4839
8.384000	 35.5164
8.468000	 35.4189
8.552000	 35.399
8.635999	 35.3605
8.719999	 35.2196
8.804000	 35.0722
8.888000	 35.2484
8.972000	 35.11
9.056000	 34.9192
9.140000	 35.0612
9.224000	 34.9385
9.308000	 34.9788
9.391999	 34.8057
9.475999	 34.7475
9.560000	 34.7953
9.644000	 34.7307
9.728000	 34.7874
9.812000	 34.7177
9.896000	 34.5701
9.980000	 34.5843
10.064	34.389
10.148	34.1792
10.232	34.4305
10.316	34.2137
10.4	34.2449
10.484	34.1829
10.568	34.0162
10.652	33.975
10.736	33.8856
10.82	33.8547
10.904	33.9925
10.988	33.798
11.072	33.7876
11.156	33.81
11.24	33.4937
11.324	33.198
11.408	33.2243
11.492	32.9022
11.576	33.031
11.66	33.1733
11.744	33.2093
11.828	33.0208
11.912	32.8622
11.996	32.6367
12.08	32.535
12.164	32.6491
12.248	32.4965
12.332	32.3504
12.416	32.3163
12.5	32.3494
12.584	32.3707
12.668	32.3974
12.752	32.3549
12.836	32.1829
12.92	31.9994
13.004	31.9821
13.088	31.8794
13.172	31.8063
13.256	31.847
13.34	31.7377
13.424	31.4825
13.508	31.4029
13.592	31.4301
13.676	31.4306
13.76	31.3359
13.844	31.2865
13.928	31.2787
14.012	31.1356
14.096	31.0209
14.18	30.9953
14.264	30.8234
14.348	30.5464
14.432	30.4894
14.516	30.6394
14.6	30.7633
14.684	30.7422
14.768	30.6627
14.852	30.6131
14.936	30.5975
15.02	30.5659
15.104	30.3153
15.188	30.007
15.272	30.0386
15.356	30.2074
15.44	30.1267
15.524	29.8881
15.608	29.7435
15.692	29.681
15.776	29.6045
15.86	29.6046
15.944	29.7188
16.028	29.7377
16.112	29.5255
16.196	29.2191
16.28	28.9831
16.364	28.8804
16.448	28.9738
16.532	29.1731
16.616	29.1792
16.7	28.9002
16.784	28.601
16.868	28.4717
16.952	28.467
17.036	28.4891
17.12	28.5386
17.204	28.7647
17.288	29.2048
17.372	29.5039
17.456	29.2861
17.54	28.704
17.624	28.1527
17.708	27.6793
17.792	27.1756
17.876	26.8029
17.96	26.8202
18.044	27.2019
18.128	27.6882
18.212	28.0335
18.296	28.0276
18.38	27.5324
18.464	26.6401
18.548	25.6991
18.632	25.0544
18.716	24.8415
18.8	25.0365
18.884	25.5541
18.968	26.2001
19.052	26.6552
19.136	26.6773
19.22	26.3403
19.304	26.0162
19.388	26.0459
19.472	26.4665
19.556	27.0345
19.64	27.4663
19.724	27.6243
19.808	27.5382
19.892	27.3317
19.976	27.1602
20.06	27.1379
20.144	27.2677
20.228	27.4233
20.312	27.4371
20.396	27.2299
20.48	26.8625
20.564	26.4636
20.648	26.1072
20.732	25.7887
20.816	25.5059
20.9	25.3208
20.984	25.3162
21.068	25.4836
21.152	25.6866
21.236	25.7373
21.32	25.5267
21.404	25.0998
21.488	24.6225
21.572	24.2718
21.656	24.1407
21.74	24.2153
21.824	24.4141
21.908	24.6535
21.992	24.8871
22.076	25.101
22.16	25.2902
22.244	25.4217
22.328	25.4437
22.412	25.3153
22.496	25.0326
22.58	24.6407
22.664	24.2162
22.748	23.8554
22.832	23.6447
22.916	23.6235
23	23.7788
23.084	24.0275
23.168	24.2557
23.252	24.3937
23.336	24.4375
23.42	24.4731
23.504	24.5997
23.588	24.84
23.672	25.1064
23.756	25.2258
23.84	25.0432
23.924	24.5257
24.008	23.7763
24.092	22.9624
24.176	22.2169
24.26	21.5087
24.344	20.6619
24.428	19.4764
24.512	17.7988
24.596	15.6743
24.68	13.3238
24.764	11.039
24.848	9.088021
24.932	7.630885
25.016	6.671347
25.1	6.129327
25.184	5.927813
25.268	6.046684
25.352	6.509293
25.436	7.336122
25.52	8.483943
25.604	9.840072
25.688	11.3185
25.772	12.8802
25.856	14.5321
25.94	16.3548
26.024	18.4668
26.108	20.9638
26.192	23.8567
26.276	27.1188
26.36	30.727
26.444	34.672
26.528	38.9147
26.612	43.4175
26.696	47.9833
26.78	52.2262
26.864	55.6133
26.948	57.6755
27.028	58.2957