File: Bakgrunnsmateriale/MATLAB/FTIR/ftir_data/LPE454/Mapping_121/LPE454_t21.asc
PE IR       SPECTRUM    SPECTRUM    ASCII       PEDS        1.60
  -1
LPCB98~1.ASC
17/05/19
16:02:10.00
17/05/19
16:02:36.00
tln
$LPE454_t0021$<tbV0>[-10.4,-10.4,8.0,0.0,27,1,0]
27.028
64

2002,4.07
MIRTGS : RIGHTBACK : INTERNAL 2
MIR : ON : INTERNAL 2
OPTKBR

0.200000
8
8.000000
FILLER
RATIO
SPECTRUM
UNLOCKED 256

DOUBLE
64
COMBINED
1
0
0

0.002000
RATIO

1
0
TRUE
51149
0
LEFT NOT FITTED RIGHT NOT FITTED 0
NONE
NONE
15600
12
4.427000
51148
TRUE
1 0 8 72 0 0 0 0

15798

#HDR
-1
-1
#GR
µM
%T
2.38419e-05
0.0
2.000000
0.002000
12515
8
38.9519
-3.709710
#DATA
2.000000	 0.611066
2.084000	 0.335466
2.168000	 -0.885424
2.252000	 -0.791682
2.336000	 -0.006200
2.420000	 0.095642
2.504000	 0.102233
2.588000	 0.003291
2.672000	 -0.096867
2.756000	 -0.060201
2.840000	 0.036730
2.924000	 0.103528
3.008000	 0.025293
3.092000	 0.005697
3.176000	 0.049257
3.260000	 0.019576
3.344000	 0.008522
3.428000	 -0.147679
3.512000	 -0.016072
3.596000	 -0.000911
3.680000	 0.083644
3.764000	 0.026539
3.848000	 0.002082
3.932000	 0.077891
4.016000	 0.088405
4.100000	 -0.140190
4.184000	 0.081746
4.268000	 0.053911
4.352000	 0.412793
4.436000	 1.019367
4.520000	 2.330764
4.604000	 4.292754
4.688000	 6.560856
4.772000	 8.838736
4.856000	 10.9551
4.940000	 12.6936
5.024000	 14.0829
5.108000	 15.217
5.192000	 15.9439
5.276000	 16.6229
5.359999	 17.0225
5.444000	 17.6026
5.528000	 17.922
5.612000	 18.183
5.696000	 18.3753
5.780000	 18.5985
5.864000	 18.7693
5.948000	 18.9313
6.032000	 19.1313
6.116000	 19.1008
6.200000	 19.2062
6.284000	 19.1975
6.368000	 19.4566
6.452000	 19.5094
6.536000	 19.5055
6.620000	 19.5375
6.704000	 19.6996
6.788000	 19.6718
6.872000	 19.5874
6.956000	 19.7622
7.040000	 19.7481
7.124000	 19.7854
7.208000	 19.828
7.292000	 19.8202
7.376000	 19.8312
7.460000	 20.0264
7.544000	 19.9938
7.628000	 19.9145
7.712000	 19.8527
7.796000	 20.0022
7.880000	 19.9862
7.964000	 20.0643
8.048000	 20.0067
8.132000	 19.942
8.216000	 20.236
8.300000	 20.0542
8.384000	 20.0781
8.468000	 19.9833
8.552000	 20.0439
8.635999	 20.1017
8.719999	 20.1758
8.804000	 20.0717
8.888000	 20.1695
8.972000	 20.149
9.056000	 20.2605
9.140000	 20.4157
9.224000	 20.1587
9.308000	 19.7227
9.391999	 19.9694
9.475999	 19.9843
9.560000	 20.0305
9.644000	 20.0424
9.728000	 20.1908
9.812000	 20.1818
9.896000	 20.1103
9.980000	 19.9218
10.064	19.8471
10.148	19.9789
10.232	20.2179
10.316	20.0347
10.4	19.9097
10.484	19.9026
10.568	19.6171
10.652	19.8297
10.736	19.8434
10.82	19.7472
10.904	19.7562
10.988	19.742
11.072	19.4664
11.156	19.4673
11.24	19.5237
11.324	19.4626
11.408	19.311
11.492	19.2603
11.576	19.3193
11.66	19.4471
11.744	19.687
11.828	19.6382
11.912	19.281
11.996	19.1391
12.08	19.117
12.164	19.0725
12.248	19.2033
12.332	19.3638
12.416	19.2406
12.5	19.2309
12.584	19.0873
12.668	19.1617
12.752	19.068
12.836	18.8205
12.92	18.6939
13.004	18.5605
13.088	18.3915
13.172	18.4954
13.256	18.8008
13.34	18.5326
13.424	18.7143
13.508	19.0822
13.592	18.8672
13.676	18.3451
13.76	17.9942
13.844	17.9744
13.928	18.0489
14.012	17.8826
14.096	17.7009
14.18	17.8061
14.264	18.0144
14.348	18.2152
14.432	18.2235
14.516	18.0289
14.6	17.9407
14.684	17.9978
14.768	17.9643
14.852	17.7044
14.936	17.4347
15.02	17.3212
15.104	17.2176
15.188	17.1709
15.272	17.2349
15.356	17.2307
15.44	17.205
15.524	17.2394
15.608	17.1315
15.692	16.9055
15.776	16.9504
15.86	17.3051
15.944	17.4762
16.028	17.2483
16.112	16.9453
16.196	16.8184
16.28	16.8404
16.364	16.9185
16.448	16.9194
16.532	16.7607
16.616	16.4933
16.7	16.1967
16.784	15.9329
16.868	15.7579
16.952	15.6763
17.036	15.6649
17.12	15.6982
17.204	15.7167
17.288	15.7213
17.372	15.7901
17.456	15.91
17.54	15.9553
17.624	15.8871
17.708	15.7918
17.792	15.692
17.876	15.4951
17.96	15.159
18.044	14.8018
18.128	14.6306
18.212	14.7696
18.296	15.1479
18.38	15.5248
18.464	15.6476
18.548	15.4337
18.632	15.0242
18.716	14.644
18.8	14.4352
18.884	14.4002
18.968	14.467
19.052	14.5468
19.136	14.5671
19.22	14.4784
19.304	14.2431
19.388	13.8534
19.472	13.3744
19.556	12.9616
19.64	12.7901
19.724	12.9382
19.808	13.3185
19.892	13.7295
19.976	13.983
20.06	14.003
20.144	13.8433
20.228	13.6206
20.312	13.4368
20.396	13.3415
20.48	13.34
20.564	13.4171
20.648	13.5269
20.732	13.595
20.816	13.558
20.9	13.4178
20.984	13.2798
21.068	13.2907
21.152	13.5338
21.236	13.9457
21.32	14.339
21.404	14.519
21.488	14.4254
21.572	14.1787
21.656	13.9975
21.74	14.0563
21.824	14.3635
21.908	14.732
21.992	14.8883
22.076	14.6225
22.16	13.9043
22.244	12.932
22.328	12.0119
22.412	11.4098
22.496	11.2234
22.58	11.3558
22.664	11.6156
22.748	11.8355
22.832	11.9591
22.916	12.0283
23	12.124
23.084	12.2675
23.168	12.3879
23.252	12.3644
23.336	12.0821
23.42	11.4925
23.504	10.6625
23.588	9.745034
23.672	8.921404
23.756	8.378876
23.84	8.200518
23.924	8.391042
24.008	8.923414
24.092	9.761106
24.176	10.8386
24.26	12.0428
24.344	13.161
24.428	13.918
24.512	14.0311
24.596	13.3277
24.68	11.873
24.764	10.0393
24.848	8.363730
24.932	7.426423
25.016	7.653341
25.1	9.286680
25.184	12.3955
25.268	16.8059
25.352	22.0826
25.436	27.6451
25.52	32.7916
25.604	36.758
25.688	38.7924
25.772	38.4598
25.856	35.8497
25.94	31.6411
26.024	26.9576
26.108	22.9835
26.192	20.2508
26.276	18.4946
26.36	16.6569
26.444	13.9469
26.528	10.4846
26.612	7.578161
26.696	7.021878
26.78	10.2333
26.864	17.2307
26.948	26.3976
27.028	34.6442