File: Bakgrunnsmateriale/MATLAB/FTIR/ftir_data/LPE454/Mapping_121/LPE454_t116_cm-1.asc
PE IR       SPECTRUM    SPECTRUM    ASCII       PEDS        1.60
  -1
LP0958~1.ASC
17/05/20
00:10:35.00
17/05/20
00:10:35.00
tln
$LPE454_t0116$<tbV0>[0.0,13.0,8.0,0.0,27,1,0]
370
64

2002,4.07
MIRTGS : RIGHTBACK : INTERNAL 2
MIR : ON : INTERNAL 2
OPTKBR

0.200000
8
8.000000
FILLER
RATIO
SPECTRUM
UNLOCKED 256

DOUBLE
64
COMBINED
1
0
0

1.000000
RATIO

1
0
TRUE
51149
0
LEFT NOT FITTED RIGHT NOT FITTED 0
NONE
NONE
15600
12
4.427000
51148
TRUE
1 0 8 72 0 0 0 0

15798

#HDR
-1
-1
#GR
CM-1
%T
2.38419e-05
0.0
5000
-1.000000
4631
8
45.6287
-21.7255
#DATA
5000	0.403785
4984	0.456070
4968	0.360488
4952	0.284194
4936	0.295424
4920	0.608205
4904	-0.088095
4888	0.040578
4872	0.317001
4856	0.191831
4840	-0.014948
4824	-0.070214
4808	0.217771
4792	0.132083
4776	0.121974
4760	0.254130
4744	0.306224
4728	0.410985
4712	0.377559
4696	0.176858
4680	0.388693
4664	-0.389862
4648	-0.111675
4632	-0.348019
4616	-0.882554
4600	0.547480
4584	27.0383
4568	-4.783916
4552	0.569820
4536	-0.843048
4520	0.374078
4504	0.313949
4488	0.779414
4472	0.490570
4456	0.181818
4440	0.036311
4424	0.156307
4408	0.128436
4392	0.279998
4376	-0.074720
4360	0.392985
4344	0.071597
4328	0.036764
4312	0.560498
4296	0.025820
4280	0.391411
4264	-0.157642
4248	0.224828
4232	0.302100
4216	-0.099730
4200	0.374388
4184	0.039172
4168	-0.235319
4152	-0.439071
4136	1.281380
4120	-0.033378
4104	0.176620
4088	0.799083
4072	-0.185513
4056	-0.310635
4040	0.099372
4024	0.230693
4008	0.143265
3992	-0.037050
3976	-0.010800
3960	0.214147
3944	0.090718
3928	0.039482
3912	0.083732
3896	0.174641
3880	0.015044
3864	-0.163054
3848	-0.040149
3832	-0.011777
3816	0.069904
3800	-0.035095
3784	0.025010
3768	0.194334
3752	-0.157141
3736	0.178742
3720	-0.013041
3704	0.032091
3688	0.018692
3672	0.008082
3656	0.123214
3640	0.021100
3624	-0.003027
3608	-0.088882
3592	0.060153
3576	-0.000429
3560	0.091814
3544	0.232768
3528	0.154566
3512	0.029730
3496	0.141572
3480	-0.066852
3464	0.239443
3448	0.126099
3432	0.223731
3416	0.000619
3400	0.148963
3384	0.001001
3368	-0.044417
3352	0.017905
3336	0.025486
3320	0.133562
3304	-0.027084
3288	0.025200
3272	0.003147
3256	0.130558
3240	0.080156
3224	0.101017
3208	-0.004363
3192	0.174713
3176	-0.065994
3160	-0.025391
3144	0.048089
3128	0.107240
3112	-0.044298
3096	0.064110
3080	-0.036072
3064	-0.124883
3048	0.099325
3032	0.012159
3016	-0.030207
3000	0.100541
2984	0.084471
2968	0.061488
2952	0.016045
2936	0.123119
2920	0.140523
2904	0.009584
2888	-0.049448
2872	0.092744
2856	0.000357
2840	0.005984
2824	-0.022888
2808	0.065541
2792	0.045084
2776	-0.040435
2760	0.064897
2744	0.014686
2728	0.020790
2712	0.066328
2696	0.009083
2680	0.115132
2664	0.080490
2648	-0.024962
2632	0.057339
2616	-0.008940
2600	0.064301
2584	0.068521
2568	0.099396
2552	-0.030827
2536	0.050759
2520	0.033879
2504	0.043225
2488	0.028347
2472	0.036311
2456	0.009703
2440	0.094866
2424	0.124669
2408	0.017333
2392	0.063347
2376	0.136613
2360	0.221920
2344	0.378394
2328	0.556540
2312	0.856137
2296	1.102995
2280	1.646423
2264	2.110385
2248	2.875590
2232	3.658580
2216	4.871392
2200	6.147122
2184	7.584691
2168	9.084892
2152	11.0126
2136	12.6405
2120	14.378
2104	16.0762
2088	17.8166
2072	19.3678
2056	20.9338
2040	22.2039
2024	23.4147
2008	24.5842
1992	25.5484
1976	26.4891
1960	27.3668
1944	28.0168
1928	28.6422
1912	29.3413
1896	29.902
1880	30.1212
1864	30.5912
1848	31.2028
1832	31.4039
1816	31.6835
1800	32.073
1784	32.3219
1768	32.5071
1752	32.5001
1736	32.9428
1720	33.1879
1704	33.0811
1688	33.1356
1672	33.5351
1656	33.6846
1640	33.6164
1624	33.75
1608	34.1566
1592	34.0988
1576	34.1072
1560	34.1065
1544	34.442
1528	34.4247
1512	34.3194
1496	34.3966
1480	34.6264
1464	34.6701
1448	34.3941
1432	34.4847
1416	34.7868
1400	34.629
1384	34.4681
1368	34.5984
1352	34.8962
1336	34.5437
1320	34.4792
1304	34.5769
1288	34.8948
1272	34.462
1256	34.3163
1240	34.6277
1224	34.6757
1208	34.2927
1192	34.1693
1176	34.4134
1160	34.5592
1144	34.15
1128	33.9678
1112	34.3961
1096	34.2698
1080	33.8071
1064	33.5868
1048	33.9674
1032	33.9905
1016	33.1898
1000	33.5757
984	 33.9737
968	 33.6836
952	 32.9633
936	 33.0371
920	 33.265
904	 33.3652
888	 32.4394
872	 32.5667
856	 32.8517
840	 32.6827
824	 31.897
808	 31.687
792	 31.8994
776	 31.8731
760	 30.9174
744	 30.8942
728	 31.0835
712	 31.0522
696	 29.744
680	 30.0214
664	 30.7102
648	 29.7869
632	 29.4748
616	 29.0337
600	 29.4173
584	 28.5099
568	 28.1301
552	 28.2157
536	 28.1229
520	 28.1496
504	 25.7956
488	 26.3915
472	 26.6384
456	 26.5989
440	 24.8249
424	 23.9495
408	 25.1565
392	 13.9715
376	 13.6348
370	 -21.7255