File: Bakgrunnsmateriale/MATLAB/FTIR/ftir_data/LPE454/Mapping_121/LPE454_t108.asc
PE IR       SPECTRUM    SPECTRUM    ASCII       PEDS        1.60
  -1
LP9318~1.ASC
17/05/19
23:13:01.00
17/05/19
23:13:27.00
tln
$LPE454_t0108$<tbV0>[-7.8,10.4,8.0,0.0,27,1,0]
27.028
64

2002,4.07
MIRTGS : RIGHTBACK : INTERNAL 2
MIR : ON : INTERNAL 2
OPTKBR

0.200000
8
8.000000
FILLER
RATIO
SPECTRUM
UNLOCKED 256

DOUBLE
64
COMBINED
1
0
0

0.002000
RATIO

1
0
TRUE
51149
0
LEFT NOT FITTED RIGHT NOT FITTED 0
NONE
NONE
15600
12
4.427000
51148
TRUE
1 0 8 72 0 0 0 0

15798

#HDR
-1
-1
#GR
µM
%T
2.38419e-05
0.0
2.000000
0.002000
12515
8
40.1328
-2.043300
#DATA
2.000000	 0.046753
2.084000	 0.135157
2.168000	 -0.254646
2.252000	 0.033113
2.336000	 -0.181874
2.420000	 -0.087542
2.504000	 -0.352358
2.588000	 0.137406
2.672000	 0.141629
2.756000	 0.126651
2.840000	 0.031472
2.924000	 -0.010408
3.008000	 0.066911
3.092000	 -0.073293
3.176000	 0.022220
3.260000	 0.029405
3.344000	 0.070581
3.428000	 -0.011702
3.512000	 0.024546
3.596000	 0.005960
3.680000	 -0.069133
3.764000	 0.024895
3.848000	 -0.012975
3.932000	 -0.050588
4.016000	 0.016834
4.100000	 0.138123
4.184000	 0.258846
4.268000	 0.494367
4.352000	 1.386860
4.436000	 3.060958
4.520000	 5.870800
4.604000	 9.628558
4.688000	 14.0955
4.772000	 18.096
4.856000	 21.5793
4.940000	 24.3725
5.024000	 26.1511
5.108000	 27.9238
5.192000	 28.608
5.276000	 29.728
5.359999	 29.8535
5.444000	 30.5166
5.528000	 30.4886
5.612000	 30.8249
5.696000	 31.0051
5.780000	 30.8508
5.864000	 31.3066
5.948000	 30.9426
6.032000	 30.8529
6.116000	 31.3881
6.200000	 30.7653
6.284000	 30.8923
6.368000	 31.2608
6.452000	 30.9061
6.536000	 30.7159
6.620000	 31.2638
6.704000	 30.9342
6.788000	 30.4086
6.872000	 30.7379
6.956000	 31.1128
7.040000	 30.8812
7.124000	 30.2441
7.208000	 30.6959
7.292000	 30.9507
7.376000	 30.5435
7.460000	 30.0813
7.544000	 30.444
7.628000	 30.8298
7.712000	 30.6785
7.796000	 30.1987
7.880000	 29.9386
7.964000	 30.2714
8.048000	 30.605
8.132000	 30.452
8.216000	 29.8994
8.300000	 29.546
8.384000	 29.7857
8.468000	 30.2053
8.552000	 30.4363
8.635999	 29.9562
8.719999	 29.545
8.804000	 29.0765
8.888000	 29.3614
8.972000	 29.7393
9.056000	 29.9246
9.140000	 29.73
9.224000	 29.3146
9.308000	 28.819
9.391999	 28.8896
9.475999	 29.3439
9.560000	 29.5772
9.644000	 29.5761
9.728000	 29.369
9.812000	 28.8763
9.896000	 28.5183
9.980000	 28.3509
10.064	28.631
10.148	29.0168
10.232	29.1633
10.316	29.094
10.4	29.015
10.484	28.6236
10.568	28.2126
10.652	27.8653
10.736	27.727
10.82	27.889
10.904	28.1872
10.988	28.4058
11.072	28.4369
11.156	28.3742
11.24	27.9417
11.324	27.4467
11.408	27.1199
11.492	27.1928
11.576	27.2046
11.66	27.1482
11.744	27.3244
11.828	27.3764
11.912	27.5174
11.996	27.6836
12.08	27.6338
12.164	27.2349
12.248	26.7657
12.332	26.441
12.416	26.1435
12.5	25.9036
12.584	25.9251
12.668	26.1297
12.752	26.3507
12.836	26.5822
12.92	26.8404
13.004	26.8562
13.088	26.611
13.172	26.3538
13.256	26.0279
13.34	25.6238
13.424	25.2734
13.508	24.9743
13.592	24.9173
13.676	25.1104
13.76	25.1047
13.844	25.0977
13.928	25.3941
14.012	25.6115
14.096	25.5046
14.18	25.5003
14.264	25.8192
14.348	25.8677
14.432	25.5147
14.516	25.1026
14.6	24.8065
14.684	24.6519
14.768	24.4861
14.852	24.2142
14.936	23.9249
15.02	23.7589
15.104	23.7318
15.188	23.8021
15.272	23.9392
15.356	24.1319
15.44	24.3687
15.524	24.5032
15.608	24.4677
15.692	24.3471
15.776	24.1714
15.86	24.0511
15.944	24.0387
16.028	23.9347
16.112	23.6095
16.196	23.1633
16.28	22.7985
16.364	22.6263
16.448	22.4475
16.532	22.1278
16.616	21.9863
16.7	22.2364
16.784	22.5463
16.868	22.6193
16.952	22.5845
17.036	22.6538
17.12	22.8291
17.204	22.9746
17.288	23.0052
17.372	22.964
17.456	22.9081
17.54	22.8054
17.624	22.6585
17.708	22.5564
17.792	22.462
17.876	22.1836
17.96	21.7078
18.044	21.3479
18.128	21.3766
18.212	21.6805
18.296	21.9259
18.38	21.9538
18.464	21.869
18.548	21.8125
18.632	21.8162
18.716	21.9332
18.8	22.321
18.884	22.9973
18.968	23.5902
19.052	23.5761
19.136	22.8316
19.22	21.7916
19.304	20.9759
19.388	20.5182
19.472	20.2543
19.556	20.0911
19.64	20.0961
19.724	20.2452
19.808	20.2852
19.892	19.9703
19.976	19.3626
20.06	18.8023
20.144	18.5995
20.228	18.7857
20.312	19.1357
20.396	19.3903
20.48	19.4468
20.564	19.3761
20.648	19.2764
20.732	19.1791
20.816	19.0848
20.9	19.0331
20.984	19.0902
21.068	19.2669
21.152	19.4601
21.236	19.5093
21.32	19.2992
21.404	18.8524
21.488	18.3148
21.572	17.8607
21.656	17.6088
21.74	17.5704
21.824	17.6574
21.908	17.7314
21.992	17.6804
22.076	17.4801
22.16	17.2062
22.244	17.0074
22.328	17.0329
22.412	17.3743
22.496	18.0136
22.58	18.819
22.664	19.5738
22.748	20.0338
22.832	20.0402
22.916	19.5563
23	18.7066
23.084	17.7145
23.168	16.8015
23.252	16.0774
23.336	15.5592
23.42	15.1907
23.504	14.9312
23.588	14.7988
23.672	14.8448
23.756	15.094
23.84	15.491
23.924	15.8815
24.008	16.0616
24.092	15.8414
24.176	15.1086
24.26	13.8822
24.344	12.3208
24.428	10.6952
24.512	9.388766
24.596	8.778639
24.68	9.139434
24.764	10.5242
24.848	12.779
24.932	15.5017
25.016	18.1491
25.1	20.211
25.184	21.388
25.268	21.7035
25.352	21.414
25.436	20.8435
25.52	20.2092
25.604	19.5584
25.688	18.9251
25.772	18.3472
25.856	17.8423
25.94	17.3837
26.024	16.8623
26.108	16.1219
26.192	15.1535
26.276	14.2415
26.36	13.9725
26.444	15.0458
26.528	17.9219
26.612	22.6413
26.696	28.5608
26.78	34.3885
26.864	38.6293
26.948	40.1328
27.028	38.7368