File: Bakgrunnsmateriale/MATLAB/FTIR/ftir_data/LPE454/Mapping_121/LPE454_t103_cm-1.asc
PE IR       SPECTRUM    SPECTRUM    ASCII       PEDS        1.60
  -1
LP06DC~1.ASC
17/05/19
22:49:58.00
17/05/19
22:49:58.00
tln
$LPE454_t0103$<tbV0>[5.2,10.4,8.0,0.0,27,1,0]
370
64

2002,4.07
MIRTGS : RIGHTBACK : INTERNAL 2
MIR : ON : INTERNAL 2
OPTKBR

0.200000
8
8.000000
FILLER
RATIO
SPECTRUM
UNLOCKED 256

DOUBLE
64
COMBINED
1
0
0

1.000000
RATIO

1
0
TRUE
51149
0
LEFT NOT FITTED RIGHT NOT FITTED 0
NONE
NONE
15600
12
4.427000
51148
TRUE
1 0 8 72 0 0 0 0

15798

#HDR
-1
-1
#GR
CM-1
%T
2.38419e-05
0.0
5000
-1.000000
4631
8
65.6968
-3.761553
#DATA
5000	0.240135
4984	0.106549
4968	0.504350
4952	0.333356
4936	-0.043296
4920	-0.012326
4904	0.186181
4888	0.290322
4872	0.446891
4856	0.632691
4840	-0.210189
4824	-0.216341
4808	0.021195
4792	-0.164651
4776	0.158858
4760	0.177264
4744	0.067067
4728	0.253343
4712	0.444316
4696	-0.074744
4680	0.088500
4664	-0.070095
4648	0.289034
4632	0.620555
4616	-0.630879
4600	6.537938
4584	2.527618
4568	-1.201915
4552	-0.038003
4536	-0.457167
4520	-0.128293
4504	-0.125098
4488	0.108718
4472	0.157809
4456	0.039410
4440	0.184893
4424	0.359129
4408	0.311756
4392	0.364828
4376	0.161433
4360	0.222277
4344	0.076699
4328	0.390720
4312	0.065898
4296	0.088453
4280	0.100874
4264	0.133061
4248	0.349497
4232	0.140213
4216	0.256657
4200	0.111913
4184	-0.513100
4168	-0.279736
4152	-0.113105
4136	-0.344920
4120	-0.193262
4104	0.369215
4088	0.317335
4072	0.479602
4056	2.234220
4040	0.429725
4024	-0.180697
4008	0.201606
3992	-0.355029
3976	-0.284910
3960	-0.015616
3944	0.044035
3928	0.055837
3912	0.146460
3896	-0.158858
3880	-0.125026
3864	0.089883
3848	-0.120210
3832	0.153136
3816	0.095582
3800	0.190281
3784	0.104117
3768	-0.187373
3752	0.114989
3736	0.011301
3720	0.013780
3704	-0.035619
3688	0.037121
3672	0.126600
3656	-0.017261
3640	-0.008749
3624	0.151467
3608	-0.039649
3592	-0.125193
3576	0.015878
3560	0.021004
3544	0.092434
3528	0.054240
3512	0.124788
3496	0.135374
3480	-0.106668
3464	0.019335
3448	0.071382
3432	0.105595
3416	0.006842
3400	0.131392
3384	-0.002002
3368	0.057673
3352	0.010561
3336	0.147461
3320	0.038671
3304	0.078153
3288	0.057435
3272	-0.023531
3256	0.021576
3240	-0.015449
3224	0.017690
3208	0.020456
3192	0.056815
3176	0.153613
3160	0.016641
3144	0.096440
3128	0.060868
3112	0.077104
3096	-0.089597
3080	0.012969
3064	-0.049185
3048	0.052952
3032	0.046372
3016	0.138068
3000	0.048375
2984	0.034976
2968	-0.034427
2952	-0.036621
2936	-0.020456
2920	-0.048470
2904	0.058913
2888	0.100016
2872	-0.021958
2856	0.064659
2840	0.014758
2824	-0.045943
2808	0.003409
2792	0.042533
2776	0.006937
2760	0.043225
2744	0.127243
2728	0.012922
2712	0.044775
2696	0.099992
2680	0.052452
2664	0.138998
2648	-0.074958
2632	0.022292
2616	0.104594
2600	0.069165
2584	0.092005
2568	0.018095
2552	0.041365
2536	-0.002121
2520	0.051474
2504	-0.132679
2488	-0.048422
2472	0.083589
2456	0.051903
2440	0.058436
2424	0.207877
2408	0.060653
2392	0.141048
2376	0.270152
2360	0.439548
2344	0.669836
2328	0.860285
2312	1.032638
2296	1.515483
2280	2.165007
2264	2.730298
2248	3.648638
2232	4.738235
2216	6.150054
2200	7.562017
2184	9.430885
2168	11.3121
2152	13.5108
2136	15.6824
2120	17.5697
2104	19.7968
2088	21.8348
2072	23.7314
2056	25.4387
2040	27.0594
2024	28.6296
2008	29.82
1992	30.8911
1976	31.8603
1960	33.0253
1944	33.6497
1928	34.0714
1912	34.7267
1896	35.2953
1880	35.592
1864	35.9477
1848	36.4269
1832	36.7769
1816	36.7099
1800	36.8181
1784	37.2707
1768	37.3335
1752	37.3528
1736	37.4787
1720	37.611
1704	37.8157
1688	37.5601
1672	37.5842
1656	37.9399
1640	38.0854
1624	37.5524
1608	37.7516
1592	38.1014
1576	38.0136
1560	37.782
1544	37.8853
1528	38.2509
1512	38.1306
1496	37.7707
1480	37.9267
1464	38.3566
1448	38.2333
1432	37.8135
1416	37.8296
1400	38.3351
1384	38.1591
1368	37.7833
1352	37.8611
1336	38.216
1320	38.1353
1304	37.6513
1288	37.7954
1272	38.2875
1256	37.9794
1240	37.5451
1224	37.5864
1208	38.0666
1192	38.0364
1176	37.2983
1160	37.3694
1144	37.8149
1128	37.7869
1112	37.3303
1096	37.0654
1080	37.4799
1064	37.5883
1048	36.7731
1032	36.8219
1016	37.4463
1000	37.3034
984	 36.5345
968	 36.2752
952	 36.7445
936	 37.0173
920	 36.1813
904	 35.7204
888	 36.5812
872	 36.4033
856	 35.5391
840	 34.9758
824	 35.8124
808	 35.8901
792	 34.8241
776	 34.4297
760	 34.8942
744	 34.9858
728	 34.1475
712	 33.462
696	 33.733
680	 34.0923
664	 33.234
648	 32.1956
632	 32.52
616	 33.0577
600	 32.2196
584	 31.1817
568	 31.1757
552	 30.9521
536	 31.3788
520	 27.2132
504	 29.395
488	 29.3666
472	 28.0703
456	 27.2584
440	 28.4826
424	 24.5559
408	 27.4948
392	 23.4245
376	 24.1648
370	 64.0659