File: Bakgrunnsmateriale/MATLAB/FTIR/ftir_data/LPE453/Mapping_121/LPE453_t53.asc
PE IR       SPECTRUM    SPECTRUM    ASCII       PEDS        1.60
  -1
LPC7A5~1.ASC
17/05/16
18:43:10.00
17/05/16
18:43:36.00
tln
$LPE453_t0053$<tbV0>[-7.8,-2.6,8.0,0.0,27,1,0]
27.028
64

2002,4.07
MIRTGS : RIGHTBACK : INTERNAL 2
MIR : ON : INTERNAL 2
OPTKBR

0.200000
8
8.000000
FILLER
RATIO
SPECTRUM
UNLOCKED 256

DOUBLE
64
COMBINED
1
0
0

0.002000
RATIO

1
0
TRUE
51149
0
LEFT NOT FITTED RIGHT NOT FITTED 0
NONE
NONE
15600
12
4.427000
51148
TRUE
1 0 8 72 0 0 0 0

15798

#HDR
-1
-1
#GR
µM
%T
2.38419e-05
0.0
2.000000
0.002000
12515
8
37.9348
-10.2714
#DATA
2.000000	 -0.433468
2.084000	 -0.104981
2.168000	 -0.428489
2.252000	 -0.098679
2.336000	 0.362268
2.420000	 -0.101291
2.504000	 0.059625
2.588000	 0.019389
2.672000	 0.198494
2.756000	 0.024205
2.840000	 0.088804
2.924000	 0.052736
3.008000	 0.141823
3.092000	 0.093762
3.176000	 -0.117613
3.260000	 0.044228
3.344000	 0.170522
3.428000	 -0.076649
3.512000	 0.077135
3.596000	 0.049251
3.680000	 -0.033284
3.764000	 0.062427
3.848000	 0.083135
3.932000	 -0.009502
4.016000	 0.148680
4.100000	 -0.033998
4.184000	 -0.023975
4.268000	 0.167708
4.352000	 0.317643
4.436000	 1.004466
4.520000	 2.461778
4.604000	 5.313798
4.688000	 9.309776
4.772000	 13.9064
4.856000	 18.1424
4.940000	 22.1158
5.024000	 25.2062
5.108000	 27.4715
5.192000	 29.1582
5.276000	 30.6956
5.359999	 31.2628
5.444000	 32.2102
5.528000	 32.5123
5.612000	 32.9512
5.696000	 33.1529
5.780000	 33.2076
5.864000	 33.3999
5.948000	 33.3704
6.032000	 33.4947
6.116000	 33.5706
6.200000	 33.3985
6.284000	 33.6427
6.368000	 33.332
6.452000	 33.5449
6.536000	 33.4962
6.620000	 33.1795
6.704000	 33.5541
6.788000	 33.162
6.872000	 33.0744
6.956000	 33.5099
7.040000	 32.9305
7.124000	 32.9195
7.208000	 33.2661
7.292000	 32.8551
7.376000	 32.7696
7.460000	 33.0919
7.544000	 32.8346
7.628000	 32.5376
7.712000	 32.7167
7.796000	 33.0255
7.880000	 32.6059
7.964000	 32.3868
8.048000	 32.6093
8.132000	 32.7426
8.216000	 32.3225
8.300000	 32.1278
8.384000	 32.3951
8.468000	 32.7963
8.552000	 32.4067
8.635999	 31.9029
8.719999	 31.8612
8.804000	 32.1702
8.888000	 32.4564
8.972000	 31.9109
9.056000	 31.6991
9.140000	 31.6427
9.224000	 32.1468
9.308000	 32.18
9.391999	 31.7047
9.475999	 31.2638
9.560000	 31.1011
9.644000	 31.4852
9.728000	 31.5996
9.812000	 31.5743
9.896000	 31.2501
9.980000	 30.9177
10.064	30.82
10.148	30.6975
10.232	31.051
10.316	31.1945
10.4	30.8241
10.484	30.5492
10.568	30.2778
10.652	30.141
10.736	30.3121
10.82	30.5363
10.904	30.7123
10.988	30.3751
11.072	29.9502
11.156	29.6501
11.24	29.5213
11.324	29.4696
11.408	29.718
11.492	30.0578
11.576	30.1292
11.66	29.96
11.744	29.4061
11.828	28.8635
11.912	28.6373
11.996	28.7146
12.08	28.9167
12.164	29.2275
12.248	29.2954
12.332	29.0521
12.416	28.9151
12.5	28.629
12.584	28.1556
12.668	27.9784
12.752	28.1725
12.836	28.1995
12.92	28.257
13.004	28.3551
13.088	28.2704
13.172	28.3393
13.256	28.3796
13.34	27.9898
13.424	27.4828
13.508	27.4237
13.592	27.3659
13.676	27.1229
13.76	27.0421
13.844	27.1683
13.928	27.3578
14.012	27.4304
14.096	27.5007
14.18	27.5918
14.264	27.5369
14.348	27.3611
14.432	27.0801
14.516	26.5505
14.6	26.0205
14.684	25.8307
14.768	25.9121
14.852	26.0884
14.936	26.2305
15.02	26.347
15.104	26.416
15.188	26.3861
15.272	26.3593
15.356	26.3281
15.44	26.1554
15.524	25.8497
15.608	25.5198
15.692	25.2693
15.776	25.1981
15.86	25.2665
15.944	25.2852
16.028	25.189
16.112	25.0795
16.196	25.0272
16.28	25.0286
16.364	25.0763
16.448	25.1905
16.532	25.3384
16.616	25.3481
16.7	25.0884
16.784	24.7137
16.868	24.4779
16.952	24.4144
17.036	24.3695
17.12	24.2544
17.204	24.1022
17.288	23.9159
17.372	23.6641
17.456	23.4333
17.54	23.3882
17.624	23.5337
17.708	23.6994
17.792	23.7792
17.876	23.8055
17.96	23.8156
18.044	23.8056
18.128	23.7976
18.212	23.8002
18.296	23.7322
18.38	23.5089
18.464	23.1663
18.548	22.8289
18.632	22.584
18.716	22.4394
18.8	22.3705
18.884	22.3627
18.968	22.398
19.052	22.4408
19.136	22.4378
19.22	22.3393
19.304	22.1463
19.388	21.9378
19.472	21.8352
19.556	21.9159
19.64	22.1424
19.724	22.3742
19.808	22.465
19.892	22.363
19.976	22.1354
20.06	21.9021
20.144	21.7487
20.228	21.6841
20.312	21.6588
20.396	21.6086
20.48	21.4972
20.564	21.32
20.648	21.0986
20.732	20.8617
20.816	20.6378
20.9	20.463
20.984	20.3765
21.068	20.4069
21.152	20.5452
21.236	20.7426
21.32	20.9332
21.404	21.0639
21.488	21.0982
21.572	20.999
21.656	20.717
21.74	20.2234
21.824	19.5713
21.908	18.9276
21.992	18.5121
22.076	18.4922
22.16	18.8957
22.244	19.5936
22.328	20.3786
22.412	21.0557
22.496	21.4973
22.58	21.6625
22.664	21.569
22.748	21.2827
22.832	20.9055
22.916	20.5558
23	20.3244
23.084	20.2459
23.168	20.2887
23.252	20.3849
23.336	20.4708
23.42	20.5253
23.504	20.5473
23.588	20.5354
23.672	20.4727
23.756	20.3235
23.84	20.0455
23.924	19.6239
24.008	19.0804
24.092	18.4586
24.176	17.802
24.26	17.1592
24.344	16.5957
24.428	16.1951
24.512	16.0706
24.596	16.329
24.68	16.9743
24.764	17.8291
24.848	18.6046
24.932	18.9337
25.016	18.5441
25.1	17.399
25.184	15.7562
25.268	14.0914
25.352	12.9116
25.436	12.6274
25.52	13.3607
25.604	14.9168
25.688	16.7961
25.772	18.3833
25.856	19.199
25.94	19.0048
26.024	17.8487
26.108	16.0266
26.192	14.1243
26.276	12.8417
26.36	12.7695
26.444	14.2032
26.528	17.0682
26.612	21.0126
26.696	25.499
26.78	29.9694
26.864	33.8492
26.948	36.6346
27.028	37.9348