File: Bakgrunnsmateriale/MATLAB/FTIR/ftir_data/LPE453/Mapping_121/LPE453_t42.asc
PE IR       SPECTRUM    SPECTRUM    ASCII       PEDS        1.60
  -1
LPC3A1~1.ASC
17/05/16
17:45:30.00
17/05/16
17:45:56.00
tln
$LPE453_t0042$<tbV0>[-7.8,-5.2,8.0,0.0,27,1,0]
27.028
64

2002,4.07
MIRTGS : RIGHTBACK : INTERNAL 2
MIR : ON : INTERNAL 2
OPTKBR

0.200000
8
8.000000
FILLER
RATIO
SPECTRUM
UNLOCKED 256

DOUBLE
64
COMBINED
1
0
0

0.002000
RATIO

1
0
TRUE
51149
0
LEFT NOT FITTED RIGHT NOT FITTED 0
NONE
NONE
15600
12
4.427000
51148
TRUE
1 0 8 72 0 0 0 0

15798

#HDR
-1
-1
#GR
µM
%T
2.38419e-05
0.0
2.000000
0.002000
12515
8
46.9136
-1.724343
#DATA
2.000000	 0.288605
2.084000	 0.535552
2.168000	 0.497293
2.252000	 -0.780344
2.336000	 0.082306
2.420000	 -0.340897
2.504000	 0.059827
2.588000	 0.219243
2.672000	 0.054840
2.756000	 0.069287
2.840000	 -0.099105
2.924000	 0.071926
3.008000	 0.111718
3.092000	 -0.121043
3.176000	 0.106174
3.260000	 0.024300
3.344000	 -0.014012
3.428000	 0.028305
3.512000	 -0.022695
3.596000	 0.056414
3.680000	 -0.056498
3.764000	 -0.044818
3.848000	 0.014064
3.932000	 0.109457
4.016000	 -0.014987
4.100000	 0.000480
4.184000	 -0.073570
4.268000	 0.084296
4.352000	 0.675498
4.436000	 1.767745
4.520000	 4.092167
4.604000	 7.840722
4.688000	 12.5717
4.772000	 17.546
4.856000	 22.2784
4.940000	 26.0391
5.024000	 28.9895
5.108000	 31.2649
5.192000	 32.8848
5.276000	 34.1778
5.359999	 34.9219
5.444000	 35.5516
5.528000	 35.922
5.612000	 36.2938
5.696000	 36.5478
5.780000	 36.7287
5.864000	 36.704
5.948000	 36.8037
6.032000	 36.8724
6.116000	 36.9488
6.200000	 36.9031
6.284000	 36.744
6.368000	 36.8221
6.452000	 36.8869
6.536000	 36.8397
6.620000	 36.7746
6.704000	 36.8032
6.788000	 36.5343
6.872000	 36.6633
6.956000	 36.6564
7.040000	 36.5168
7.124000	 36.2882
7.208000	 36.5031
7.292000	 36.4893
7.376000	 36.2999
7.460000	 36.2477
7.544000	 36.4085
7.628000	 36.3822
7.712000	 36.1238
7.796000	 36.1652
7.880000	 36.1998
7.964000	 36.0487
8.048000	 35.8607
8.132000	 35.7779
8.216000	 35.8568
8.300000	 35.9081
8.384000	 35.8606
8.468000	 35.6949
8.552000	 35.5958
8.635999	 35.7053
8.719999	 35.8436
8.804000	 35.7274
8.888000	 35.3451
8.972000	 35.3481
9.056000	 35.1312
9.140000	 35.4985
9.224000	 35.4301
9.308000	 35.3113
9.391999	 35.105
9.475999	 34.8645
9.560000	 34.9654
9.644000	 35.0932
9.728000	 35.1637
9.812000	 35.2331
9.896000	 34.5658
9.980000	 34.394
10.064	34.44
10.148	34.5456
10.232	34.8876
10.316	34.8569
10.4	34.57
10.484	34.4841
10.568	34.2372
10.652	33.9792
10.736	34.0487
10.82	34.209
10.904	33.9829
10.988	33.9998
11.072	34.1072
11.156	34.0261
11.24	33.6034
11.324	33.1935
11.408	33.3354
11.492	33.3016
11.576	33.3258
11.66	33.746
11.744	33.8154
11.828	33.6672
11.912	33.3412
11.996	32.8312
12.08	32.5337
12.164	32.3255
12.248	32.4346
12.332	32.6253
12.416	32.7039
12.5	32.8308
12.584	32.8952
12.668	32.7509
12.752	32.5709
12.836	32.3769
12.92	32.1762
13.004	32.0893
13.088	31.8432
13.172	31.5269
13.256	31.5105
13.34	31.7024
13.424	31.793
13.508	31.9021
13.592	31.9803
13.676	32.0989
13.76	32.0268
13.844	31.6766
13.928	31.3858
14.012	31.2084
14.096	31.0167
14.18	31.0434
14.264	31.083
14.348	30.8762
14.432	30.7386
14.516	30.7144
14.6	30.7661
14.684	30.9576
14.768	31.0096
14.852	30.771
14.936	30.4694
15.02	30.3422
15.104	30.2844
15.188	30.1086
15.272	29.9149
15.356	29.7649
15.44	29.5884
15.524	29.4606
15.608	29.4507
15.692	29.4171
15.776	29.3075
15.86	29.3268
15.944	29.4715
16.028	29.5305
16.112	29.571
16.196	29.6786
16.28	29.5847
16.364	29.1749
16.448	28.804
16.532	28.7145
16.616	28.6903
16.7	28.4861
16.784	28.1591
16.868	27.8747
16.952	27.7019
17.036	27.6398
17.12	27.6657
17.204	27.7448
17.288	27.8641
17.372	28.0189
17.456	28.1823
17.54	28.3209
17.624	28.4118
17.708	28.4238
17.792	28.3254
17.876	28.1146
17.96	27.8278
18.044	27.5402
18.128	27.3687
18.212	27.3978
18.296	27.5881
18.38	27.8014
18.464	27.9102
18.548	27.871
18.632	27.7153
18.716	27.5048
18.8	27.2949
18.884	27.1122
18.968	26.9601
19.052	26.8395
19.136	26.738
19.22	26.6169
19.304	26.4462
19.388	26.2603
19.472	26.1612
19.556	26.2467
19.64	26.5135
19.724	26.8292
19.808	27.0137
19.892	26.9661
19.976	26.7422
20.06	26.5031
20.144	26.3699
20.228	26.3207
20.312	26.2376
20.396	26.0358
20.48	25.7373
20.564	25.4396
20.648	25.2259
20.732	25.1253
20.816	25.1233
20.9	25.1856
20.984	25.2731
21.068	25.3374
21.152	25.3452
21.236	25.2874
21.32	25.1718
21.404	25
21.488	24.774
21.572	24.5342
21.656	24.378
21.74	24.4296
21.824	24.7522
21.908	25.2676
21.992	25.767
22.076	26.0085
22.16	25.8491
22.244	25.3341
22.328	24.6436
22.412	23.9882
22.496	23.4847
22.58	23.1324
22.664	22.8724
22.748	22.6617
22.832	22.529
22.916	22.5418
23	22.7659
23.084	23.2038
23.168	23.7851
23.252	24.3952
23.336	24.8988
23.42	25.2103
23.504	25.2856
23.588	25.0959
23.672	24.6171
23.756	23.8456
23.84	22.7745
23.924	21.4583
24.008	20.0048
24.092	18.5472
24.176	17.2458
24.26	16.1995
24.344	15.4401
24.428	14.9352
24.512	14.5923
24.596	14.2925
24.68	13.8729
24.764	13.1457
24.848	11.9729
24.932	10.3689
25.016	8.581011
25.1	7.055826
25.184	6.357649
25.268	6.914353
25.352	8.839945
25.436	11.998
25.52	16.0368
25.604	20.5113
25.688	24.9476
25.772	28.9381
25.856	32.207
25.94	34.7015
26.024	36.5344
26.108	37.8701
26.192	38.8529
26.276	39.5194
26.36	39.7073
26.444	39.4167
26.528	38.9082
26.612	38.6746
26.696	39.1739
26.78	40.5787
26.864	42.7621
26.948	45.2169
27.028	46.9136