File: Bakgrunnsmateriale/MATLAB/FTIR/ftir_data/LPE453/Mapping_121/LPE453_t65.asc
PE IR       SPECTRUM    SPECTRUM    ASCII       PEDS        1.60
  -1
LPDBAD~1.ASC
17/05/16
19:39:07.00
17/05/16
19:39:33.00
tln
$LPE453_t0065$<tbV0>[-10.4,0.0,8.0,0.0,27,1,0]
27.028
64

2002,4.07
MIRTGS : RIGHTBACK : INTERNAL 2
MIR : ON : INTERNAL 2
OPTKBR

0.200000
8
8.000000
FILLER
RATIO
SPECTRUM
UNLOCKED 256

DOUBLE
64
COMBINED
1
0
0

0.002000
RATIO

1
0
TRUE
51149
0
LEFT NOT FITTED RIGHT NOT FITTED 0
NONE
NONE
15600
12
4.427000
51148
TRUE
1 0 8 72 0 0 0 0

15798

#HDR
-1
-1
#GR
µM
%T
2.38419e-05
0.0
2.000000
0.002000
12515
8
31.8995
-12.9589
#DATA
2.000000	 0.094962
2.084000	 0.283900
2.168000	 0.189736
2.252000	 -0.357399
2.336000	 0.235977
2.420000	 0.080825
2.504000	 -0.020679
2.588000	 0.169011
2.672000	 0.042916
2.756000	 0.017517
2.840000	 0.095832
2.924000	 0.186830
3.008000	 0.077915
3.092000	 -0.002565
3.176000	 0.080634
3.260000	 -0.006098
3.344000	 -0.051601
3.428000	 -0.039450
3.512000	 0.119734
3.596000	 0.085527
3.680000	 0.076370
3.764000	 0.016980
3.848000	 0.039103
3.932000	 0.018374
4.016000	 0.099786
4.100000	 0.103539
4.184000	 0.029169
4.268000	 0.069726
4.352000	 0.283288
4.436000	 0.679499
4.520000	 2.025673
4.604000	 4.442324
4.688000	 8.257006
4.772000	 12.4329
4.856000	 16.9051
4.940000	 20.5376
5.024000	 23.5152
5.108000	 25.7921
5.192000	 27.6293
5.276000	 28.7631
5.359999	 29.7829
5.444000	 30.4346
5.528000	 30.7828
5.612000	 31.2219
5.696000	 31.3468
5.780000	 31.5344
5.864000	 31.7012
5.948000	 31.8289
6.032000	 31.6987
6.116000	 31.8833
6.200000	 31.6465
6.284000	 31.8262
6.368000	 31.7334
6.452000	 31.7103
6.536000	 31.6957
6.620000	 31.6234
6.704000	 31.6243
6.788000	 31.4599
6.872000	 31.4881
6.956000	 31.1703
7.040000	 31.2897
7.124000	 31.3814
7.208000	 31.1298
7.292000	 31.1208
7.376000	 31.0537
7.460000	 30.8811
7.544000	 30.8849
7.628000	 31.12
7.712000	 30.8006
7.796000	 30.6525
7.880000	 30.8715
7.964000	 30.8909
8.048000	 30.5779
8.132000	 30.4876
8.216000	 30.7297
8.300000	 30.4062
8.384000	 30.1486
8.468000	 30.3119
8.552000	 30.4986
8.635999	 30.353
8.719999	 30.2181
8.804000	 29.9317
8.888000	 29.9706
8.972000	 30.0382
9.056000	 29.9237
9.140000	 29.8357
9.224000	 29.6868
9.308000	 29.8088
9.391999	 29.7942
9.475999	 29.5609
9.560000	 29.4648
9.644000	 29.3618
9.728000	 29.312
9.812000	 29.457
9.896000	 29.5246
9.980000	 29.2089
10.064	29.0895
10.148	29.0966
10.232	29.1795
10.316	29.0178
10.4	28.8159
10.484	28.8627
10.568	28.6798
10.652	28.741
10.736	28.6314
10.82	28.4635
10.904	28.569
10.988	28.3184
11.072	28.0788
11.156	28.0869
11.24	27.9542
11.324	27.9246
11.408	27.9061
11.492	28.1201
11.576	28.0048
11.66	27.7486
11.744	27.5683
11.828	27.4849
11.912	27.4334
11.996	27.2596
12.08	27.2343
12.164	27.1865
12.248	27.1133
12.332	27.1118
12.416	26.906
12.5	26.8005
12.584	26.7251
12.668	26.655
12.752	26.4863
12.836	26.5286
12.92	26.5542
13.004	26.4528
13.088	26.3125
13.172	26.2103
13.256	26.3279
13.34	26.3163
13.424	25.9873
13.508	25.7485
13.592	25.5101
13.676	25.5222
13.76	25.6821
13.844	25.7827
13.928	25.8173
14.012	25.6331
14.096	25.4472
14.18	25.2528
14.264	24.91
14.348	24.7293
14.432	24.6965
14.516	24.6184
14.6	24.6244
14.684	24.6962
14.768	24.7433
14.852	24.8349
14.936	24.949
15.02	24.9736
15.104	24.8409
15.188	24.5424
15.272	24.1797
15.356	23.9638
15.44	23.928
15.524	23.8784
15.608	23.7765
15.692	23.7361
15.776	23.7465
15.86	23.7972
15.944	23.9114
16.028	23.9563
16.112	23.8018
16.196	23.5799
16.28	23.4999
16.364	23.51
16.448	23.4005
16.532	23.1678
16.616	22.9472
16.7	22.7431
16.784	22.5337
16.868	22.4256
16.952	22.4979
17.036	22.6494
17.12	22.7248
17.204	22.6926
17.288	22.626
17.372	22.5591
17.456	22.4601
17.54	22.326
17.624	22.1874
17.708	22.0611
17.792	21.9692
17.876	21.9447
17.96	21.974
18.044	21.9884
18.128	21.937
18.212	21.8185
18.296	21.661
18.38	21.524
18.464	21.475
18.548	21.5191
18.632	21.5731
18.716	21.5491
18.8	21.4331
18.884	21.263
18.968	21.0497
19.052	20.7689
19.136	20.4227
19.22	20.0801
19.304	19.8477
19.388	19.8007
19.472	19.9467
19.556	20.2187
19.64	20.5011
19.724	20.6679
19.808	20.6435
19.892	20.4436
19.976	20.1789
20.06	19.9885
20.144	19.9454
20.228	19.9971
20.312	19.9922
20.396	19.7905
20.48	19.3762
20.564	18.8877
20.648	18.5307
20.732	18.4504
20.816	18.6625
20.9	19.0589
20.984	19.4714
21.068	19.7386
21.152	19.7547
21.236	19.5023
21.32	19.0572
21.404	18.5675
21.488	18.1833
21.572	17.9967
21.656	18.0245
21.74	18.2114
21.824	18.4567
21.908	18.6515
21.992	18.7222
22.076	18.6629
22.16	18.5409
22.244	18.4569
22.328	18.4755
22.412	18.5959
22.496	18.7683
22.58	18.9479
22.664	19.1322
22.748	19.3413
22.832	19.5469
22.916	19.6497
23	19.508
23.084	19.0501
23.168	18.3368
23.252	17.547
23.336	16.9127
23.42	16.578
23.504	16.5105
23.588	16.5547
23.672	16.5533
23.756	16.4239
23.84	16.263
23.924	16.29
24.008	16.7037
24.092	17.5617
24.176	18.7398
24.26	19.9487
24.344	20.8567
24.428	21.2975
24.512	21.3507
24.596	21.3056
24.68	21.5255
24.764	22.243
24.848	23.3731
24.932	24.45
25.016	24.7836
25.1	23.7344
25.184	20.8836
25.268	16.3008
25.352	10.5555
25.436	4.613588
25.52	-0.446637
25.604	-3.744315
25.688	-4.723653
25.772	-3.333794
25.856	0.005480
25.94	4.586321
26.024	9.496183
26.108	13.7782
26.192	16.7382
26.276	17.9786
26.36	17.3685
26.444	14.9932
26.528	11.109
26.612	6.060759
26.696	0.384805
26.78	-5.168264
26.864	-9.723920
26.948	-12.4716
27.028	-12.9589