File: Bakgrunnsmateriale/MATLAB/FTIR/ftir_data/LPE453/Mapping_121/LPE453_t44_cm-1.asc
PE IR       SPECTRUM    SPECTRUM    ASCII       PEDS        1.60
  -1
LP695B~1.ASC
17/05/16
17:54:43.00
17/05/16
17:54:43.00
tln
$LPE453_t0044$<tbV0>[-13.0,-5.2,8.0,0.0,27,1,0]
370
64

2002,4.07
MIRTGS : RIGHTBACK : INTERNAL 2
MIR : ON : INTERNAL 2
OPTKBR

0.200000
8
8.000000
FILLER
RATIO
SPECTRUM
UNLOCKED 256

DOUBLE
64
COMBINED
1
0
0

1.000000
RATIO

1
0
TRUE
51149
0
LEFT NOT FITTED RIGHT NOT FITTED 0
NONE
NONE
15600
12
4.427000
51148
TRUE
1 0 8 72 0 0 0 0

15798

#HDR
-1
-1
#GR
CM-1
%T
2.38419e-05
0.0
5000
-1.000000
4631
8
32.5645
-19.0875
#DATA
5000	-0.017309
4984	0.200867
4968	0.181555
4952	-0.035429
4936	0.398325
4920	0.162863
4904	0.052642
4888	0.522327
4872	-0.157403
4856	0.064063
4840	0.203037
4824	0.294494
4808	0.065946
4792	0.146007
4776	0.379920
4760	-0.052428
4744	0.146389
4728	0.240063
4712	0.289940
4696	0.188446
4680	0.290727
4664	0.245523
4648	0.233149
4632	0.322198
4616	0.722765
4600	0.733375
4584	0.198960
4568	0.404262
4552	1.190352
4536	1.251125
4520	-14.9433
4504	2.864670
4488	-0.238633
4472	0.556135
4456	0.352096
4440	0.545811
4424	0.081419
4408	0.263357
4392	0.594615
4376	0.602197
4360	0.078940
4344	0.005364
4328	0.038075
4312	-0.071358
4296	-0.004148
4280	-0.131583
4264	0.204443
4248	-0.177907
4232	0.252413
4216	0.121068
4200	-0.120592
4184	0.063681
4168	0.339031
4152	0.038003
4136	0.064039
4120	0.054502
4104	0.070476
4088	-0.084376
4072	0.061893
4056	0.100946
4040	-0.021433
4024	0.189733
4008	-0.050830
3992	-0.051522
3976	0.112199
3960	0.131893
3944	0.079202
3928	-0.181317
3912	0.152087
3896	-0.035524
3880	0.137543
3864	0.026679
3848	0.006866
3832	0.069522
3816	0.205993
3800	-0.030803
3784	-0.024962
3768	0.030183
3752	-0.037264
3736	0.038242
3720	-0.009608
3704	0.151777
3688	0.040054
3672	0.041556
3656	-0.142121
3640	0.097918
3624	0.153279
3608	-0.065875
3592	0.063228
3576	0.190496
3560	-0.022697
3544	0.073957
3528	0.132775
3512	-0.039196
3496	0.101757
3480	0.047922
3464	0.262522
3448	0.182628
3432	-0.046467
3416	0.117683
3400	0.241661
3384	0.022006
3368	0.162506
3352	0.001502
3336	0.107860
3320	-0.009632
3304	-0.046849
3288	0.067591
3272	-0.018191
3256	0.074911
3240	0.116491
3224	0.009727
3208	0.103044
3192	-0.059938
3176	-0.051689
3160	-0.064158
3144	0.062870
3128	-0.022315
3112	-0.010633
3096	0.112748
3080	0.165724
3064	0.084280
3048	-0.070905
3032	0.052905
3016	0.094246
3000	0.113224
2984	0.114512
2968	0.107264
2952	-0.076389
2936	0.025153
2920	-0.043129
2904	0.221753
2888	-0.016498
2872	0.084447
2856	0.157475
2840	0.017738
2824	0.153112
2808	0.048041
2792	0.067710
2776	0.010871
2760	0.155997
2744	-0.026655
2728	-0.055480
2712	0.021553
2696	0.089788
2680	-0.051927
2664	0.102424
2648	-0.044488
2632	0.102663
2616	0.056195
2600	0.030422
2584	0.132846
2568	0.054621
2552	-0.021314
2536	-0.024724
2520	0.027370
2504	-0.001549
2488	-0.004577
2472	0.084996
2456	-0.004243
2440	0.119590
2424	0.373291
2408	0.097799
2392	0.008463
2376	0.064253
2360	0.112557
2344	0.065135
2328	0.168800
2312	0.175619
2296	0.299882
2280	0.426030
2264	0.814032
2248	1.012277
2232	1.529431
2216	2.166056
2200	2.794599
2184	3.794741
2168	5.032825
2152	6.284379
2136	7.777929
2120	9.370183
2104	11.0926
2088	12.782
2072	14.3572
2056	16.0691
2040	17.8641
2024	19.2221
2008	20.6287
1992	22.0269
1976	23.0507
1960	24.0789
1944	25.1081
1928	25.9256
1912	26.5587
1896	27.4224
1880	27.9467
1864	28.3287
1848	29.0157
1832	29.2758
1816	29.5582
1800	29.94
1784	30.3005
1768	30.4379
1752	30.8136
1736	30.9798
1720	30.9996
1704	31.1166
1688	31.5129
1672	31.3239
1656	31.586
1640	31.8363
1624	31.7799
1608	31.6969
1592	32.017
1576	32.0337
1560	31.9979
1544	32.2576
1528	32.3227
1512	32.0858
1496	32.1027
1480	32.34
1464	32.1206
1448	32.0375
1432	32.4915
1416	32.3093
1400	32.0981
1384	32.2461
1368	32.2752
1352	31.8674
1336	31.9954
1320	32.2706
1304	31.9634
1288	31.7299
1272	32.0249
1256	31.797
1240	31.3647
1224	31.5913
1208	31.6121
1192	31.1448
1176	31.3066
1160	31.4356
1144	30.9781
1128	30.651
1112	30.9072
1096	30.9454
1080	29.9549
1064	30.3794
1048	30.4852
1032	29.9641
1016	29.7026
1000	29.948
984	 29.3227
968	 28.9262
952	 29.164
936	 29.0188
920	 28.3555
904	 28.5404
888	 28.4919
872	 27.6439
856	 27.6933
840	 27.9564
824	 27.3947
808	 26.2889
792	 26.8377
776	 26.6581
760	 25.8969
744	 26.0625
728	 25.882
712	 25.2486
696	 24.9578
680	 25.1892
664	 24.568
648	 23.7914
632	 23.9766
616	 23.795
600	 23.2466
584	 22.5954
568	 23.2939
552	 22.135
536	 21.6152
520	 21.8502
504	 21.0037
488	 20.0374
472	 19.9431
456	 19.8113
440	 19.7016
424	 16.4201
408	 18.6224
392	 23.4731
376	 -19.0875
370	 29.543