File: Bakgrunnsmateriale/MATLAB/FTIR/ftir_data/LPE453/Mapping_121/LPE453_t03.asc
PE IR       SPECTRUM    SPECTRUM    ASCII       PEDS        1.60
  -1
LPC395~1.ASC
17/05/16
14:37:15.00
17/05/16
14:37:41.00
tln
$LPE453_t0003$<tbV0>[7.8,-13.0,8.0,0.0,27,1,0]
27.028
64

2002,4.07
MIRTGS : RIGHTBACK : INTERNAL 2
MIR : ON : INTERNAL 2
OPTKBR

0.200000
8
8.000000
FILLER
RATIO
SPECTRUM
UNLOCKED 256

DOUBLE
64
COMBINED
1
0
0

0.002000
RATIO

1
0
TRUE
51149
0
LEFT NOT FITTED RIGHT NOT FITTED 0
NONE
NONE
15600
12
4.427000
51148
TRUE
1 0 8 72 0 0 0 0

15798

#HDR
-1
-1
#GR
µM
%T
2.38419e-05
0.0
2.000000
0.002000
12515
8
34.7465
-4.767086
#DATA
2.000000	 0.348305
2.084000	 0.631926
2.168000	 1.363071
2.252000	 -0.548809
2.336000	 -0.112204
2.420000	 0.029983
2.504000	 0.078265
2.588000	 -0.033267
2.672000	 0.048977
2.756000	 0.027181
2.840000	 0.170253
2.924000	 -0.013843
3.008000	 0.243430
3.092000	 0.121697
3.176000	 0.095068
3.260000	 0.096431
3.344000	 0.115134
3.428000	 -0.053659
3.512000	 -0.055661
3.596000	 0.065995
3.680000	 0.084256
3.764000	 -0.022653
3.848000	 -0.036755
3.932000	 -0.006911
4.016000	 0.086075
4.100000	 0.031712
4.184000	 0.027529
4.268000	 0.177922
4.352000	 0.348043
4.436000	 1.010314
4.520000	 2.530470
4.604000	 5.288554
4.688000	 9.332347
4.772000	 13.8846
4.856000	 18.0682
4.940000	 22.0877
5.024000	 25.1292
5.108000	 27.7943
5.192000	 29.6413
5.276000	 30.9894
5.359999	 32.2432
5.444000	 32.8053
5.528000	 33.4565
5.612000	 33.6674
5.696000	 34.0315
5.780000	 34.0182
5.864000	 34.5213
5.948000	 34.3477
6.032000	 34.5756
6.116000	 34.3551
6.200000	 34.5738
6.284000	 34.3102
6.368000	 34.3557
6.452000	 34.3592
6.536000	 34.1281
6.620000	 34.2137
6.704000	 34.2538
6.788000	 33.9187
6.872000	 33.8637
6.956000	 34.0082
7.040000	 33.5791
7.124000	 33.5701
7.208000	 33.8871
7.292000	 33.6221
7.376000	 33.2733
7.460000	 33.6392
7.544000	 33.6577
7.628000	 33.0583
7.712000	 33.1254
7.796000	 33.4653
7.880000	 33.0972
7.964000	 32.7185
8.048000	 32.9737
8.132000	 33.2236
8.216000	 32.9819
8.300000	 32.6462
8.384000	 32.4414
8.468000	 32.9015
8.552000	 32.9183
8.635999	 32.5343
8.719999	 32.2741
8.804000	 32.3433
8.888000	 32.5978
8.972000	 32.684
9.056000	 32.1594
9.140000	 31.7318
9.224000	 32.0722
9.308000	 32.468
9.391999	 32.441
9.475999	 32.1892
9.560000	 31.7604
9.644000	 31.6691
9.728000	 31.5629
9.812000	 32.0542
9.896000	 31.8267
9.980000	 31.8423
10.064	31.6252
10.148	31.1316
10.232	30.9497
10.316	31.248
10.4	31.6648
10.484	31.5847
10.568	31.344
10.652	31.0097
10.736	30.7046
10.82	30.5463
10.904	30.6144
10.988	30.8349
11.072	31.0336
11.156	31.0995
11.24	30.7526
11.324	30.4992
11.408	29.9886
11.492	29.719
11.576	29.8969
11.66	30.1581
11.744	30.2789
11.828	30.3705
11.912	30.0717
11.996	29.8046
12.08	29.4892
12.164	29.188
12.248	29.1902
12.332	29.442
12.416	29.4145
12.5	29.4163
12.584	29.538
12.668	29.6849
12.752	29.5418
12.836	29.3641
12.92	29.0732
13.004	28.5809
13.088	28.4296
13.172	28.5646
13.256	28.7041
13.34	28.6907
13.424	28.8797
13.508	28.8994
13.592	28.6826
13.676	28.4489
13.76	28.0987
13.844	27.9377
13.928	27.9782
14.012	27.7653
14.096	27.4314
14.18	27.2661
14.264	27.3121
14.348	27.3961
14.432	27.4464
14.516	27.5928
14.6	27.6986
14.684	27.6729
14.768	27.6545
14.852	27.5709
14.936	27.3679
15.02	27.2697
15.104	27.2024
15.188	26.8601
15.272	26.4978
15.356	26.5065
15.44	26.6968
15.524	26.7147
15.608	26.6397
15.692	26.7697
15.776	26.9856
15.86	26.9518
15.944	26.777
16.028	26.7667
16.112	26.87
16.196	26.885
16.28	26.7406
16.364	26.4053
16.448	25.9508
16.532	25.621
16.616	25.5233
16.7	25.5062
16.784	25.4628
16.868	25.4233
16.952	25.4012
17.036	25.4111
17.12	25.5118
17.204	25.6746
17.288	25.7437
17.372	25.6488
17.456	25.519
17.54	25.5065
17.624	25.5667
17.708	25.5105
17.792	25.2296
17.876	24.8183
17.96	24.4884
18.044	24.3675
18.128	24.359
18.212	24.2383
18.296	23.9165
18.38	23.5884
18.464	23.5353
18.548	23.807
18.632	24.1732
18.716	24.3942
18.8	24.4468
18.884	24.4625
18.968	24.5184
19.052	24.5602
19.136	24.5008
19.22	24.3221
19.304	24.0876
19.388	23.8855
19.472	23.7755
19.556	23.7574
19.64	23.7724
19.724	23.7452
19.808	23.6392
19.892	23.4759
19.976	23.2892
20.06	23.0829
20.144	22.8459
20.228	22.6077
20.312	22.4522
20.396	22.4572
20.48	22.6243
20.564	22.8767
20.648	23.1158
20.732	23.2813
20.816	23.361
20.9	23.3644
20.984	23.3069
21.068	23.218
21.152	23.1539
21.236	23.1687
21.32	23.279
21.404	23.4413
21.488	23.5896
21.572	23.6857
21.656	23.7382
21.74	23.7741
21.824	23.7944
21.908	23.7629
21.992	23.6435
22.076	23.4414
22.16	23.2101
22.244	22.9889
22.328	22.7595
22.412	22.4498
22.496	21.9847
22.58	21.3505
22.664	20.621
22.748	19.9382
22.832	19.4207
22.916	19.1185
23	19.0041
23.084	18.9995
23.168	19.0346
23.252	19.1105
23.336	19.3009
23.42	19.7193
23.504	20.4404
23.588	21.3935
23.672	22.3557
23.756	23.0304
23.84	23.2366
23.924	23.0301
24.008	22.6946
24.092	22.6072
24.176	23.0121
24.26	23.8763
24.344	24.8616
24.428	25.5041
24.512	25.4229
24.596	24.5303
24.68	23.0569
24.764	21.4486
24.848	20.1732
24.932	19.5681
25.016	19.6906
25.1	20.3827
25.184	21.2956
25.268	22.0427
25.352	22.3403
25.436	22.0385
25.52	21.1653
25.604	19.8655
25.688	18.3118
25.772	16.5877
25.856	14.6362
25.94	12.3409
26.024	9.578871
26.108	6.318373
26.192	2.756134
26.276	-0.657920
26.36	-3.364942
26.444	-4.716476
26.528	-4.170298
26.612	-1.520261
26.696	3.042395
26.78	8.888287
26.864	15.1916
26.948	21.1441
27.028	25.8569