File: Bakgrunnsmateriale/MATLAB/FTIR/ftir_data/LPE453/Mapping_121/LPE453_t106.asc
PE IR       SPECTRUM    SPECTRUM    ASCII       PEDS        1.60
  -1
LP9B86~1.ASC
17/05/16
23:02:36.00
17/05/16
23:03:02.00
tln
$LPE453_t0106$<tbV0>[-2.6,10.4,8.0,0.0,27,1,0]
27.028
64

2002,4.07
MIRTGS : RIGHTBACK : INTERNAL 2
MIR : ON : INTERNAL 2
OPTKBR

0.200000
8
8.000000
FILLER
RATIO
SPECTRUM
UNLOCKED 256

DOUBLE
64
COMBINED
1
0
0

0.002000
RATIO

1
0
TRUE
51149
0
LEFT NOT FITTED RIGHT NOT FITTED 0
NONE
NONE
15600
12
4.427000
51148
TRUE
1 0 8 72 0 0 0 0

15798

#HDR
-1
-1
#GR
µM
%T
2.38419e-05
0.0
2.000000
0.002000
12515
8
36.4056
-9.694430
#DATA
2.000000	 0.073504
2.084000	 0.122091
2.168000	 0.083679
2.252000	 -0.264796
2.336000	 0.215444
2.420000	 0.164948
2.504000	 0.328694
2.588000	 0.214390
2.672000	 -0.030927
2.756000	 0.051516
2.840000	 -0.002510
2.924000	 0.094108
3.008000	 0.136873
3.092000	 0.006005
3.176000	 -0.060715
3.260000	 0.208586
3.344000	 -0.087601
3.428000	 0.063924
3.512000	 -0.014895
3.596000	 0.099178
3.680000	 -0.043332
3.764000	 0.046552
3.848000	 0.067027
3.932000	 0.156708
4.016000	 0.073372
4.100000	 0.011344
4.184000	 0.086810
4.268000	 0.304049
4.352000	 0.720419
4.436000	 1.751200
4.520000	 3.891913
4.604000	 7.560445
4.688000	 12.0558
4.772000	 16.8225
4.856000	 21.1863
4.940000	 25.4009
5.024000	 27.9138
5.108000	 30.2595
5.192000	 32.0433
5.276000	 32.7376
5.359999	 34.331
5.444000	 34.2562
5.528000	 35.3391
5.612000	 34.9463
5.696000	 35.7805
5.780000	 35.3847
5.864000	 35.7839
5.948000	 35.9794
6.032000	 35.4301
6.116000	 36.398
6.200000	 35.6652
6.284000	 35.8076
6.368000	 36.2225
6.452000	 35.3365
6.536000	 35.9197
6.620000	 36.1793
6.704000	 35.381
6.788000	 35.8827
6.872000	 36.2581
6.956000	 35.2161
7.040000	 35.2827
7.124000	 36.0082
7.208000	 35.5641
7.292000	 34.8311
7.376000	 35.4458
7.460000	 35.8953
7.544000	 35.2504
7.628000	 34.7768
7.712000	 35.2157
7.796000	 35.7954
7.880000	 35.2534
7.964000	 34.4825
8.048000	 34.856
8.132000	 35.4863
8.216000	 35.4456
8.300000	 34.7834
8.384000	 34.289
8.468000	 34.7586
8.552000	 35.3967
8.635999	 35.3102
8.719999	 34.5477
8.804000	 34.029
8.888000	 34.2767
8.972000	 34.8752
9.056000	 35.2383
9.140000	 34.7685
9.224000	 34.1823
9.308000	 33.5606
9.391999	 33.9388
9.475999	 34.3814
9.560000	 34.8431
9.644000	 34.6895
9.728000	 33.9287
9.812000	 33.5157
9.896000	 33.3187
9.980000	 33.6674
10.064	34.2995
10.148	34.5855
10.232	34.1845
10.316	33.3597
10.4	33.2085
10.484	32.7729
10.568	32.9022
10.652	33.372
10.736	33.6183
10.82	33.8002
10.904	33.4889
10.988	33.0624
11.072	32.5929
11.156	32.165
11.24	32.2914
11.324	32.6112
11.408	32.8947
11.492	33.0078
11.576	33.0478
11.66	32.9522
11.744	32.4089
11.828	31.8957
11.912	31.5728
11.996	31.4143
12.08	31.3495
12.164	31.6199
12.248	31.9555
12.332	32.2543
12.416	32.2819
12.5	32.1679
12.584	31.7308
12.668	31.3658
12.752	31.1225
12.836	30.78
12.92	30.487
13.004	30.6149
13.088	30.8947
13.172	31.2666
13.256	31.588
13.34	31.6752
13.424	31.5296
13.508	31.2832
13.592	30.9854
13.676	30.5298
13.76	30.1124
13.844	29.8077
13.928	29.6633
14.012	29.5877
14.096	29.6031
14.18	29.8104
14.264	30.0403
14.348	30.2615
14.432	30.5058
14.516	30.5048
14.6	30.3237
14.684	30.1755
14.768	29.9522
14.852	29.6248
14.936	29.3202
15.02	29.1805
15.104	29.1138
15.188	28.9004
15.272	28.6389
15.356	28.5137
15.44	28.4871
15.524	28.5644
15.608	28.8
15.692	29.0437
15.776	29.1381
15.86	29.1673
15.944	29.224
16.028	29.2357
16.112	29.1346
16.196	28.9524
16.28	28.6959
16.364	28.3296
16.448	27.9478
16.532	27.6955
16.616	27.5356
16.7	27.3555
16.784	27.1778
16.868	27.0837
16.952	27.1254
17.036	27.295
17.12	27.4665
17.204	27.4952
17.288	27.4007
17.372	27.3477
17.456	27.4402
17.54	27.6042
17.624	27.6825
17.708	27.6168
17.792	27.4812
17.876	27.3416
17.96	27.1786
18.044	26.962
18.128	26.7034
18.212	26.4336
18.296	26.1801
18.38	25.9546
18.464	25.7531
18.548	25.561
18.632	25.3869
18.716	25.2697
18.8	25.2405
18.884	25.283
18.968	25.3517
19.052	25.4375
19.136	25.6043
19.22	25.9075
19.304	26.257
19.388	26.4393
19.472	26.3091
19.556	25.9387
19.64	25.5502
19.724	25.3132
19.808	25.2308
19.892	25.1952
19.976	25.1055
20.06	24.9247
20.144	24.6794
20.228	24.4403
20.312	24.2878
20.396	24.2639
20.48	24.343
20.564	24.4457
20.648	24.4869
20.732	24.4273
20.816	24.2849
20.9	24.1204
20.984	23.9963
21.068	23.9504
21.152	23.9854
21.236	24.0754
21.32	24.185
21.404	24.2839
21.488	24.3538
21.572	24.3864
21.656	24.3835
21.74	24.3622
21.824	24.3655
21.908	24.4513
21.992	24.6533
22.076	24.9475
22.16	25.2405
22.244	25.4158
22.328	25.4004
22.412	25.1981
22.496	24.8873
22.58	24.5683
22.664	24.31
22.748	24.1158
22.832	23.9388
22.916	23.7172
23	23.4265
23.084	23.0772
23.168	22.7114
23.252	22.372
23.336	22.0761
23.42	21.8112
23.504	21.5615
23.588	21.3317
23.672	21.1515
23.756	21.0569
23.84	21.034
23.924	21.0196
24.008	20.9351
24.092	20.7282
24.176	20.4009
24.26	20.0082
24.344	19.5979
24.428	19.1568
24.512	18.6226
24.596	17.8941
24.68	16.9324
24.764	15.8501
24.848	14.8501
24.932	14.1735
25.016	13.9881
25.1	14.3237
25.184	15.1207
25.268	16.2919
25.352	17.7906
25.436	19.5443
25.52	21.4262
25.604	23.254
25.688	24.761
25.772	25.6843
25.856	25.8467
25.94	25.1502
26.024	23.5565
26.108	21.0832
26.192	17.8355
26.276	13.9651
26.36	9.659058
26.444	5.144879
26.528	0.711508
26.612	-3.317453
26.696	-6.584096
26.78	-8.773050
26.864	-9.675668
26.948	-9.208406
27.028	-7.540011