File: Bakgrunnsmateriale/MATLAB/FTIR/ftir_data/LPE453/Mapping_121/LPE453_t26_cm-1.asc
PE IR       SPECTRUM    SPECTRUM    ASCII       PEDS        1.60
  -1
LP685A~1.ASC
17/05/16
16:31:06.00
17/05/16
16:31:06.00
tln
$LPE453_t0026$<tbV0>[5.2,-7.8,8.0,0.0,27,1,0]
370
64

2002,4.07
MIRTGS : RIGHTBACK : INTERNAL 2
MIR : ON : INTERNAL 2
OPTKBR

0.200000
8
8.000000
FILLER
RATIO
SPECTRUM
UNLOCKED 256

DOUBLE
64
COMBINED
1
0
0

1.000000
RATIO

1
0
TRUE
51149
0
LEFT NOT FITTED RIGHT NOT FITTED 0
NONE
NONE
15600
12
4.427000
51148
TRUE
1 0 8 72 0 0 0 0

15798

#HDR
-1
-1
#GR
CM-1
%T
2.38419e-05
0.0
5000
-1.000000
4631
8
28.9836
-4.080152
#DATA
5000	0.228953
4984	0.046801
4968	0.673294
4952	-0.310826
4936	0.160813
4920	0.318264
4904	0.203847
4888	0.260448
4872	0.346922
4856	0.380802
4840	0.463271
4824	0.276923
4808	0.185012
4792	-0.047349
4776	0.397682
4760	0.330352
4744	0.359964
4728	0.207996
4712	-0.069093
4696	0.301909
4680	0.613808
4664	0.487780
4648	0.596070
4632	0.200700
4616	0.933337
4600	-0.395798
4584	-1.127910
4568	-1.869845
4552	-3.525304
4536	-1.443219
4520	2.551698
4504	14.7541
4488	-1.259660
4472	-1.729941
4456	-1.140880
4440	-1.475214
4424	-0.704002
4408	0.194334
4392	0.659012
4376	0.619411
4360	0.506377
4344	0.361704
4328	0.193262
4312	-0.056672
4296	0.354099
4280	0.053596
4264	0.376772
4248	0.341796
4232	-0.059747
4216	0.276279
4200	0.607490
4184	-0.058817
4168	0.281620
4152	0.274348
4136	0.370240
4120	0.250101
4104	-0.041770
4088	0.132513
4072	0.047230
4056	-0.142049
4040	0.038647
4024	0.120544
4008	0.041961
3992	0.103402
3976	0.192975
3960	0.056052
3944	0.043916
3928	-0.106859
3912	0.104761
3896	0.143694
3880	0.148367
3864	0.038409
3848	0.040221
3832	0.194811
3816	0.089240
3800	0.103926
3784	0.098800
3768	-0.110340
3752	0.071620
3736	0.155806
3720	0.077557
3704	0.026369
3688	0.142884
3672	0.066471
3656	0.108098
3640	-0.068974
3624	0.013399
3608	0.138044
3592	0.042772
3576	0.108337
3560	0.079083
3544	0.039172
3528	0.005817
3512	-0.130939
3496	0.073051
3480	0.048661
3464	0.008821
3448	-0.051712
3432	0.101852
3416	-0.108218
3400	-0.050950
3384	-0.008988
3368	0.116491
3352	0.093030
3336	0.123524
3320	-0.019001
3304	0.023365
3288	0.180745
3272	0.140380
3256	0.054550
3240	-0.019168
3224	0.053143
3208	-0.159358
3192	0.016450
3176	-0.031995
3160	-0.192284
3144	0.110197
3128	0.034666
3112	-0.038409
3096	0.232815
3080	0.101280
3064	-0.009846
3048	0.180125
3032	-0.044703
3016	0.050830
3000	0.060224
2984	0.069999
2968	0.273799
2952	0.105094
2936	0.050210
2920	0.043344
2904	0.113272
2888	0.012826
2872	0.102996
2856	0.197482
2840	-0.024890
2824	0.020670
2808	-0.012826
2792	0.095701
2776	-0.018906
2760	0.056838
2744	0.011849
2728	0.006151
2712	0.162291
2696	-0.012612
2680	0.059771
2664	0.035548
2648	-0.041365
2632	0.037002
2616	0.118494
2600	0.111126
2584	0.004482
2568	-0.039601
2552	0.039720
2536	-0.012564
2520	0.085091
2504	0.025606
2488	0.125837
2472	0.084543
2456	-0.003671
2440	0.020384
2424	-0.025629
2408	0.136065
2392	0.032639
2376	0.015020
2360	-0.039005
2344	-0.036668
2328	0.011205
2312	-0.011754
2296	-0.020480
2280	0.106406
2264	0.121140
2248	0.328731
2232	0.571203
2216	0.837755
2200	1.318287
2184	1.814365
2168	2.439045
2152	3.526377
2136	4.828095
2120	5.962061
2104	7.335996
2088	8.965945
2072	10.5727
2056	12.1298
2040	13.6552
2024	15.2132
2008	16.6695
1992	18.009
1976	19.2298
1960	20.1534
1944	21.1937
1928	21.9797
1912	22.797
1896	23.5345
1880	24.0548
1864	24.6558
1848	25.0236
1832	25.452
1816	25.6853
1800	25.9045
1784	26.3114
1768	26.308
1752	26.5165
1736	26.7059
1720	26.7681
1704	26.8949
1688	26.8455
1672	27.0025
1656	27.0929
1640	26.7382
1624	27.0901
1608	26.9935
1592	26.8911
1576	27.1707
1560	26.801
1544	26.9843
1528	27.0167
1512	26.6597
1496	27.0702
1480	26.7708
1464	26.6189
1448	27.0091
1432	26.4641
1416	26.7316
1400	26.5764
1384	26.3497
1368	26.6224
1352	26.2766
1336	26.2558
1320	26.471
1304	26.1169
1288	26.205
1272	26.1009
1256	25.8932
1240	26.0865
1224	25.7759
1208	25.6243
1192	25.7648
1176	25.5078
1160	25.4684
1144	25.4579
1128	25.2195
1112	25.13
1096	24.8851
1080	24.8105
1064	25.1901
1048	24.6131
1032	24.5017
1016	24.4673
1000	24.088
984	 24.3464
968	 23.9353
952	 23.5092
936	 23.8136
920	 23.2706
904	 23.0719
888	 23.2139
872	 22.5507
856	 22.7231
840	 22.276
824	 21.6384
808	 21.8143
792	 21.0895
776	 21.0143
760	 20.6244
744	 20.4501
728	 19.8455
712	 19.8643
696	 19.5086
680	 19.2962
664	 18.6985
648	 17.9325
632	 17.9968
616	 17.5522
600	 16.6288
584	 16.6755
568	 16.3986
552	 15.7777
536	 15.3606
520	 15.2317
504	 15.1637
488	 14.4987
472	 13.8757
456	 11.9546
440	 11.7133
424	 13.2048
408	 8.309769
392	 7.878470
376	 -1.680564
370	 26.132