File: Bakgrunnsmateriale/MATLAB/FTIR/ftir_data/LPE453/Mapping_121/LPE453_t38.asc
PE IR       SPECTRUM    SPECTRUM    ASCII       PEDS        1.60
  -1
LPEF99~1.ASC
17/05/16
17:27:03.00
17/05/16
17:27:29.00
tln
$LPE453_t0038$<tbV0>[2.6,-5.2,8.0,0.0,27,1,0]
27.028
64

2002,4.07
MIRTGS : RIGHTBACK : INTERNAL 2
MIR : ON : INTERNAL 2
OPTKBR

0.200000
8
8.000000
FILLER
RATIO
SPECTRUM
UNLOCKED 256

DOUBLE
64
COMBINED
1
0
0

0.002000
RATIO

1
0
TRUE
51149
0
LEFT NOT FITTED RIGHT NOT FITTED 0
NONE
NONE
15600
12
4.427000
51148
TRUE
1 0 8 72 0 0 0 0

15798

#HDR
-1
-1
#GR
µM
%T
2.38419e-05
0.0
2.000000
0.002000
12515
8
24.7067
-32.1822
#DATA
2.000000	 0.246620
2.084000	 0.351230
2.168000	 0.609025
2.252000	 -0.109067
2.336000	 0.182632
2.420000	 0.207294
2.504000	 0.111880
2.588000	 -0.051673
2.672000	 0.122992
2.756000	 -0.086419
2.840000	 -0.057241
2.924000	 0.002399
3.008000	 0.168138
3.092000	 0.105133
3.176000	 -0.069067
3.260000	 0.017606
3.344000	 -0.061466
3.428000	 -0.014600
3.512000	 0.100160
3.596000	 0.009344
3.680000	 0.091149
3.764000	 0.139774
3.848000	 0.038499
3.932000	 0.120669
4.016000	 0.057603
4.100000	 0.031532
4.184000	 -0.118347
4.268000	 0.015232
4.352000	 0.074160
4.436000	 0.126641
4.520000	 0.495831
4.604000	 1.715231
4.688000	 3.687753
4.772000	 6.666195
4.856000	 9.908656
4.940000	 13.0325
5.024000	 15.7862
5.108000	 17.9621
5.192000	 19.7458
5.276000	 21.096
5.359999	 22.069
5.444000	 22.8672
5.528000	 23.3446
5.612000	 23.8056
5.696000	 24.0773
5.780000	 24.161
5.864000	 24.1889
5.948000	 24.386
6.032000	 24.5259
6.116000	 24.5747
6.200000	 24.5668
6.284000	 24.3811
6.368000	 24.5477
6.452000	 24.399
6.536000	 24.5094
6.620000	 24.4472
6.704000	 24.4658
6.788000	 24.2885
6.872000	 24.3871
6.956000	 24.056
7.040000	 24.2052
7.124000	 24.0356
7.208000	 24.1616
7.292000	 23.9595
7.376000	 23.9735
7.460000	 23.9735
7.544000	 23.803
7.628000	 23.8801
7.712000	 23.7097
7.796000	 23.6837
7.880000	 23.689
7.964000	 23.4768
8.048000	 23.4424
8.132000	 23.4227
8.216000	 23.3049
8.300000	 23.17
8.384000	 23.3162
8.468000	 23.0838
8.552000	 23.0083
8.635999	 23.0385
8.719999	 22.9983
8.804000	 22.9447
8.888000	 22.7116
8.972000	 22.7658
9.056000	 22.6184
9.140000	 22.4992
9.224000	 22.5897
9.308000	 22.5313
9.391999	 22.2729
9.475999	 22.2004
9.560000	 22.2177
9.644000	 22.0652
9.728000	 21.9332
9.812000	 21.8562
9.896000	 21.7395
9.980000	 21.8063
10.064	21.4807
10.148	21.359
10.232	21.3535
10.316	21.3525
10.4	21.3976
10.484	21.2856
10.568	21.0047
10.652	20.9665
10.736	20.8946
10.82	20.7727
10.904	20.7685
10.988	20.552
11.072	20.3497
11.156	20.1959
11.24	20.1774
11.324	20.178
11.408	19.9151
11.492	19.8775
11.576	19.6344
11.66	19.4986
11.744	19.4678
11.828	19.4194
11.912	19.5857
11.996	19.5424
12.08	19.4208
12.164	19.0872
12.248	18.8614
12.332	18.8186
12.416	18.6526
12.5	18.4943
12.584	18.5365
12.668	18.4121
12.752	18.2661
12.836	18.2248
12.92	18.3056
13.004	18.3324
13.088	18.1512
13.172	17.9684
13.256	17.9603
13.34	17.96
13.424	17.5774
13.508	17.3564
13.592	17.3071
13.676	17.2947
13.76	17.5318
13.844	17.6211
13.928	17.2992
14.012	16.9786
14.096	16.854
14.18	16.7462
14.264	16.6568
14.348	16.7042
14.432	16.7058
14.516	16.4899
14.6	16.3235
14.684	16.314
14.768	16.2678
14.852	16.0861
14.936	15.7934
15.02	15.5145
15.104	15.4212
15.188	15.5475
15.272	15.7166
15.356	15.8199
15.44	15.83
15.524	15.6654
15.608	15.4424
15.692	15.3314
15.776	15.2296
15.86	15.104
15.944	15.0816
16.028	15.1096
16.112	15.0626
16.196	14.9643
16.28	14.9175
16.364	14.9915
16.448	15.0989
16.532	15.0327
16.616	14.7166
16.7	14.3077
16.784	14.0416
16.868	14.0171
16.952	14.0883
17.036	14.0714
17.12	13.9885
17.204	13.9181
17.288	13.8183
17.372	13.6696
17.456	13.5764
17.54	13.5925
17.624	13.6181
17.708	13.579
17.792	13.527
17.876	13.4916
17.96	13.3829
18.044	13.1319
18.128	12.8234
18.212	12.6129
18.296	12.5722
18.38	12.655
18.464	12.7626
18.548	12.8243
18.632	12.837
18.716	12.8275
18.8	12.7845
18.884	12.6639
18.968	12.4669
19.052	12.2596
19.136	12.0871
19.22	11.9252
19.304	11.7492
19.388	11.6122
19.472	11.5942
19.556	11.7049
19.64	11.8667
19.724	11.9899
19.808	12.0392
19.892	12.0216
19.976	11.9543
20.06	11.8635
20.144	11.798
20.228	11.8055
20.312	11.8734
20.396	11.9067
20.48	11.7847
20.564	11.469
20.648	11.0602
20.732	10.749
20.816	10.6916
20.9	10.8961
20.984	11.2254
21.068	11.4878
21.152	11.5574
21.236	11.4349
21.32	11.221
21.404	11.0302
21.488	10.925
21.572	10.9078
21.656	10.9619
21.74	11.0803
21.824	11.2544
21.908	11.434
21.992	11.5106
22.076	11.3637
22.16	10.9556
22.244	10.4017
22.328	9.917774
22.412	9.694962
22.496	9.761578
22.58	9.974285
22.664	10.1209
22.748	10.0439
22.832	9.733885
22.916	9.301642
23	8.897438
23.084	8.623433
23.168	8.519051
23.252	8.579850
23.336	8.787974
23.42	9.108392
23.504	9.480787
23.588	9.816335
23.672	10.0134
23.756	9.975009
23.84	9.634709
23.924	8.991480
24.008	8.128738
24.092	7.206395
24.176	6.405026
24.26	5.915219
24.344	5.834871
24.428	6.095617
24.512	6.526645
24.596	6.926108
24.68	7.153527
24.764	7.195261
24.848	7.177650
24.932	7.268904
25.016	7.545683
25.1	7.914746
25.184	8.185392
25.268	8.201455
25.352	7.941030
25.436	7.583665
25.52	7.370802
25.604	7.387343
25.688	7.478026
25.772	7.201708
25.856	5.958400
25.94	3.053640
26.024	-1.982292
26.108	-9.018873
26.192	-17.1483
26.276	-24.8537
26.36	-30.2774
26.444	-32.182
26.528	-30.4432
26.612	-26.1571
26.696	-21.0297
26.78	-16.7131
26.864	-14.0564
26.948	-13.1176
27.028	-13.6626