File: Bakgrunnsmateriale/MATLAB/FTIR/ftir_data/LPE453/Mapping_121/LPE453_t105_cm-1.asc
PE IR       SPECTRUM    SPECTRUM    ASCII       PEDS        1.60
  -1
LP0878~1.ASC
17/05/16
22:57:59.00
17/05/16
22:57:59.00
tln
$LPE453_t0105$<tbV0>[0.0,10.4,8.0,0.0,27,1,0]
370
64

2002,4.07
MIRTGS : RIGHTBACK : INTERNAL 2
MIR : ON : INTERNAL 2
OPTKBR

0.200000
8
8.000000
FILLER
RATIO
SPECTRUM
UNLOCKED 256

DOUBLE
64
COMBINED
1
0
0

1.000000
RATIO

1
0
TRUE
51149
0
LEFT NOT FITTED RIGHT NOT FITTED 0
NONE
NONE
15600
12
4.427000
51148
TRUE
1 0 8 72 0 0 0 0

15798

#HDR
-1
-1
#GR
CM-1
%T
2.38419e-05
0.0
5000
-1.000000
4631
8
36.5716
-8.763027
#DATA
5000	0.472474
4984	0.381708
4968	0.274085
4952	0.114464
4936	-0.183987
4920	-0.126171
4904	0.453686
4888	-0.042223
4872	-0.073051
4856	-0.044226
4840	0.172543
4824	-0.271749
4808	-0.012493
4792	0.263929
4776	-0.072860
4760	-0.032043
4744	-0.096249
4728	0.006914
4712	-0.046753
4696	0.948023
4680	1.006937
4664	0.485658
4648	1.574039
4632	0.077414
4616	-0.469851
4600	0.852656
4584	0.075650
4568	-0.297188
4552	-0.215625
4536	0.356841
4520	0.366592
4504	-4.699444
4488	17.6631
4472	-1.434206
4456	0.271463
4440	-0.292658
4424	-0.205278
4408	-0.228762
4392	-0.133204
4376	-0.026607
4360	0.057387
4344	0.248122
4328	-0.226807
4312	0.039625
4296	0.093102
4280	0.162339
4264	0.193047
4248	-0.149106
4232	0.199246
4216	-0.001287
4200	0.172948
4184	-0.105142
4168	-0.138807
4152	0.087690
4136	0.048828
4120	0.137352
4104	0.141143
4088	0.409650
4072	0.039243
4056	0.179672
4040	0.066018
4024	0.042152
4008	0.020813
3992	0.393748
3976	0.146794
3960	0.037431
3944	0.100588
3928	0.015354
3912	0.048899
3896	0.064325
3880	0.023007
3864	0.090360
3848	0.138378
3832	0.061988
3816	-0.041699
3800	-0.148272
3784	0.116372
3768	0.163531
3752	-0.081658
3736	-0.084805
3720	-0.060009
3704	0.138258
3688	0.130629
3672	0.007748
3656	0.055599
3640	0.060725
3624	0.098967
3608	-0.085377
3592	0.036787
3576	0.065088
3560	0.041651
3544	0.084996
3528	0.078177
3512	0.036859
3496	0.005722
3480	-0.011229
3464	0.044655
3448	0.097584
3432	-0.084829
3416	0.082921
3400	0.167870
3384	-0.045156
3368	0.057792
3352	0.093722
3336	0.081634
3320	0.159287
3304	0.066781
3288	0.093626
3272	-0.119423
3256	0.056123
3240	0.081777
3224	0.172734
3208	0.042510
3192	0.054597
3176	0.046610
3160	-0.108194
3144	0.038838
3128	-0.030899
3112	0.066590
3096	-0.072002
3080	0.026059
3064	0.093865
3048	-0.036525
3032	-0.009560
3016	0.046300
3000	0.100636
2984	-0.033617
2968	-0.028872
2952	-0.021743
2936	0.043821
2920	-0.016641
2904	0.111508
2888	-0.053238
2872	0.075912
2856	0.013804
2840	0.004768
2824	0.000882
2808	-0.070357
2792	0.067949
2776	0.025892
2760	0.058507
2744	-0.013971
2728	-0.030422
2712	0.116395
2696	-0.043749
2680	0.067639
2664	0.062155
2648	-0.032949
2632	0.039267
2616	0.060367
2600	0.097608
2584	0.093054
2568	0.002670
2552	0.027370
2536	0.090479
2520	0.055456
2504	0.031757
2488	-0.021576
2472	0.027799
2456	0.026106
2440	0.024127
2424	0.035429
2408	0.089192
2392	0.050139
2376	0.162649
2360	0.158262
2344	0.234270
2328	0.380730
2312	0.578403
2296	0.816655
2280	1.055622
2264	1.562881
2248	2.295708
2232	2.936506
2216	4.025697
2200	5.199670
2184	6.645393
2168	8.208847
2152	10.1594
2136	12.1139
2120	14.1264
2104	16.1625
2088	18.347
2072	20.3777
2056	22.2021
2040	23.9496
2024	25.6696
2008	27.1627
1992	28.3428
1976	29.6896
1960	30.6804
1944	31.3354
1928	32.294
1912	33.0194
1896	33.5212
1880	33.8938
1864	34.4742
1848	34.8259
1832	34.8997
1816	35.2263
1800	35.6906
1784	35.7397
1768	35.5938
1752	35.9053
1736	36.1405
1720	36.0741
1704	35.904
1688	36.2869
1672	36.2481
1656	36.1381
1640	36.2318
1624	36.5691
1608	36.3225
1592	36.077
1576	36.2285
1560	36.4983
1544	36.2308
1528	35.9895
1512	36.3582
1496	36.2248
1480	36.0744
1464	35.7925
1448	36.206
1432	36.1356
1416	35.7239
1400	35.6664
1384	36.1434
1368	35.9972
1352	35.6042
1336	35.7029
1320	35.9462
1304	35.7263
1288	35.3023
1272	35.5502
1256	35.7545
1240	35.5134
1224	35.0425
1208	35.2929
1192	35.6449
1176	35.1799
1160	34.8995
1144	35.2498
1128	35.3355
1112	34.6522
1096	34.5843
1080	35.1072
1064	34.9823
1048	34.3221
1032	34.2349
1016	34.8048
1000	34.4756
984	 34.0818
968	 33.6715
952	 34.2809
936	 33.9537
920	 33.1543
904	 33.3613
888	 33.6709
872	 32.8585
856	 32.458
840	 32.721
824	 32.8723
808	 32.0371
792	 31.5017
776	 31.9796
760	 31.9238
744	 31.0989
728	 30.5951
712	 30.9593
696	 31.008
680	 29.8109
664	 29.6181
648	 30.1659
632	 29.6049
616	 28.3696
600	 28.2868
584	 28.5385
568	 27.9562
552	 26.9018
536	 26.2674
520	 26.6222
504	 26.385
488	 24.9747
472	 25.1246
456	 24.9181
440	 23.6899
424	 23.8272
408	 21.0995
392	 18.2157
376	 2.841091
370	 -4.836201