File: Bakgrunnsmateriale/MATLAB/FTIR/ftir_data/LPE453/Mapping_121/LPE453_t62.asc
PE IR       SPECTRUM    SPECTRUM    ASCII       PEDS        1.60
  -1
LPCBA1~1.ASC
17/05/16
19:25:17.00
17/05/16
19:25:44.00
tln
$LPE453_t0062$<tbV0>[-2.6,0.0,8.0,0.0,27,1,0]
27.028
64

2002,4.07
MIRTGS : RIGHTBACK : INTERNAL 2
MIR : ON : INTERNAL 2
OPTKBR

0.200000
8
8.000000
FILLER
RATIO
SPECTRUM
UNLOCKED 256

DOUBLE
64
COMBINED
1
0
0

0.002000
RATIO

1
0
TRUE
51149
0
LEFT NOT FITTED RIGHT NOT FITTED 0
NONE
NONE
15600
12
4.427000
51148
TRUE
1 0 8 72 0 0 0 0

15798

#HDR
-1
-1
#GR
µM
%T
2.38419e-05
0.0
2.000000
0.002000
12515
8
32.0322
-6.504358
#DATA
2.000000	 -0.057744
2.084000	 0.722575
2.168000	 0.925872
2.252000	 -0.714713
2.336000	 0.028269
2.420000	 0.118585
2.504000	 0.179056
2.588000	 0.132904
2.672000	 0.092636
2.756000	 0.054746
2.840000	 0.148838
2.924000	 0.146091
3.008000	 0.092666
3.092000	 0.058682
3.176000	 0.062833
3.260000	 0.074691
3.344000	 0.191907
3.428000	 -0.052783
3.512000	 -0.008490
3.596000	 0.053018
3.680000	 0.070287
3.764000	 0.034715
3.848000	 0.064983
3.932000	 0.023817
4.016000	 0.088361
4.100000	 0.110323
4.184000	 0.139043
4.268000	 0.148347
4.352000	 0.176183
4.436000	 0.839618
4.520000	 2.194825
4.604000	 4.803802
4.688000	 8.518589
4.772000	 12.8283
4.856000	 17.0542
4.940000	 20.7431
5.024000	 23.6695
5.108000	 25.9993
5.192000	 27.7028
5.276000	 29.0385
5.359999	 29.7644
5.444000	 30.5662
5.528000	 31.0108
5.612000	 31.309
5.696000	 31.5627
5.780000	 31.5599
5.864000	 31.9625
5.948000	 31.7256
6.032000	 31.995
6.116000	 31.7135
6.200000	 31.9714
6.284000	 31.8162
6.368000	 31.9744
6.452000	 31.9574
6.536000	 31.855
6.620000	 31.9073
6.704000	 31.4827
6.788000	 31.7222
6.872000	 31.6909
6.956000	 31.4649
7.040000	 31.6738
7.124000	 31.5266
7.208000	 31.2864
7.292000	 31.5115
7.376000	 31.3106
7.460000	 31.0195
7.544000	 31.424
7.628000	 31.1734
7.712000	 30.8569
7.796000	 30.9174
7.880000	 31.2164
7.964000	 31.0376
8.048000	 30.5803
8.132000	 30.8821
8.216000	 30.9273
8.300000	 30.5723
8.384000	 30.4822
8.468000	 30.6392
8.552000	 30.8214
8.635999	 30.4418
8.719999	 30.2065
8.804000	 30.3054
8.888000	 30.4715
8.972000	 30.3635
9.056000	 29.9328
9.140000	 29.5913
9.224000	 30.1106
9.308000	 30.0652
9.391999	 29.7222
9.475999	 29.4557
9.560000	 29.1615
9.644000	 29.3424
9.728000	 29.4907
9.812000	 29.733
9.896000	 29.2229
9.980000	 28.8615
10.064	28.9127
10.148	28.8894
10.232	29.1124
10.316	29.0011
10.4	28.7117
10.484	28.4701
10.568	28.1213
10.652	28.1656
10.736	28.4038
10.82	28.5391
10.904	28.4746
10.988	28.0492
11.072	27.5756
11.156	27.6192
11.24	27.5703
11.324	27.6767
11.408	27.779
11.492	27.7266
11.576	27.5546
11.66	27.2243
11.744	27.0245
11.828	26.8995
11.912	26.9228
11.996	26.978
12.08	26.9739
12.164	26.9486
12.248	26.7622
12.332	26.5454
12.416	26.2657
12.5	25.9821
12.584	25.9537
12.668	25.9902
12.752	26.0264
12.836	26.0704
12.92	26.0924
13.004	25.9897
13.088	25.9284
13.172	25.6109
13.256	25.2773
13.34	25.2407
13.424	25.1508
13.508	25.2825
13.592	25.4302
13.676	25.3884
13.76	25.3338
13.844	25.3334
13.928	25.0996
14.012	24.707
14.096	24.4644
14.18	24.2106
14.264	23.9152
14.348	23.7411
14.432	23.7959
14.516	23.8552
14.6	23.9144
14.684	24.1624
14.768	24.3215
14.852	24.2753
14.936	24.0754
15.02	23.7553
15.104	23.5057
15.188	23.3853
15.272	23.3021
15.356	23.2027
15.44	23.125
15.524	23.0782
15.608	22.9521
15.692	22.8174
15.776	22.8368
15.86	22.9536
15.944	23.1071
16.028	23.2232
16.112	23.1315
16.196	22.8611
16.28	22.5715
16.364	22.3004
16.448	22.1043
16.532	22.0526
16.616	22.001
16.7	21.7716
16.784	21.4474
16.868	21.2415
16.952	21.2345
17.036	21.3261
17.12	21.3656
17.204	21.339
17.288	21.4105
17.372	21.7005
17.456	22.0797
17.54	22.268
17.624	22.1237
17.708	21.7686
17.792	21.4236
17.876	21.1668
17.96	20.9072
18.044	20.589
18.128	20.3396
18.212	20.3526
18.296	20.653
18.38	21.0334
18.464	21.2488
18.548	21.2321
18.632	21.1146
18.716	21.0637
18.8	21.145
18.884	21.2896
18.968	21.3654
19.052	21.2777
19.136	21.0586
19.22	20.8378
19.304	20.6989
19.388	20.5841
19.472	20.3736
19.556	20.049
19.64	19.7358
19.724	19.5792
19.808	19.6107
19.892	19.7436
19.976	19.8522
20.06	19.8304
20.144	19.6236
20.228	19.2568
20.312	18.8452
20.396	18.5398
20.48	18.4291
20.564	18.4788
20.648	18.5804
20.732	18.6477
20.816	18.6633
20.9	18.6589
20.984	18.6588
21.068	18.6649
21.152	18.6644
21.236	18.653
21.32	18.6322
21.404	18.5922
21.488	18.4982
21.572	18.305
21.656	17.9901
21.74	17.5817
21.824	17.1716
21.908	16.8914
21.992	16.8471
22.076	17.0681
22.16	17.495
22.244	18.02
22.328	18.5316
22.412	18.9516
22.496	19.2411
22.58	19.393
22.664	19.4238
22.748	19.358
22.832	19.1991
22.916	18.9267
23	18.5264
23.084	18.009
23.168	17.4515
23.252	16.9854
23.336	16.7455
23.42	16.7665
23.504	16.9556
23.588	17.099
23.672	16.9678
23.756	16.4429
23.84	15.5918
23.924	14.6781
24.008	14.0388
24.092	13.9286
24.176	14.3876
24.26	15.1931
24.344	15.9216
24.428	16.1562
24.512	15.5971
24.596	14.2339
24.68	12.3726
24.764	10.5394
24.848	9.253468
24.932	8.892730
25.016	9.515776
25.1	10.835
25.184	12.4235
25.268	13.925
25.352	15.1481
25.436	16.0392
25.52	16.6412
25.604	17.0187
25.688	17.2366
25.772	17.3315
25.856	17.3175
25.94	17.2474
26.024	17.2144
26.108	17.3269
26.192	17.7124
26.276	18.4874
26.36	19.7413
26.444	21.429
26.528	23.2589
26.612	24.721
26.696	25.0625
26.78	23.4812
26.864	19.452
26.948	13.0139
27.028	5.348277