File: Bakgrunnsmateriale/MATLAB/FTIR/ftir_data/LPE453/Mapping_121/LPE453_t115_cm-1.asc
PE IR       SPECTRUM    SPECTRUM    ASCII       PEDS        1.60
  -1
LP08FC~1.ASC
17/05/16
23:50:18.00
17/05/16
23:50:18.00
tln
$LPE453_t0115$<tbV0>[2.6,13.0,8.0,0.0,27,1,0]
370
64

2002,4.07
MIRTGS : RIGHTBACK : INTERNAL 2
MIR : ON : INTERNAL 2
OPTKBR

0.200000
8
8.000000
FILLER
RATIO
SPECTRUM
UNLOCKED 256

DOUBLE
64
COMBINED
1
0
0

1.000000
RATIO

1
0
TRUE
51149
0
LEFT NOT FITTED RIGHT NOT FITTED 0
NONE
NONE
15600
12
4.427000
51148
TRUE
1 0 8 72 0 0 0 0

15798

#HDR
-1
-1
#GR
CM-1
%T
2.38419e-05
0.0
5000
-1.000000
4631
8
36.2794
-14.5929
#DATA
5000	0.412416
4984	0.171804
4968	-0.134396
4952	0.020718
4936	-0.084948
4920	-0.306391
4904	0.313591
4888	0.169968
4872	0.298881
4856	-0.123047
4840	-0.086021
4824	0.357580
4808	0.437450
4792	-0.112986
4776	-0.085854
4760	0.523161
4744	0.284385
4728	-0.363016
4712	0.948619
4696	0.698781
4680	0.608825
4664	0.136804
4648	-1.623010
4632	0.605702
4616	0.790596
4600	0.224423
4584	-0.399565
4568	0.011539
4552	0.073719
4536	-0.448131
4520	-0.341200
4504	1.346135
4488	11.1804
4472	-1.693201
4456	-0.678753
4440	-0.509238
4424	-0.755500
4408	-0.353312
4392	0.585579
4376	-0.016546
4360	0.461935
4344	0.399422
4328	0.520944
4312	0.092601
4296	-0.180220
4280	0.379133
4264	0.071692
4248	0.067067
4232	0.237965
4216	-0.027298
4200	0.360226
4184	0.160837
4168	0.076341
4152	-0.186967
4136	0.153279
4120	-0.004696
4104	0.078248
4088	0.005745
4072	0.224423
4056	0.104403
4040	0.107407
4024	0.180840
4008	0.015401
3992	-0.014805
3976	0.158691
3960	0.056672
3944	0.002598
3928	0.063467
3912	0.032162
3896	0.212192
3880	0.053453
3864	0.043320
3848	0.121331
3832	0.102996
3816	0.115609
3800	0.093388
3784	-0.031089
3768	-0.048422
3752	0.090384
3736	0.264263
3720	0.011754
3704	-0.044369
3688	0.024151
3672	-0.084114
3656	0.076198
3640	-0.059509
3624	-0.076365
3608	0.085377
3592	-0.002336
3576	-0.037574
3560	-0.015783
3544	-0.104689
3528	0.151753
3512	0.070548
3496	-0.032162
3480	-0.060796
3464	0.221872
3448	0.160527
3432	0.070929
3416	0.048398
3400	0.083231
3384	0.030136
3368	-0.089597
3352	0.020551
3336	-0.002527
3320	0.156712
3304	0.116705
3288	0.117635
3272	-0.037074
3256	-0.086140
3240	0.205326
3224	0.070285
3208	0.018358
3192	-0.125169
3176	0.136041
3160	0.025320
3144	0.088500
3128	-0.028467
3112	0.136208
3096	0.019669
3080	-0.100898
3064	-0.063967
3048	0.092291
3032	0.081658
3016	0.135445
3000	0.065374
2984	0.000667
2968	-0.015783
2952	-0.030279
2936	0.061225
2920	0.112247
2904	0.023198
2888	0.006103
2872	-0.024580
2856	-0.055146
2840	0.000572
2824	-0.013732
2808	0.038051
2792	0.046920
2776	0.039792
2760	0.027585
2744	-0.044655
2728	-0.003385
2712	0.084257
2696	0.029993
2680	0.111198
2664	0.074005
2648	0.097465
2632	-0.011444
2616	0.142645
2600	0.071167
2584	0.003671
2568	0.035834
2552	0.017452
2536	0.018262
2520	-0.063228
2504	0.176501
2488	0.013947
2472	0.068020
2456	0.128579
2440	0.026154
2424	0.219798
2408	0.166916
2392	0.180912
2376	0.179123
2360	0.182294
2344	0.475025
2328	0.634264
2312	0.967335
2296	1.207304
2280	1.753282
2264	2.355813
2248	3.090000
2232	3.840875
2216	5.036544
2200	6.322073
2184	7.784175
2168	9.493994
2152	11.2424
2136	13.237
2120	15.112
2104	17.1107
2088	18.9829
2072	20.7554
2056	22.444
2040	23.9443
2024	25.3904
2008	26.7165
1992	27.8527
1976	28.8031
1960	29.6873
1944	30.5405
1928	31.1356
1912	31.835
1896	32.2921
1880	32.8618
1864	33.3374
1848	33.6567
1832	33.9338
1816	34.2937
1800	34.5496
1784	34.6974
1768	34.8879
1752	34.9886
1736	35.1804
1720	35.419
1704	35.4932
1688	35.699
1672	35.7187
1656	35.7417
1640	35.8498
1624	35.9439
1608	35.9642
1592	36.1004
1576	35.9688
1560	36.1596
1544	36.2058
1528	36.0902
1512	36.0125
1496	36.0902
1480	36.2744
1464	36.2147
1448	36.0248
1432	36.0373
1416	36.197
1400	36.1148
1384	35.8524
1368	35.969
1352	35.9879
1336	36.0421
1320	35.8603
1304	35.6646
1288	35.8144
1272	35.9231
1256	35.7029
1240	35.5088
1224	35.6755
1208	35.8769
1192	35.5613
1176	35.3407
1160	35.3551
1144	35.605
1128	35.5986
1112	35.1963
1096	35.0058
1080	35.1689
1064	35.3318
1048	35.0722
1032	34.8425
1016	34.9188
1000	35.0609
984	 34.8748
968	 34.3567
952	 34.247
936	 34.6787
920	 34.5252
904	 33.9988
888	 33.7473
872	 34.0877
856	 33.7308
840	 33.6186
824	 33.1378
808	 33.2092
792	 33.388
776	 32.9411
760	 32.2737
744	 32.1969
728	 32.5265
712	 32.6263
696	 32.0499
680	 31.348
664	 31.9008
648	 31.5009
632	 30.8285
616	 30.2468
600	 30.3673
584	 30.5675
568	 30.4237
552	 28.7388
536	 28.3213
520	 28.6337
504	 28.9229
488	 27.5393
472	 26.7525
456	 27.1929
440	 26.961
424	 22.9778
408	 23.4024
392	 24.2893
376	 -9.457302
370	 -13.4161