File: Bakgrunnsmateriale/MATLAB/FTIR/ftir_data/LPE453/Mapping_121/LPE453_t43.asc
PE IR       SPECTRUM    SPECTRUM    ASCII       PEDS        1.60
  -1
LPC3A5~1.ASC
17/05/16
17:50:06.00
17/05/16
17:50:32.00
tln
$LPE453_t0043$<tbV0>[-10.4,-5.2,8.0,0.0,27,1,0]
27.028
64

2002,4.07
MIRTGS : RIGHTBACK : INTERNAL 2
MIR : ON : INTERNAL 2
OPTKBR

0.200000
8
8.000000
FILLER
RATIO
SPECTRUM
UNLOCKED 256

DOUBLE
64
COMBINED
1
0
0

0.002000
RATIO

1
0
TRUE
51149
0
LEFT NOT FITTED RIGHT NOT FITTED 0
NONE
NONE
15600
12
4.427000
51148
TRUE
1 0 8 72 0 0 0 0

15798

#HDR
-1
-1
#GR
µM
%T
2.38419e-05
0.0
2.000000
0.002000
12515
8
47.6744
-1.815913
#DATA
2.000000	 0.005578
2.084000	 0.477223
2.168000	 0.694604
2.252000	 -1.060483
2.336000	 -0.068379
2.420000	 0.060476
2.504000	 0.014888
2.588000	 -0.114398
2.672000	 0.193934
2.756000	 0.162364
2.840000	 -0.007127
2.924000	 0.002449
3.008000	 0.195492
3.092000	 0.162987
3.176000	 -0.058532
3.260000	 -0.066888
3.344000	 0.061127
3.428000	 0.098726
3.512000	 0.096572
3.596000	 -0.093556
3.680000	 0.000876
3.764000	 0.051926
3.848000	 -0.075347
3.932000	 0.113131
4.016000	 0.035821
4.100000	 0.014482
4.184000	 0.052561
4.268000	 0.127377
4.352000	 0.472679
4.436000	 1.559211
4.520000	 3.631602
4.604000	 6.997913
4.688000	 11.6088
4.772000	 16.3282
4.856000	 20.8271
4.940000	 24.7435
5.024000	 27.6119
5.108000	 29.9835
5.192000	 31.6392
5.276000	 32.6909
5.359999	 33.7558
5.444000	 34.1414
5.528000	 34.8675
5.612000	 34.9297
5.696000	 35.2208
5.780000	 35.1934
5.864000	 35.5478
5.948000	 35.3095
6.032000	 35.4296
6.116000	 35.5802
6.200000	 35.371
6.284000	 35.5641
6.368000	 35.3211
6.452000	 35.4381
6.536000	 35.5707
6.620000	 35.2593
6.704000	 35.3697
6.788000	 35.3278
6.872000	 35.0517
6.956000	 34.8575
7.040000	 35.3203
7.124000	 35.0004
7.208000	 34.7044
7.292000	 35.0493
7.376000	 35.0355
7.460000	 34.6934
7.544000	 34.5971
7.628000	 35.0349
7.712000	 34.8837
7.796000	 34.5069
7.880000	 34.4049
7.964000	 34.7061
8.048000	 34.6437
8.132000	 34.4399
8.216000	 34.1336
8.300000	 34.3541
8.384000	 34.6785
8.468000	 34.544
8.552000	 34.2192
8.635999	 33.8362
8.719999	 34.131
8.804000	 34.3843
8.888000	 34.2642
8.972000	 34.089
9.056000	 33.6127
9.140000	 33.5252
9.224000	 34.2304
9.308000	 34.1689
9.391999	 34.0031
9.475999	 33.7092
9.560000	 33.367
9.644000	 33.3326
9.728000	 33.4965
9.812000	 33.9752
9.896000	 33.8872
9.980000	 33.4537
10.064	32.9419
10.148	32.9439
10.232	33.1029
10.316	33.2765
10.4	33.3347
10.484	33.3343
10.568	33.1887
10.652	32.7857
10.736	32.44
10.82	32.4337
10.904	32.8143
10.988	32.8578
11.072	32.8314
11.156	32.9628
11.24	32.514
11.324	32.2862
11.408	31.9597
11.492	31.9268
11.576	31.8298
11.66	31.9156
11.744	32.1695
11.828	32.396
11.912	32.2494
11.996	32.0469
12.08	31.7164
12.164	31.3029
12.248	31.2294
12.332	31.058
12.416	31.0356
12.5	31.1603
12.584	31.3337
12.668	31.5307
12.752	31.698
12.836	31.5556
12.92	31.354
13.004	30.933
13.088	30.5332
13.172	30.3906
13.256	30.1223
13.34	29.6441
13.424	29.8307
13.508	30.5587
13.592	30.8695
13.676	30.8493
13.76	30.699
13.844	30.4464
13.928	30.1218
14.012	29.8139
14.096	29.5863
14.18	29.4118
14.264	29.4104
14.348	29.555
14.432	29.5666
14.516	29.3896
14.6	29.318
14.684	29.475
14.768	29.6736
14.852	29.8451
14.936	29.8887
15.02	29.7856
15.104	29.6827
15.188	29.4924
15.272	29.1976
15.356	28.9963
15.44	28.8506
15.524	28.653
15.608	28.5195
15.692	28.5294
15.776	28.6235
15.86	28.7237
15.944	28.6926
16.028	28.4906
16.112	28.3163
16.196	28.3406
16.28	28.4365
16.364	28.3613
16.448	28.1496
16.532	28.0094
16.616	27.8783
16.7	27.5814
16.784	27.2939
16.868	27.2557
16.952	27.3089
17.036	27.2116
17.12	27.0492
17.204	26.9707
17.288	26.9097
17.372	26.8235
17.456	26.8437
17.54	27.0239
17.624	27.1994
17.708	27.2106
17.792	27.0981
17.876	27.0405
17.96	27.1598
18.044	27.3891
18.128	27.5103
18.212	27.3843
18.296	27.1022
18.38	26.8635
18.464	26.7427
18.548	26.6648
18.632	26.5526
18.716	26.4255
18.8	26.3364
18.884	26.2902
18.968	26.2326
19.052	26.0858
19.136	25.7997
19.22	25.4103
19.304	25.078
19.388	25.0061
19.472	25.2851
19.556	25.7765
19.64	26.1863
19.724	26.2812
19.808	26.0474
19.892	25.6615
19.976	25.3404
20.06	25.1973
20.144	25.1968
20.228	25.1979
20.312	25.0545
20.396	24.7171
20.48	24.2832
20.564	23.9353
20.648	23.7978
20.732	23.8524
20.816	23.9849
20.9	24.0973
20.984	24.1732
21.068	24.2346
21.152	24.2863
21.236	24.2899
21.32	24.1877
21.404	23.9518
21.488	23.5993
21.572	23.1865
21.656	22.787
21.74	22.487
21.824	22.3675
21.908	22.4691
21.992	22.7569
22.076	23.1078
22.16	23.3397
22.244	23.2928
22.328	22.9189
22.412	22.313
22.496	21.6848
22.58	21.2341
22.664	21.0673
22.748	21.1695
22.832	21.462
22.916	21.8736
23	22.3862
23.084	23.0065
23.168	23.7022
23.252	24.3641
23.336	24.8223
23.42	24.9576
23.504	24.7515
23.588	24.2977
23.672	23.7597
23.756	23.3304
23.84	23.1147
23.924	23.149
24.008	23.4037
24.092	23.7848
24.176	24.1743
24.26	24.4676
24.344	24.5788
24.428	24.4839
24.512	24.2803
24.596	24.083
24.68	23.9137
24.764	23.6537
24.848	23.0449
24.932	21.8829
25.016	20.248
25.1	18.5629
25.184	17.5751
25.268	18.0236
25.352	20.294
25.436	24.389
25.52	29.8491
25.604	35.8912
25.688	41.4997
25.772	45.6569
25.856	47.5837
25.94	47.0152
26.024	44.1723
26.108	39.6187
26.192	33.9556
26.276	27.6741
26.36	21.1322
26.444	14.7188
26.528	8.945672
26.612	4.550008
26.696	2.149732
26.78	1.956387
26.864	3.516581
26.948	5.771894
27.028	7.262730