File: Bakgrunnsmateriale/MATLAB/FTIR/ftir_data/LPE453/Mapping_121/LPE453_t84_cm-1.asc
PE IR       SPECTRUM    SPECTRUM    ASCII       PEDS        1.60
  -1
LP6B5B~1.ASC
17/05/16
21:14:04.00
17/05/16
21:14:04.00
tln
$LPE453_t0084$<tbV0>[-2.6,5.2,8.0,0.0,27,1,0]
370
64

2002,4.07
MIRTGS : RIGHTBACK : INTERNAL 2
MIR : ON : INTERNAL 2
OPTKBR

0.200000
8
8.000000
FILLER
RATIO
SPECTRUM
UNLOCKED 256

DOUBLE
64
COMBINED
1
0
0

1.000000
RATIO

1
0
TRUE
51149
0
LEFT NOT FITTED RIGHT NOT FITTED 0
NONE
NONE
15600
12
4.427000
51148
TRUE
1 0 8 72 0 0 0 0

15798

#HDR
-1
-1
#GR
CM-1
%T
2.38419e-05
0.0
5000
-1.000000
4631
8
35.813
-4.240179
#DATA
5000	-0.178670
4984	0.407505
4968	0.323653
4952	0.027012
4936	0.396442
4920	0.041055
4904	0.212430
4888	0.005960
4872	0.451946
4856	0.568890
4840	-0.284361
4824	-0.014805
4808	0.046372
4792	0.294661
4776	-0.072979
4760	-0.159311
4744	-0.121712
4728	-0.103688
4712	-0.151300
4696	0.511670
4680	0.549173
4664	0.888347
4648	2.071547
4632	0.240039
4616	0.999474
4600	1.674652
4584	0.445914
4568	0.070858
4552	-0.277519
4536	0.322270
4520	-2.274870
4504	3.927588
4488	20.4686
4472	0.160622
4456	-1.842713
4440	-0.992918
4424	-0.246071
4408	0.301623
4392	0.462055
4376	0.658154
4360	0.417232
4344	0.508475
4328	0.113463
4312	0.342583
4296	0.186324
4280	0.018310
4264	0.215363
4248	-0.150775
4232	0.148010
4216	0.312709
4200	0.127673
4184	0.339436
4168	0.193142
4152	0.161576
4136	0.200772
4120	0.050973
4104	-0.205183
4088	0.262975
4072	0.017285
4056	0.000333
4040	0.091576
4024	0.206303
4008	0.071954
3992	0.139617
3976	-0.053930
3960	0.160264
3944	0.051856
3928	0.076222
3912	0.178956
3896	0.086188
3880	0.083017
3864	0.280952
3848	0.051951
3832	0.152373
3816	-0.155544
3800	-0.024414
3784	0.045990
3768	0.190639
3752	-0.020813
3736	0.161719
3720	0.113248
3704	0.068783
3688	0.121784
3672	0.036406
3656	0.053787
3640	0.187182
3624	-0.015902
3608	-0.092101
3592	-0.030541
3576	-0.006794
3560	0.142908
3544	0.041866
3528	0.125503
3512	0.077390
3496	0.163555
3480	0.052428
3464	0.162672
3448	0.092267
3432	0.014686
3416	0.049543
3400	0.107192
3384	0.065183
3368	0.127840
3352	-0.080442
3336	0.135469
3320	0.031852
3304	0.217866
3288	0.062680
3272	0.013971
3256	0.042057
3240	0.073838
3224	0.098681
3208	-0.068354
3192	0.111126
3176	0.047516
3160	0.043225
3144	0.123214
3128	0.095558
3112	-0.002002
3096	0.047683
3080	0.039649
3064	-0.015616
3048	-0.097155
3032	-0.042891
3016	-0.029134
3000	0.086975
2984	-0.057005
2968	0.056076
2952	0.034737
2936	0.012159
2920	0.110888
2904	0.138425
2888	0.044417
2872	-0.005078
2856	0.059676
2840	0.093698
2824	0.192475
2808	0.075745
2792	0.021338
2776	0.022768
2760	0.007987
2744	0.074648
2728	-0.037074
2712	0.023102
2696	0.145936
2680	0.018644
2664	-0.080251
2648	0.111293
2632	0.073146
2616	-0.093531
2600	0.031185
2584	0.031709
2568	0.064849
2552	0.094747
2536	0.009536
2520	-0.054383
2504	-0.008511
2488	0.122737
2472	-0.033450
2456	0.074505
2440	-0.015187
2424	-0.079321
2408	0.051021
2392	-0.089430
2376	0.121688
2360	0.273609
2344	0.231885
2328	0.317096
2312	0.485634
2296	0.821518
2280	0.978040
2264	1.362538
2248	1.978111
2232	2.701926
2216	3.788971
2200	4.869008
2184	6.305432
2168	8.047270
2152	9.814476
2136	11.7041
2120	13.9126
2104	15.926
2088	17.9368
2072	20.1627
2056	21.9368
2040	23.7211
2024	25.2237
2008	26.6852
1992	28.0162
1976	29.1055
1960	30.2678
1944	30.9694
1928	31.7598
1912	32.4516
1896	32.9885
1880	33.385
1864	33.9008
1848	34.2223
1832	34.393
1816	34.7229
1800	35.0468
1784	34.9596
1768	35.2242
1752	35.4359
1736	35.4467
1720	35.207
1704	35.6297
1688	35.6088
1672	35.3936
1656	35.6587
1640	35.7402
1624	35.4703
1608	35.4511
1592	35.7477
1576	35.5099
1560	35.4021
1544	35.5355
1528	35.6281
1512	35.3388
1496	35.2523
1480	35.527
1464	35.2486
1448	35.0565
1432	35.4349
1416	35.3192
1400	35.035
1384	35.062
1368	35.1176
1352	34.8744
1336	34.7714
1320	35.0274
1304	34.8573
1288	34.5416
1272	34.7539
1256	34.7242
1240	34.3661
1224	34.236
1208	34.4862
1192	34.4381
1176	34.138
1160	34.2334
1144	33.9611
1128	33.8948
1112	33.9168
1096	33.7325
1080	33.5026
1064	33.326
1048	33.3683
1032	33.1889
1016	33.0812
1000	33.0091
984	 33.1875
968	 32.7949
952	 32.2892
936	 32.5996
920	 32.3176
904	 32.0414
888	 31.8708
872	 31.8864
856	 31.3115
840	 31.0005
824	 31.1019
808	 30.8083
792	 30.2388
776	 29.9322
760	 30.0353
744	 29.37
728	 29.1071
712	 29.0017
696	 28.7019
680	 28.0408
664	 27.9904
648	 27.9716
632	 26.9028
616	 26.6214
600	 26.1136
584	 26.6547
568	 24.9169
552	 24.8641
536	 25.402
520	 24.1268
504	 24.0871
488	 23.841
472	 23.1529
456	 22.1906
440	 20.7843
424	 20.6325
408	 12.2079
392	 20.1053
376	 13.0159
370	 4.850792