File: Bakgrunnsmateriale/MATLAB/FTIR/ftir_data/LPE453/Mapping_121/LPE453_t64_cm-1.asc
PE IR       SPECTRUM    SPECTRUM    ASCII       PEDS        1.60
  -1
LP6A5B~1.ASC
17/05/16
19:34:31.00
17/05/16
19:34:31.00
tln
$LPE453_t0064$<tbV0>[-7.8,0.0,8.0,0.0,27,1,0]
370
64

2002,4.07
MIRTGS : RIGHTBACK : INTERNAL 2
MIR : ON : INTERNAL 2
OPTKBR

0.200000
8
8.000000
FILLER
RATIO
SPECTRUM
UNLOCKED 256

DOUBLE
64
COMBINED
1
0
0

1.000000
RATIO

1
0
TRUE
51149
0
LEFT NOT FITTED RIGHT NOT FITTED 0
NONE
NONE
15600
12
4.427000
51148
TRUE
1 0 8 72 0 0 0 0

15798

#HDR
-1
-1
#GR
CM-1
%T
2.38419e-05
0.0
5000
-1.000000
4631
8
38.8514
-17.4954
#DATA
5000	0.027656
4984	0.118398
4968	0.354218
4952	0.053691
4936	0.384664
4920	-0.259280
4904	0.214791
4888	0.349426
4872	-0.270891
4856	0.275945
4840	-0.304293
4824	0.105738
4808	-0.044226
4792	-0.214529
4776	-0.144863
4760	0.424742
4744	0.937461
4728	-0.174593
4712	1.182842
4696	1.142644
4680	-0.674319
4664	-0.048542
4648	1.628303
4632	0.064563
4616	0.303888
4600	0.315546
4584	0.239086
4568	0.169587
4552	0.088477
4536	0.640225
4520	-0.403976
4504	-1.723980
4488	1.858711
4472	3.421759
4456	-0.824356
4440	-0.188493
4424	-0.096678
4408	0.327229
4392	0.252699
4376	0.370597
4360	0.577902
4344	0.120735
4328	0.465369
4312	0.449419
4296	-0.126910
4280	-0.063705
4264	0.344538
4248	0.124669
4232	0.167441
4216	0.141096
4200	-0.009965
4184	0.287365
4168	0.799536
4152	0.078749
4136	0.148868
4120	0.163316
4104	0.042200
4088	0.221586
4072	0.056886
4056	-0.051593
4040	0.091338
4024	-0.005793
4008	-0.051951
3992	0.049948
3976	0.123858
3960	0.077939
3944	0.131821
3928	0.094103
3912	0.253510
3896	-0.008416
3880	0.107026
3864	0.243616
3848	0.344467
3832	0.106644
3816	0.130200
3800	0.080323
3784	0.257396
3768	0.112414
3752	0.076723
3736	-0.112128
3720	-0.019812
3704	0.096487
3688	-0.100493
3672	0.094366
3656	0.125384
3640	0.176930
3624	0.078392
3608	0.019454
3592	0.139999
3576	0.110936
3560	0.138378
3544	-0.146508
3528	0.169324
3512	0.129914
3496	0.086236
3480	-0.018763
3464	-0.089812
3448	-0.020670
3432	-0.057530
3416	-0.030899
3400	0.053858
3384	-0.014996
3368	0.051307
3352	-0.120830
3336	0.074791
3320	0.078177
3304	0.028729
3288	0.033092
3272	0.024986
3256	0.122380
3240	-0.083208
3224	0.067043
3208	-0.012946
3192	0.007653
3176	0.069713
3160	0.030565
3144	0.004982
3128	0.254607
3112	0.113558
3096	0.042009
3080	0.141143
3064	-0.049972
3048	0.151371
3032	-0.014162
3016	-0.085735
3000	0.038266
2984	0.069999
2968	0.121831
2952	0.090765
2936	0.081181
2920	0.017571
2904	0.262165
2888	0.150895
2872	0.029182
2856	0.002050
2840	0.100874
2824	0.100636
2808	0.124096
2792	0.015544
2776	0.019502
2760	-0.026845
2744	0.009822
2728	-0.030493
2712	0.017738
2696	0.089359
2680	0.043869
2664	0.000047
2648	-0.033617
2632	-0.035214
2616	-0.064182
2600	0.057148
2584	0.107169
2568	0.055909
2552	0.030612
2536	0.004863
2520	0.073122
2504	0.035023
2488	-0.064945
2472	0.073862
2456	0.031542
2440	-0.061225
2424	-0.004529
2408	0.018334
2392	0.045418
2376	-0.032806
2360	-0.027728
2344	-0.025582
2328	0.066590
2312	0.226140
2296	0.266647
2280	0.466418
2264	0.721383
2248	1.136302
2232	1.776003
2216	2.294039
2200	3.286981
2184	4.416108
2168	5.661821
2152	7.184505
2136	8.958482
2120	10.764
2104	12.7577
2088	14.7535
2072	16.5937
2056	18.4741
2040	20.2342
2024	21.8197
2008	23.3995
1992	24.6833
1976	25.9352
1960	26.9893
1944	27.96
1928	28.7333
1912	29.4204
1896	29.9856
1880	30.4451
1864	30.9942
1848	31.4147
1832	31.6853
1816	31.9194
1800	32.1717
1784	32.2969
1768	32.5485
1752	32.7044
1736	32.716
1720	32.7798
1704	32.8307
1688	32.9664
1672	32.862
1656	32.9827
1640	33.0774
1624	32.9983
1608	33.0963
1592	33.1012
1576	33.0175
1560	32.9092
1544	33.0461
1528	32.9506
1512	32.8887
1496	32.6175
1480	32.8835
1464	32.708
1448	32.8227
1432	32.8316
1416	32.7234
1400	32.5188
1384	32.6988
1368	32.5849
1352	32.3367
1336	32.5005
1320	32.4126
1304	32.1254
1288	32.2594
1272	32.2545
1256	32.1019
1240	32.0324
1224	32.1729
1208	31.8551
1192	31.7877
1176	31.9383
1160	31.7194
1144	31.5933
1128	31.6889
1112	31.7217
1096	31.0369
1080	31.5339
1064	31.3831
1048	30.9851
1032	30.8527
1016	31.0427
1000	30.4563
984	 30.2852
968	 30.5955
952	 30.4541
936	 29.8679
920	 29.9662
904	 29.6149
888	 29.0193
872	 29.2921
856	 29.2002
840	 28.7056
824	 28.0736
808	 28.3398
792	 27.8018
776	 27.5988
760	 28.1071
744	 27.4361
728	 26.5731
712	 26.9167
696	 26.7813
680	 25.7203
664	 25.8947
648	 25.9951
632	 24.6311
616	 24.6414
600	 24.3084
584	 24.2139
568	 23.2821
552	 22.8946
536	 22.7054
520	 21.7686
504	 21.2325
488	 22.3526
472	 20.5346
456	 20.6136
440	 19.5704
424	 16.5946
408	 16.632
392	 29.7146
376	 11.7848
370	 -17.4954