File: Bakgrunnsmateriale/MATLAB/FTIR/ftir_data/LPE453/Mapping_121/LPE453_t86.asc
PE IR       SPECTRUM    SPECTRUM    ASCII       PEDS        1.60
  -1
LPD3B1~1.ASC
17/05/16
21:23:18.00
17/05/16
21:23:44.00
tln
$LPE453_t0086$<tbV0>[-7.8,5.2,8.0,0.0,27,1,0]
27.028
64

2002,4.07
MIRTGS : RIGHTBACK : INTERNAL 2
MIR : ON : INTERNAL 2
OPTKBR

0.200000
8
8.000000
FILLER
RATIO
SPECTRUM
UNLOCKED 256

DOUBLE
64
COMBINED
1
0
0

0.002000
RATIO

1
0
TRUE
51149
0
LEFT NOT FITTED RIGHT NOT FITTED 0
NONE
NONE
15600
12
4.427000
51148
TRUE
1 0 8 72 0 0 0 0

15798

#HDR
-1
-1
#GR
µM
%T
2.38419e-05
0.0
2.000000
0.002000
12515
8
37.0353
-1.753078
#DATA
2.000000	 0.585174
2.084000	 0.219110
2.168000	 -0.305844
2.252000	 0.093432
2.336000	 -0.081810
2.420000	 -0.069442
2.504000	 -0.146477
2.588000	 -0.113796
2.672000	 0.058498
2.756000	 0.035026
2.840000	 -0.110031
2.924000	 0.044027
3.008000	 0.045799
3.092000	 -0.009838
3.176000	 -0.001037
3.260000	 -0.028095
3.344000	 0.069590
3.428000	 0.004239
3.512000	 0.033180
3.596000	 -0.007816
3.680000	 -0.199050
3.764000	 0.025611
3.848000	 0.063374
3.932000	 0.064612
4.016000	 0.124582
4.100000	 0.013511
4.184000	 0.136290
4.268000	 0.208510
4.352000	 0.811367
4.436000	 1.995866
4.520000	 4.142383
4.604000	 8.011798
4.688000	 12.7044
4.772000	 17.6865
4.856000	 22.3322
4.940000	 26.1309
5.024000	 29.1694
5.108000	 31.2166
5.192000	 32.9467
5.276000	 34.0535
5.359999	 34.9942
5.444000	 35.4564
5.528000	 35.9229
5.612000	 36.2356
5.696000	 36.5882
5.780000	 36.4793
5.864000	 36.7765
5.948000	 36.7323
6.032000	 36.7697
6.116000	 36.9474
6.200000	 36.6473
6.284000	 36.8652
6.368000	 36.7406
6.452000	 36.5307
6.536000	 36.7462
6.620000	 36.854
6.704000	 36.5003
6.788000	 36.6614
6.872000	 36.682
6.956000	 36.4516
7.040000	 36.3661
7.124000	 36.6606
7.208000	 36.3811
7.292000	 36.0227
7.376000	 36.3248
7.460000	 36.3023
7.544000	 36.1169
7.628000	 36.0652
7.712000	 36.2823
7.796000	 36.3348
7.880000	 36.0701
7.964000	 35.7585
8.048000	 35.9131
8.132000	 36.1014
8.216000	 36.154
8.300000	 35.7701
8.384000	 35.5068
8.468000	 35.656
8.552000	 36.0528
8.635999	 35.892
8.719999	 35.4922
8.804000	 35.1601
8.888000	 35.4138
8.972000	 35.6635
9.056000	 35.6792
9.140000	 35.4881
9.224000	 35.2178
9.308000	 35.0498
9.391999	 34.9661
9.475999	 35.3777
9.560000	 35.6384
9.644000	 35.3214
9.728000	 34.855
9.812000	 34.7806
9.896000	 34.6271
9.980000	 34.571
10.064	34.8351
10.148	35.1992
10.232	35.1493
10.316	34.6438
10.4	34.346
10.484	34.0781
10.568	34.1793
10.652	34.3076
10.736	34.485
10.82	34.4842
10.904	34.568
10.988	34.3006
11.072	33.8167
11.156	33.5471
11.24	33.388
11.324	33.5075
11.408	33.6549
11.492	33.9474
11.576	34.3147
11.66	34.085
11.744	33.6488
11.828	33.2168
11.912	33.0895
11.996	32.8846
12.08	32.7843
12.164	33.1169
12.248	33.3603
12.332	33.2763
12.416	33.2648
12.5	33.1584
12.584	32.9112
12.668	32.6126
12.752	32.2689
12.836	32.109
12.92	32.0647
13.004	31.9905
13.088	32.0566
13.172	32.1656
13.256	32.3052
13.34	32.3746
13.424	32.3422
13.508	32.1912
13.592	31.9914
13.676	31.8768
13.76	31.6385
13.844	31.3171
13.928	31.1284
14.012	30.9712
14.096	30.9016
14.18	31.0468
14.264	31.2466
14.348	31.4376
14.432	31.5852
14.516	31.5627
14.6	31.4305
14.684	31.3132
14.768	31.2252
14.852	30.9886
14.936	30.631
15.02	30.4228
15.104	30.2528
15.188	29.9544
15.272	29.7429
15.356	29.727
15.44	29.7472
15.524	29.7721
15.608	29.9249
15.692	30.1446
15.776	30.2318
15.86	30.1792
15.944	30.1089
16.028	30.0525
16.112	29.9388
16.196	29.7208
16.28	29.4482
16.364	29.1906
16.448	29.0111
16.532	28.9923
16.616	29.0202
16.7	28.8426
16.784	28.4952
16.868	28.2296
16.952	28.1761
17.036	28.3549
17.12	28.7033
17.204	28.9771
17.288	28.9742
17.372	28.7774
17.456	28.5661
17.54	28.3851
17.624	28.212
17.708	28.0789
17.792	28.0259
17.876	28.0325
17.96	28.0446
18.044	28.0272
18.128	27.966
18.212	27.8167
18.296	27.516
18.38	27.0974
18.464	26.7251
18.548	26.5482
18.632	26.5529
18.716	26.6131
18.8	26.6571
18.884	26.7078
18.968	26.7731
19.052	26.786
19.136	26.7086
19.22	26.6219
19.304	26.6491
19.388	26.8006
19.472	26.9608
19.556	27.0236
19.64	27.0129
19.724	27.0442
19.808	27.1864
19.892	27.3896
19.976	27.5194
20.06	27.4611
20.144	27.1971
20.228	26.8092
20.312	26.4155
20.396	26.1069
20.48	25.9283
20.564	25.887
20.648	25.9588
20.732	26.0655
20.816	26.0775
20.9	25.8832
20.984	25.4953
21.068	25.0681
21.152	24.7994
21.236	24.7857
21.32	24.9703
21.404	25.2118
21.488	25.3944
21.572	25.4787
21.656	25.4638
21.74	25.3451
21.824	25.1267
21.908	24.8608
21.992	24.6381
22.076	24.525
22.16	24.5003
22.244	24.4539
22.328	24.2718
22.412	23.9284
22.496	23.5221
22.58	23.2121
22.664	23.1256
22.748	23.2876
22.832	23.6221
22.916	23.9874
23	24.2375
23.084	24.2702
23.168	24.0469
23.252	23.6115
23.336	23.0814
23.42	22.5823
23.504	22.2155
23.588	21.9951
23.672	21.8459
23.756	21.6497
23.84	21.3317
23.924	20.8791
24.008	20.3405
24.092	19.7872
24.176	19.2384
24.26	18.6757
24.344	18.06
24.428	17.3842
24.512	16.7357
24.596	16.2942
24.68	16.2589
24.764	16.7433
24.848	17.7534
24.932	19.2166
25.016	20.9955
25.1	22.9107
25.184	24.6996
25.268	26.0301
25.352	26.5327
25.436	25.968
25.52	24.3096
25.604	21.6976
25.688	18.4319
25.772	14.8823
25.856	11.374
25.94	8.041557
26.024	4.902986
26.108	2.005415
26.192	-0.343952
26.276	-1.554681
26.36	-0.799322
26.444	2.287745
26.528	7.335010
26.612	13.2331
26.696	18.6512
26.78	22.5643
26.864	24.5787
26.948	24.7368
27.028	23.175