File: Bakgrunnsmateriale/MATLAB/FTIR/ftir_data/LPE453/Mapping_121/LPE453_t85.asc
PE IR       SPECTRUM    SPECTRUM    ASCII       PEDS        1.60
  -1
LPD3BD~1.ASC
17/05/16
21:18:41.00
17/05/16
21:19:07.00
tln
$LPE453_t0085$<tbV0>[-5.2,5.2,8.0,0.0,27,1,0]
27.028
64

2002,4.07
MIRTGS : RIGHTBACK : INTERNAL 2
MIR : ON : INTERNAL 2
OPTKBR

0.200000
8
8.000000
FILLER
RATIO
SPECTRUM
UNLOCKED 256

DOUBLE
64
COMBINED
1
0
0

0.002000
RATIO

1
0
TRUE
51149
0
LEFT NOT FITTED RIGHT NOT FITTED 0
NONE
NONE
15600
12
4.427000
51148
TRUE
1 0 8 72 0 0 0 0

15798

#HDR
-1
-1
#GR
µM
%T
2.38419e-05
0.0
2.000000
0.002000
12515
8
36.8863
-9.361505
#DATA
2.000000	 0.027561
2.084000	 0.190575
2.168000	 0.099261
2.252000	 -0.021990
2.336000	 0.130992
2.420000	 0.024960
2.504000	 -0.070589
2.588000	 0.008017
2.672000	 0.036938
2.756000	 -0.016149
2.840000	 0.063204
2.924000	 0.163668
3.008000	 -0.030709
3.092000	 0.010207
3.176000	 0.158359
3.260000	 -0.015929
3.344000	 0.058369
3.428000	 0.100127
3.512000	 0.055421
3.596000	 0.027719
3.680000	 0.028091
3.764000	 0.090728
3.848000	 0.006250
3.932000	 -0.003578
4.016000	 -0.051985
4.100000	 0.101781
4.184000	 -0.000693
4.268000	 0.357655
4.352000	 0.604651
4.436000	 1.828233
4.520000	 4.126496
4.604000	 7.832136
4.688000	 12.685
4.772000	 17.6195
4.856000	 22.14
4.940000	 26.0546
5.024000	 28.9554
5.108000	 31.1395
5.192000	 32.8833
5.276000	 33.9265
5.359999	 34.8993
5.444000	 35.2982
5.528000	 35.8955
5.612000	 35.9716
5.696000	 36.3794
5.780000	 36.1681
5.864000	 36.7036
5.948000	 36.388
6.032000	 36.5657
6.116000	 36.7768
6.200000	 36.4762
6.284000	 36.8352
6.368000	 36.4919
6.452000	 36.468
6.536000	 36.7347
6.620000	 36.3131
6.704000	 36.4153
6.788000	 36.4983
6.872000	 36.1052
6.956000	 36.2012
7.040000	 36.5392
7.124000	 36.1106
7.208000	 36.0156
7.292000	 36.2498
7.376000	 36.3104
7.460000	 35.6569
7.544000	 35.9178
7.628000	 36.1941
7.712000	 36.2191
7.796000	 35.5892
7.880000	 35.6909
7.964000	 35.9797
8.048000	 35.9409
8.132000	 35.5389
8.216000	 35.2008
8.300000	 35.4492
8.384000	 35.8129
8.468000	 35.5831
8.552000	 35.0817
8.635999	 35.0811
8.719999	 35.1742
8.804000	 35.5579
8.888000	 35.442
8.972000	 35.0085
9.056000	 34.5984
9.140000	 34.799
9.224000	 35.1192
9.308000	 35.2497
9.391999	 35.056
9.475999	 34.4957
9.560000	 34.2278
9.644000	 34.3383
9.728000	 34.5397
9.812000	 34.8673
9.896000	 34.6687
9.980000	 34.1999
10.064	33.9742
10.148	33.9096
10.232	33.9946
10.316	34.1314
10.4	34.3676
10.484	34.2809
10.568	33.9945
10.652	33.5664
10.736	33.2468
10.82	33.2368
10.904	33.328
10.988	33.5577
11.072	33.7579
11.156	33.5549
11.24	33.2135
11.324	32.8308
11.408	32.4571
11.492	32.3455
11.576	32.3603
11.66	32.6269
11.744	33.0198
11.828	33.2094
11.912	33.1227
11.996	32.782
12.08	32.3483
12.164	31.9529
12.248	31.7441
12.332	31.3981
12.416	31.6155
12.5	31.9418
12.584	32.2821
12.668	32.335
12.752	32.2225
12.836	32.0657
12.92	31.838
13.004	31.5527
13.088	31.2076
13.172	30.979
13.256	30.8777
13.34	30.8396
13.424	30.7271
13.508	30.947
13.592	31.2877
13.676	31.3946
13.76	31.3526
13.844	31.2157
13.928	31.0448
14.012	30.7603
14.096	30.4375
14.18	29.9961
14.264	29.5062
14.348	29.3904
14.432	29.5267
14.516	29.7057
14.6	29.8815
14.684	29.9494
14.768	30.0997
14.852	30.3958
14.936	30.5748
15.02	30.5511
15.104	30.3805
15.188	30.0502
15.272	29.6371
15.356	29.3
15.44	29.0614
15.524	28.8389
15.608	28.686
15.692	28.6679
15.776	28.6212
15.86	28.4907
15.944	28.4172
16.028	28.4073
16.112	28.4094
16.196	28.4502
16.28	28.5114
16.364	28.5823
16.448	28.6883
16.532	28.7224
16.616	28.5671
16.7	28.3158
16.784	28.0967
16.868	27.8771
16.952	27.6021
17.036	27.3128
17.12	27.082
17.204	26.965
17.288	26.9598
17.372	26.9825
17.456	26.9693
17.54	26.9744
17.624	27.0766
17.708	27.2415
17.792	27.3704
17.876	27.4293
17.96	27.468
18.044	27.5323
18.128	27.6074
18.212	27.6484
18.296	27.6357
18.38	27.5855
18.464	27.512
18.548	27.3868
18.632	27.1483
18.716	26.7752
18.8	26.3353
18.884	25.9365
18.968	25.6394
19.052	25.4332
19.136	25.2925
19.22	25.2079
19.304	25.1723
19.388	25.1698
19.472	25.2046
19.556	25.3038
19.64	25.4694
19.724	25.6441
19.808	25.7602
19.892	25.8119
19.976	25.8463
20.06	25.8748
20.144	25.8382
20.228	25.6777
20.312	25.4305
20.396	25.2139
20.48	25.1199
20.564	25.1333
20.648	25.1628
20.732	25.1344
20.816	25.0479
20.9	24.9443
20.984	24.857
21.068	24.7931
21.152	24.7542
21.236	24.7466
21.32	24.7503
21.404	24.6942
21.488	24.4942
21.572	24.1269
21.656	23.6664
21.74	23.2523
21.824	23.003
21.908	22.9358
21.992	22.9551
22.076	22.9173
22.16	22.7335
22.244	22.4469
22.328	22.2021
22.412	22.1353
22.496	22.2635
22.58	22.476
22.664	22.6109
22.748	22.5473
22.832	22.2775
22.916	21.903
23	21.5674
23.084	21.392
23.168	21.4248
23.252	21.6257
23.336	21.9164
23.42	22.2439
23.504	22.5966
23.588	23.0089
23.672	23.506
23.756	24.025
23.84	24.4165
23.924	24.4975
24.008	24.1482
24.092	23.3981
24.176	22.4636
24.26	21.689
24.344	21.4511
24.428	21.9698
24.512	23.2325
24.596	24.9819
24.68	26.8305
24.764	28.4105
24.848	29.4502
24.932	29.7486
25.016	29.1946
25.1	27.7372
25.184	25.4573
25.268	22.6486
25.352	19.8258
25.436	17.5645
25.52	16.3316
25.604	16.3742
25.688	17.6296
25.772	19.6475
25.856	21.7428
25.94	23.4212
26.024	24.5408
26.108	25.2972
26.192	25.8375
26.276	26.0048
26.36	25.0922
26.444	22.6281
26.528	18.6439
26.612	13.8589
26.696	8.997865
26.78	4.311720
26.864	-0.444219
26.948	-5.378791
27.028	-9.361505