File: Bakgrunnsmateriale/MATLAB/FTIR/ftir_data/LPE453/Mapping_121/LPE453_t112_cm-1.asc
PE IR       SPECTRUM    SPECTRUM    ASCII       PEDS        1.60
  -1
LP05FC~1.ASC
17/05/16
23:36:28.00
17/05/16
23:36:28.00
tln
$LPE453_t0112$<tbV0>[10.4,13.0,8.0,0.0,27,1,0]
370
64

2002,4.07
MIRTGS : RIGHTBACK : INTERNAL 2
MIR : ON : INTERNAL 2
OPTKBR

0.200000
8
8.000000
FILLER
RATIO
SPECTRUM
UNLOCKED 256

DOUBLE
64
COMBINED
1
0
0

1.000000
RATIO

1
0
TRUE
51149
0
LEFT NOT FITTED RIGHT NOT FITTED 0
NONE
NONE
15600
12
4.427000
51148
TRUE
1 0 8 72 0 0 0 0

15798

#HDR
-1
-1
#GR
CM-1
%T
2.38419e-05
0.0
5000
-1.000000
4631
8
29.7599
-2.421617
#DATA
5000	0.212597
4984	0.463843
4968	-0.160312
4952	0.470256
4936	0.224900
4920	0.078511
4904	0.049614
4888	0.186562
4872	-0.193738
4856	0.281214
4840	0.352549
4824	0.039458
4808	0.297832
4792	0.417184
4776	0.347852
4760	0.672578
4744	0.242328
4728	0.222420
4712	-0.272417
4696	0.259041
4680	-0.741124
4664	2.179598
4648	0.096392
4632	-0.332331
4616	0.431895
4600	0.860309
4584	0.823259
4568	-1.038479
4552	-0.303816
4536	-0.807356
4520	-2.222776
4504	-0.018358
4488	24.3237
4472	2.027320
4456	-2.046513
4440	-0.669932
4424	-0.293588
4408	0.553822
4392	0.769352
4376	0.906109
4360	0.815367
4344	-0.017189
4328	0.456261
4312	0.281429
4296	0.336480
4280	-0.140213
4264	-0.012278
4248	-0.088763
4232	-0.085425
4216	0.054192
4200	-0.103306
4184	0.179147
4168	0.188159
4152	0.186681
4136	0.327801
4120	0.104284
4104	0.185799
4088	-0.095272
4072	0.113201
4056	-0.036716
4040	0.251007
4024	-0.024533
4008	0.153398
3992	0.092768
3976	-0.051164
3960	-0.096559
3944	0.073766
3928	-0.041604
3912	-0.059223
3896	0.030064
3880	0.095534
3864	0.196290
3848	0.110769
3832	0.052285
3816	-0.008416
3800	0.124788
3784	-0.057220
3768	0.028991
3752	0.136852
3736	0.014066
3720	0.070691
3704	0.041103
3688	0.032138
3672	0.089097
3656	0.136423
3640	0.013732
3624	0.127720
3608	0.119781
3592	0.128483
3576	-0.008940
3560	0.202775
3544	-0.042891
3528	0.082087
3512	0.054407
3496	0.021743
3480	0.065398
3464	-0.058746
3448	-0.076770
3432	0.025367
3416	-0.004959
3400	-0.041699
3384	-0.019550
3368	-0.011372
3352	0.251865
3336	0.008678
3320	0.236725
3304	0.070786
3288	0.098347
3272	0.000596
3256	0.180816
3240	0.091695
3224	0.041484
3208	0.042486
3192	0.059103
3176	0.092864
3160	0.049996
3144	-0.023269
3128	-0.074315
3112	0.013637
3096	0.151872
3080	0.000190
3064	0.101041
3048	-0.012135
3032	0.007629
3016	0.005841
3000	0.021076
2984	-0.114083
2968	-0.097513
2952	-0.002312
2936	-0.038576
2920	0.141549
2904	-0.000548
2888	0.055432
2872	0.090575
2856	-0.010585
2840	0.044775
2824	0.036907
2808	0.145292
2792	0.061178
2776	-0.012421
2760	-0.000381
2744	0.081896
2728	-0.002002
2712	-0.080633
2696	0.120639
2680	0.033283
2664	0.133943
2648	0.056481
2632	0.056838
2616	0.015211
2600	0.008034
2584	-0.011491
2568	0.047492
2552	0.074291
2536	-0.001978
2520	0.000619
2504	0.095224
2488	-0.045084
2472	-0.023603
2456	0.041389
2440	0.006008
2424	-0.139188
2408	0.051069
2392	-0.033783
2376	-0.007319
2360	0.098705
2344	0.173854
2328	-0.000524
2312	0.208234
2296	0.259089
2280	0.430679
2264	0.559759
2248	0.907540
2232	1.302289
2216	1.906871
2200	2.598166
2184	3.479933
2168	4.580879
2152	5.763268
2136	7.160258
2120	8.705377
2104	10.1681
2088	11.7205
2072	13.1512
2056	14.7309
2040	16.1903
2024	17.5595
2008	18.783
1992	19.9177
1976	21.0094
1960	21.849
1944	22.839
1928	23.641
1912	24.2332
1896	24.7535
1880	25.3371
1864	25.8173
1848	26.2358
1832	26.5871
1816	26.9139
1800	27.1697
1784	27.4336
1768	27.5585
1752	27.6631
1736	27.9446
1720	28.1087
1704	28.2954
1688	28.3284
1672	28.4843
1656	28.577
1640	28.8281
1624	28.8503
1608	28.9475
1592	29.0893
1576	29.0775
1560	29.0624
1544	28.9395
1528	29.1082
1512	29.0742
1496	29.0079
1480	29.0162
1464	29.1904
1448	28.9596
1432	29.1944
1416	29.1829
1400	29.1185
1384	29.0784
1368	29.2085
1352	29.1467
1336	28.8462
1320	29.0328
1304	28.8922
1288	28.7719
1272	28.8005
1256	28.7692
1240	28.5817
1224	28.5991
1208	28.6459
1192	28.4513
1176	28.6161
1160	28.4592
1144	28.3579
1128	28.2133
1112	28.1219
1096	28.1246
1080	27.9934
1064	27.8468
1048	27.9247
1032	27.6315
1016	27.5487
1000	27.351
984	 27.4716
968	 27.1747
952	 27.2463
936	 26.8505
920	 26.9432
904	 26.6598
888	 26.5939
872	 26.2647
856	 26.0659
840	 25.8789
824	 25.7648
808	 25.4122
792	 25.4897
776	 25.2724
760	 24.6051
744	 24.6238
728	 24.5779
712	 23.8948
696	 23.7313
680	 23.5907
664	 23.3758
648	 22.9218
632	 22.6103
616	 22.3743
600	 21.6624
584	 21.7054
568	 21.6464
552	 20.6215
536	 20.6143
520	 20.406
504	 20.5259
488	 19.5567
472	 19.2206
456	 17.4439
440	 18.1516
424	 15.3169
408	 12.2414
392	 2.439022
376	 29.471
370	 -0.635361