File: Bakgrunnsmateriale/MATLAB/FTIR/ftir_data/LPE453/Mapping_121/LPE453_t37_cm-1.asc
PE IR       SPECTRUM    SPECTRUM    ASCII       PEDS        1.60
  -1
LPE8DA~1.ASC
17/05/16
17:22:26.00
17/05/16
17:22:26.00
tln
$LPE453_t0037$<tbV0>[5.2,-5.2,8.0,0.0,27,1,0]
370
64

2002,4.07
MIRTGS : RIGHTBACK : INTERNAL 2
MIR : ON : INTERNAL 2
OPTKBR

0.200000
8
8.000000
FILLER
RATIO
SPECTRUM
UNLOCKED 256

DOUBLE
64
COMBINED
1
0
0

1.000000
RATIO

1
0
TRUE
51149
0
LEFT NOT FITTED RIGHT NOT FITTED 0
NONE
NONE
15600
12
4.427000
51148
TRUE
1 0 8 72 0 0 0 0

15798

#HDR
-1
-1
#GR
CM-1
%T
2.38419e-05
0.0
5000
-1.000000
4631
8
27.3683
-45.4029
#DATA
5000	-0.066399
4984	0.164222
4968	0.351762
4952	0.401544
4936	0.163292
4920	0.206637
4904	-0.140023
4888	0.594067
4872	0.578880
4856	0.387644
4840	0.330638
4824	0.440835
4808	0.218009
4792	0.496268
4776	0.434875
4760	0.003480
4744	0.055384
4728	0.103640
4712	0.503063
4696	0.447773
4680	0.503182
4664	0.550031
4648	0.818443
4632	0.693368
4616	0.528597
4600	0.303125
4584	-0.136232
4568	-0.654363
4552	-0.610828
4536	-0.970196
4520	12.3224
4504	-1.785492
4488	-2.019834
4472	-0.506448
4456	-0.875210
4440	-0.469470
4424	0.128602
4408	0.276207
4392	0.502586
4376	0.398349
4360	0.499176
4344	0.433230
4328	0.442051
4312	-0.055408
4296	-0.260686
4280	0.040698
4264	0.389289
4248	0.204896
4232	0.313544
4216	0.275611
4200	0.069665
4184	0.572681
4168	0.100803
4152	0.207924
4136	-0.071549
4120	0.132298
4104	-0.075984
4088	0.053334
4072	0.180816
4056	0.057291
4040	0.369572
4024	0.070667
4008	0.193929
3992	0.175023
3976	-0.080275
3960	0.203657
3944	0.007867
3928	0.093626
3912	-0.035357
3896	-0.008940
3880	0.169801
3864	0.098705
3848	0.070261
3832	0.168657
3816	-0.105857
3800	0.104475
3784	0.239682
3768	0.121355
3752	-0.103878
3736	0.010800
3720	0.225448
3704	0.007033
3688	0.091600
3672	0.288486
3656	0.149559
3640	-0.158095
3624	0.218915
3608	-0.033521
3592	0.027418
3576	0.021719
3560	-0.107550
3544	0.085425
3528	0.125265
3512	0.028133
3496	-0.088548
3480	0.019097
3464	0.332999
3448	-0.085616
3432	-0.016713
3416	0.046539
3400	0.156140
3384	0.015115
3368	0.098586
3352	0.010061
3336	0.007438
3320	0.162982
3304	0.043892
3288	-0.062274
3272	0.149989
3256	-0.074863
3240	0.030231
3224	0.030589
3208	0.123381
3192	0.098013
3176	-0.015974
3160	-0.136923
3144	0.198483
3128	0.215744
3112	-0.068354
3096	-0.052928
3080	0.084471
3064	0.121212
3048	0.060272
3032	-0.018000
3016	0.013542
3000	0.042581
2984	0.067830
2968	-0.059390
2952	0.030326
2936	0.087118
2920	0.046038
2904	-0.029158
2888	0.028157
2872	0.050592
2856	-0.034761
2840	0.017642
2824	0.085377
2808	-0.046682
2792	0.151562
2776	-0.029516
2760	0.059127
2744	-0.023674
2728	0.034213
2712	-0.039649
2696	-0.051307
2680	-0.005340
2664	0.072026
2648	-0.010871
2632	-0.020051
2616	0.113344
2600	0.089526
2584	-0.046157
2568	0.040626
2552	0.014305
2536	0.072479
2520	-0.023770
2504	0.056576
2488	0.064301
2472	0.082039
2456	0.226807
2440	0.080132
2424	0.069427
2408	-0.096940
2392	-0.062394
2376	-0.100755
2360	0.035595
2344	-0.077438
2328	-0.005960
2312	0.006055
2296	-0.089597
2280	-0.025343
2264	-0.061154
2248	0.134468
2232	0.213599
2216	0.393438
2200	0.813317
2184	1.124048
2168	1.732921
2152	2.569866
2136	3.551268
2120	4.506731
2104	5.682873
2088	6.890702
2072	8.437323
2056	9.699320
2040	11.2882
2024	12.7207
2008	14.0537
1992	15.203
1976	16.3111
1960	17.403
1944	18.2842
1928	19.0536
1912	19.8575
1896	20.5151
1880	21.1431
1864	21.538
1848	21.9861
1832	22.2997
1816	22.8089
1800	22.8981
1784	23.19
1768	23.2747
1752	23.3329
1736	23.6921
1720	23.5666
1704	23.8343
1688	23.7883
1672	23.8594
1656	23.8475
1640	23.9606
1624	23.9918
1608	23.8789
1592	23.9744
1576	23.7363
1560	23.9931
1544	23.8465
1528	23.8477
1512	24.024
1496	23.5817
1480	23.7584
1464	23.4988
1448	23.4133
1432	23.1786
1416	23.3753
1400	23.3975
1384	23.1272
1368	23.3526
1352	23.0102
1336	23.1636
1320	23.0518
1304	23.0116
1288	22.9269
1272	22.7233
1256	22.7618
1240	22.5977
1224	22.4683
1208	22.3996
1192	22.3416
1176	22.4152
1160	21.9872
1144	22.1488
1128	21.876
1112	21.7746
1096	21.6109
1080	21.5676
1064	21.641
1048	21.4086
1032	21.0075
1016	20.751
1000	20.5351
984	 20.7126
968	 20.044
952	 20.1391
936	 19.7722
920	 19.6044
904	 19.5833
888	 19.1417
872	 19.3227
856	 18.7157
840	 18.3568
824	 18.2578
808	 17.81
792	 17.6532
776	 17.3602
760	 17.4176
744	 17.0141
728	 16.4089
712	 16.0037
696	 15.9395
680	 15.7503
664	 15.2336
648	 14.8854
632	 14.5888
616	 13.9572
600	 13.6065
584	 13.261
568	 12.9007
552	 12.1394
536	 12.0322
520	 12.0891
504	 10.9738
488	 9.984827
472	 10.5332
456	 9.048962
440	 8.195710
424	 9.953141
408	 5.936622
392	 -1.334357
376	 -9.764528
370	 -45.4029