File: Bakgrunnsmateriale/MATLAB/FTIR/ftir_data/LPE453/Mapping_121/LPE453_t114.asc
PE IR       SPECTRUM    SPECTRUM    ASCII       PEDS        1.60
  -1
LP9388~1.ASC
17/05/16
23:45:42.00
17/05/16
23:46:08.00
tln
$LPE453_t0114$<tbV0>[5.2,13.0,8.0,0.0,27,1,0]
27.028
64

2002,4.07
MIRTGS : RIGHTBACK : INTERNAL 2
MIR : ON : INTERNAL 2
OPTKBR

0.200000
8
8.000000
FILLER
RATIO
SPECTRUM
UNLOCKED 256

DOUBLE
64
COMBINED
1
0
0

0.002000
RATIO

1
0
TRUE
51149
0
LEFT NOT FITTED RIGHT NOT FITTED 0
NONE
NONE
15600
12
4.427000
51148
TRUE
1 0 8 72 0 0 0 0

15798

#HDR
-1
-1
#GR
µM
%T
2.38419e-05
0.0
2.000000
0.002000
12515
8
37.9437
-5.452534
#DATA
2.000000	 -0.050139
2.084000	 -0.291229
2.168000	 0.037248
2.252000	 -0.349794
2.336000	 0.135780
2.420000	 0.105972
2.504000	 -0.006283
2.588000	 0.067088
2.672000	 0.068331
2.756000	 0.154861
2.840000	 -0.058721
2.924000	 0.014383
3.008000	 0.099505
3.092000	 0.099993
3.176000	 0.003087
3.260000	 0.087036
3.344000	 0.040151
3.428000	 0.010856
3.512000	 0.057413
3.596000	 0.121613
3.680000	 0.034745
3.764000	 0.090541
3.848000	 -0.004679
3.932000	 0.049773
4.016000	 0.213137
4.100000	 0.203997
4.184000	 0.532435
4.268000	 0.714423
4.352000	 1.820653
4.436000	 3.514336
4.520000	 6.588278
4.604000	 10.62
4.688000	 15.3784
4.772000	 19.7469
4.856000	 23.6493
4.940000	 26.7506
5.024000	 28.9047
5.108000	 30.9314
5.192000	 32.0137
5.276000	 33.3001
5.359999	 33.8852
5.444000	 34.4493
5.528000	 35.159
5.612000	 35.073
5.696000	 35.6316
5.780000	 35.8519
5.864000	 35.6944
5.948000	 36.3085
6.032000	 36.525
6.116000	 36.239
6.200000	 36.657
6.284000	 37.0927
6.368000	 36.767
6.452000	 36.6247
6.536000	 37.175
6.620000	 37.2087
6.704000	 36.634
6.788000	 36.9705
6.872000	 37.3718
6.956000	 37.2824
7.040000	 36.95
7.124000	 37.0261
7.208000	 37.4365
7.292000	 37.5369
7.376000	 37.2523
7.460000	 36.8342
7.544000	 37.1381
7.628000	 37.5047
7.712000	 37.7713
7.796000	 37.2737
7.880000	 36.9863
7.964000	 37.0214
8.048000	 37.4161
8.132000	 37.8948
8.216000	 37.7805
8.300000	 37.3237
8.384000	 36.9418
8.468000	 37.039
8.552000	 37.4227
8.635999	 37.6366
8.719999	 37.7998
8.804000	 37.5097
8.888000	 37.0698
8.972000	 36.851
9.056000	 36.8694
9.140000	 37.333
9.224000	 37.6238
9.308000	 37.6138
9.391999	 37.2331
9.475999	 37.0294
9.560000	 36.7461
9.644000	 36.7456
9.728000	 36.6961
9.812000	 37.0039
9.896000	 37.4269
9.980000	 37.4901
10.064	37.2343
10.148	36.9738
10.232	36.773
10.316	36.5123
10.4	36.2713
10.484	36.4302
10.568	36.7916
10.652	37.0206
10.736	37.0262
10.82	36.9641
10.904	37.0587
10.988	36.7073
11.072	36.1614
11.156	36.0057
11.24	35.9079
11.324	35.9489
11.408	35.9621
11.492	36.143
11.576	36.5005
11.66	36.6844
11.744	36.7246
11.828	36.6664
11.912	36.3827
11.996	35.9642
12.08	35.6076
12.164	35.1705
12.248	35.1474
12.332	35.1848
12.416	35.3645
12.5	35.4877
12.584	35.5265
12.668	35.6947
12.752	35.8777
12.836	36.0013
12.92	35.9134
13.004	35.7605
13.088	35.4334
13.172	34.8827
13.256	34.6636
13.34	34.6604
13.424	34.6471
13.508	34.6749
13.592	34.5661
13.676	34.3007
13.76	34.4137
13.844	34.757
13.928	34.8649
14.012	34.9095
14.096	35.0283
14.18	35.1289
14.264	35.1419
14.348	35.1257
14.432	35.1699
14.516	35.0682
14.6	34.7408
14.684	34.3192
14.768	33.9958
14.852	33.7588
14.936	33.4488
15.02	33.2805
15.104	33.3969
15.188	33.5515
15.272	33.651
15.356	33.7544
15.44	33.7513
15.524	33.6502
15.608	33.7134
15.692	33.9735
15.776	34.179
15.86	34.2148
15.944	34.1515
16.028	34.0312
16.112	33.9139
16.196	33.8987
16.28	33.9079
16.364	33.737
16.448	33.3809
16.532	33.0193
16.616	32.7404
16.7	32.4873
16.784	32.2011
16.868	31.9431
16.952	31.8765
17.036	32.0535
17.12	32.285
17.204	32.38
17.288	32.4002
17.372	32.4845
17.456	32.5662
17.54	32.4796
17.624	32.2745
17.708	32.1979
17.792	32.3681
17.876	32.6228
17.96	32.7524
18.044	32.7457
18.128	32.7247
18.212	32.7293
18.296	32.6757
18.38	32.4868
18.464	32.1816
18.548	31.8544
18.632	31.6144
18.716	31.511
18.8	31.4907
18.884	31.4355
18.968	31.2553
19.052	30.9465
19.136	30.577
19.22	30.2487
19.304	30.0638
19.388	30.069
19.472	30.2061
19.556	30.3372
19.64	30.3544
19.724	30.2646
19.808	30.172
19.892	30.1779
19.976	30.3046
20.06	30.4885
20.144	30.6344
20.228	30.6737
20.312	30.5981
20.396	30.4541
20.48	30.302
20.564	30.1772
20.648	30.0753
20.732	29.9788
20.816	29.8894
20.9	29.8285
20.984	29.814
21.068	29.8331
21.152	29.8576
21.236	29.8639
21.32	29.8424
21.404	29.7893
21.488	29.7017
21.572	29.5825
21.656	29.4585
21.74	29.3708
21.824	29.3522
21.908	29.4017
21.992	29.4772
22.076	29.5157
22.16	29.4572
22.244	29.2571
22.328	28.9086
22.412	28.4514
22.496	27.9821
22.58	27.6148
22.664	27.4335
22.748	27.4366
22.832	27.5212
22.916	27.5211
23	27.2986
23.084	26.8109
23.168	26.1448
23.252	25.4746
23.336	24.9923
23.42	24.8215
23.504	24.9895
23.588	25.4105
23.672	25.9398
23.756	26.4377
23.84	26.8262
23.924	27.1015
24.008	27.3158
24.092	27.5315
24.176	27.7526
24.26	27.9105
24.344	27.8903
24.428	27.5896
24.512	26.9344
24.596	25.9425
24.68	24.7355
24.764	23.5161
24.848	22.4526
24.932	21.7204
25.016	21.4652
25.1	21.7419
25.184	22.5216
25.268	23.6885
25.352	25.0701
25.436	26.3672
25.52	27.2099
25.604	27.2725
25.688	26.3115
25.772	24.3366
25.856	21.6801
25.94	18.9595
26.024	16.9108
26.108	16.079
26.192	16.8022
26.276	19.0311
26.36	22.3573
26.444	25.7504
26.528	27.8374
26.612	27.1651
26.696	23.0041
26.78	15.8283
26.864	7.356049
26.948	-0.149592
27.028	-4.795145