File: Bakgrunnsmateriale/MATLAB/FTIR/ftir_data/LPE453/Mapping_121/LPE453_t22_cm-1.asc
PE IR       SPECTRUM    SPECTRUM    ASCII       PEDS        1.60
  -1
LP5850~1.ASC
17/05/16
16:05:31.00
17/05/16
16:05:31.00
tln
$LPE453_t0022$<tbV0>[-13.0,-10.4,8.0,0.0,27,1,0]
370
64

2002,4.07
MIRTGS : RIGHTBACK : INTERNAL 2
MIR : ON : INTERNAL 2
OPTKBR

0.200000
8
8.000000
FILLER
RATIO
SPECTRUM
UNLOCKED 256

DOUBLE
64
COMBINED
1
0
0

1.000000
RATIO

1
0
TRUE
51149
0
LEFT NOT FITTED RIGHT NOT FITTED 0
NONE
NONE
15600
12
4.427000
51148
TRUE
1 0 8 72 0 0 0 0

15798

#HDR
-1
-1
#GR
CM-1
%T
2.38419e-05
0.0
5000
-1.000000
4631
8
35.6955
-3.275203
#DATA
5000	0.190281
4984	0.209140
4968	0.224232
4952	0.503349
4936	0.095343
4920	0.850987
4904	-0.077247
4888	0.195312
4872	-0.495100
4856	0.473690
4840	0.189352
4824	-0.234079
4808	0.122404
4792	0.235891
4776	0.296497
4760	0.417995
4744	0.311422
4728	-0.139379
4712	0.122404
4696	0.154304
4680	0.458550
4664	1.003289
4648	0.263762
4632	0.502705
4616	1.726651
4600	0.891971
4584	-0.051808
4568	-0.341057
4552	-0.694775
4536	-3.215265
4520	-0.441551
4504	7.456851
4488	-0.662755
4472	-0.362324
4456	0.838565
4440	0.793671
4424	1.013207
4408	0.859427
4392	0.704860
4376	0.644230
4360	0.417971
4344	0.426054
4328	0.233197
4312	0.194454
4296	0.419878
4280	0.243592
4264	-0.016379
4248	0.071740
4232	0.093317
4216	0.237774
4200	0.522947
4184	0.586009
4168	0.287151
4152	0.346422
4136	0.315761
4120	0.227165
4104	-0.041460
4088	-0.249075
4072	0.037741
4056	-0.138640
4040	0.209355
4024	0.245118
4008	0.295805
3992	0.059461
3976	0.274515
3960	0.211501
3944	0.152730
3928	0.037741
3912	0.180625
3896	-0.007057
3880	0.163435
3864	0.163960
3848	0.022530
3832	0.105309
3816	-0.047230
3800	-0.010395
3784	-0.095248
3768	0.153875
3752	0.063395
3736	-0.033259
3720	0.236344
3704	0.174927
3688	0.081229
3672	-0.058078
3656	-0.003719
3640	0.106501
3624	0.045585
3608	0.183129
3592	0.008893
3576	0.014686
3560	0.048160
3544	0.063753
3528	-0.047898
3512	-0.010204
3496	0.176715
3480	0.065612
3464	-0.195527
3448	0.157999
3432	0.047898
3416	0.140023
3400	0.033736
3384	-0.105762
3368	-0.055193
3352	0.096106
3336	0.015091
3320	0.056290
3304	-0.039052
3288	0.149130
3272	0.147175
3256	0.022697
3240	0.083160
3224	0.051498
3208	0.205349
3192	0.028061
3176	0.140929
3160	0.081920
3144	0.091075
3128	0.027108
3112	0.115871
3096	0.072860
3080	0.087833
3064	0.157904
3048	0.116539
3032	0.010323
3016	0.023841
3000	0.187754
2984	0.102257
2968	0.147938
2952	0.068068
2936	0.065016
2920	-0.069522
2904	-0.055694
2888	0.189518
2872	0.043439
2856	0.102758
2840	0.103926
2824	0.069212
2808	0.090837
2792	0.097870
2776	-0.011849
2760	0.088763
2744	-0.095915
2728	-0.018763
2712	0.036692
2696	0.112366
2680	-0.001549
2664	0.005078
2648	0.074005
2632	0.034213
2616	0.005888
2600	-0.027394
2584	-0.053882
2568	-0.003862
2552	0.093531
2536	0.004625
2520	0.058102
2504	0.263905
2488	0.182294
2472	0.164628
2456	-0.046515
2440	0.053691
2424	-0.102543
2408	0.302839
2392	0.038266
2376	0.075888
2360	0.173783
2344	0.118327
2328	0.195741
2312	0.301146
2296	0.561499
2280	0.905942
2264	1.096367
2248	1.680922
2232	2.300095
2216	3.039598
2200	4.078555
2184	5.146098
2168	6.637430
2152	8.179211
2136	9.744572
2120	11.6121
2104	13.2971
2088	14.9735
2072	16.922
2056	18.538
2040	20.0819
2024	21.7106
2008	23.0659
1992	23.9911
1976	25.2848
1960	26.3424
1944	27.0753
1928	27.9482
1912	28.7648
1896	29.4412
1880	29.6508
1864	30.441
1848	31.0219
1832	31.1691
1816	31.4675
1800	32.1892
1784	32.4716
1768	32.5177
1752	32.9568
1736	33.3869
1720	33.3626
1704	33.5665
1688	34.078
1672	34.0771
1656	34.0074
1640	34.1894
1624	34.4848
1608	34.2519
1592	34.3428
1576	34.9067
1560	35.2094
1544	34.8109
1528	34.822
1512	35.3727
1496	35.2006
1480	34.882
1464	35.4047
1448	35.3702
1432	34.9093
1416	34.9979
1400	35.5395
1384	35.4687
1368	35.0461
1352	34.9725
1336	35.4891
1320	35.0894
1304	34.6613
1288	35.1964
1272	35.2786
1256	34.7505
1240	34.4883
1224	35.0826
1208	34.8347
1192	34.1271
1176	34.1997
1160	34.8301
1144	34.168
1128	33.5878
1112	33.7794
1096	33.9794
1080	33.3074
1064	32.9852
1048	33.4649
1032	33.3966
1016	32.6324
1000	32.5121
984	 32.7391
968	 32.2986
952	 31.6778
936	 31.865
920	 32.2521
904	 31.5013
888	 30.7147
872	 30.7376
856	 31.1771
840	 30.3486
824	 29.9991
808	 30.4812
792	 30.0977
776	 28.8484
760	 28.9406
744	 29.3646
728	 28.7808
712	 28.0681
696	 28.1167
680	 28.6965
664	 27.9821
648	 26.9613
632	 27.323
616	 26.9665
600	 26.3226
584	 26.073
568	 25.998
552	 26.3525
536	 24.3794
520	 23.9645
504	 25.138
488	 24.6427
472	 23.6018
456	 23.96
440	 22.9218
424	 17.7019
408	 20.1296
392	 2.115607
376	 23.7811
370	 16.2555