File: Bakgrunnsmateriale/MATLAB/FTIR/ftir_data/LPE453/Mapping_121/LPE453_t90_cm-1.asc
PE IR       SPECTRUM    SPECTRUM    ASCII       PEDS        1.60
  -1
LPDB55~1.ASC
17/05/16
21:48:13.00
17/05/16
21:48:13.00
tln
$LPE453_t0090$<tbV0>[10.4,7.8,8.0,0.0,27,1,0]
370
64

2002,4.07
MIRTGS : RIGHTBACK : INTERNAL 2
MIR : ON : INTERNAL 2
OPTKBR

0.200000
8
8.000000
FILLER
RATIO
SPECTRUM
UNLOCKED 256

DOUBLE
64
COMBINED
1
0
0

1.000000
RATIO

1
0
TRUE
51149
0
LEFT NOT FITTED RIGHT NOT FITTED 0
NONE
NONE
15600
12
4.427000
51148
TRUE
1 0 8 72 0 0 0 0

15798

#HDR
-1
-1
#GR
CM-1
%T
2.38419e-05
0.0
5000
-1.000000
4631
8
33.5304
-5.241775
#DATA
5000	0.354862
4984	0.440835
4968	0.062179
4952	-0.245046
4936	0.132298
4920	-0.218892
4904	0.403976
4888	0.250792
4872	0.153684
4856	-0.045776
4840	-0.030660
4824	0.042057
4808	0.137257
4792	0.402379
4776	0.152683
4760	-0.405979
4744	-0.018167
4728	-0.096225
4712	-0.005769
4696	0.330114
4680	0.488305
4664	0.781726
4648	-0.562381
4632	-0.129199
4616	-0.033473
4600	1.035046
4584	-0.546193
4568	0.618433
4552	0.499939
4536	0.480389
4520	-2.028775
4504	12.0101
4488	-0.900340
4472	-1.044416
4456	-0.094461
4440	0.362730
4424	0.094676
4408	-0.092601
4392	0.281667
4376	0.261855
4360	-0.123715
4344	0.414633
4328	0.061726
4312	0.098013
4296	0.017237
4280	-0.132465
4264	0.234484
4248	-0.397253
4232	-0.034070
4216	0.142550
4200	0.039839
4184	-0.091314
4168	0.249195
4152	0.399827
4136	0.276732
4120	0.081300
4104	0.008010
4088	-0.079894
4072	0.166058
4056	0.061440
4040	0.179862
4024	-0.020623
4008	0.024080
3992	-0.060057
3976	-0.063395
3960	0.164508
3944	0.062108
3928	-0.010180
3912	0.144410
3896	-0.023531
3880	0.120806
3864	0.027203
3848	0.110387
3832	-0.066351
3816	-0.034785
3800	0.065279
3784	0.134062
3768	0.033569
3752	0.189781
3736	0.050592
3720	0.057578
3704	-0.106859
3688	0.044965
3672	0.074458
3656	0.105357
3640	0.040030
3624	0.171685
3608	-0.021290
3592	0.035023
3576	-0.037550
3560	-0.036716
3544	-0.156950
3528	0.063753
3512	-0.120115
3496	0.210499
3480	-0.154328
3464	0.120472
3448	0.027441
3432	0.033473
3416	0.139045
3400	0.207376
3384	-0.011396
3368	0.017118
3352	0.229644
3336	0.063991
3320	0.060868
3304	-0.018286
3288	0.156068
3272	0.070834
3256	-0.106787
3240	0.150847
3224	0.077199
3208	-0.113034
3192	-0.055575
3176	0.121498
3160	0.095391
3144	0.165891
3128	0.083804
3112	-0.177836
3096	0.144195
3080	-0.007033
3064	0.042700
3048	-0.086975
3032	-0.030636
3016	0.152707
3000	0.104737
2984	0.069451
2968	0.036835
2952	-0.081396
2936	-0.006532
2920	-0.105905
2904	0.062179
2888	0.066804
2872	-0.053453
2856	0.169420
2840	-0.014495
2824	0.023198
2808	-0.001430
2792	0.013303
2776	-0.018739
2760	-0.038290
2744	-0.051999
2728	0.114083
2712	0.097513
2696	-0.078654
2680	0.098204
2664	0.007176
2648	0.029420
2632	0.051164
2616	-0.008487
2600	-0.037240
2584	0.143647
2568	0.024914
2552	0.062942
2536	0.043797
2520	0.033068
2504	0.084018
2488	-0.029706
2472	0.037837
2456	-0.066423
2440	0.004315
2424	0.090122
2408	0.059700
2392	0.007247
2376	0.060987
2360	-0.023746
2344	0.035309
2328	0.031375
2312	0.149226
2296	0.300908
2280	0.216889
2264	0.340008
2248	0.566172
2232	0.922536
2216	1.391649
2200	1.988172
2184	2.529644
2168	3.312492
2152	4.606890
2136	5.543112
2120	6.704616
2104	7.928514
2088	9.271693
2072	10.6116
2056	11.9894
2040	13.1023
2024	14.3216
2008	15.2771
1992	16.2147
1976	17.2688
1960	18.173
1944	18.8747
1928	19.5121
1912	20.1272
1896	20.712
1880	21.1302
1864	21.6764
1848	22.1695
1832	22.3906
1816	22.7006
1800	23.0403
1784	23.154
1768	23.4167
1752	23.654
1736	23.8191
1720	23.9227
1704	24.1185
1688	24.2171
1672	24.4502
1656	24.4684
1640	24.6977
1624	24.8022
1608	24.918
1592	25.0766
1576	25.0903
1560	25.2513
1544	25.2978
1528	25.2685
1512	25.4665
1496	25.5347
1480	25.6689
1464	25.6506
1448	25.7941
1432	25.9866
1416	25.91
1400	26.1775
1384	26.3201
1368	26.3579
1352	26.3449
1336	26.4128
1320	26.5507
1304	26.5154
1288	26.7431
1272	26.809
1256	26.7523
1240	26.9464
1224	26.987
1208	26.9697
1192	27.088
1176	27.1852
1160	27.0947
1144	27.3361
1128	27.5076
1112	27.4086
1096	27.3852
1080	27.7069
1064	27.4646
1048	27.4121
1032	27.4833
1016	27.5832
1000	27.4376
984	 27.5806
968	 27.5145
952	 27.2812
936	 27.4184
920	 27.2505
904	 27.1117
888	 27.0506
872	 27.1179
856	 26.8799
840	 26.7189
824	 26.7248
808	 26.5142
792	 26.3035
776	 26.4566
760	 26.2119
744	 25.4322
728	 25.813
712	 25.5326
696	 24.9167
680	 24.8388
664	 25.0807
648	 24.4073
632	 24.0751
616	 23.7915
600	 23.81
584	 22.6271
568	 22.4356
552	 22.2893
536	 21.6343
520	 21.1818
504	 20.414
488	 20.579
472	 19.478
456	 20.1444
440	 19.1093
424	 17.6602
408	 14.3659
392	 11.4438
376	 20.7972
370	 33.5304