File: Bakgrunnsmateriale/MATLAB/FTIR/ftir_data/LPE453/Mapping_121/LPE453_t91_cm-1.asc
PE IR       SPECTRUM    SPECTRUM    ASCII       PEDS        1.60
  -1
LPDBD0~1.ASC
17/05/16
21:52:49.00
17/05/16
21:52:49.00
tln
$LPE453_t0091$<tbV0>[7.8,7.8,8.0,0.0,27,1,0]
370
64

2002,4.07
MIRTGS : RIGHTBACK : INTERNAL 2
MIR : ON : INTERNAL 2
OPTKBR

0.200000
8
8.000000
FILLER
RATIO
SPECTRUM
UNLOCKED 256

DOUBLE
64
COMBINED
1
0
0

1.000000
RATIO

1
0
TRUE
51149
0
LEFT NOT FITTED RIGHT NOT FITTED 0
NONE
NONE
15600
12
4.427000
51148
TRUE
1 0 8 72 0 0 0 0

15798

#HDR
-1
-1
#GR
CM-1
%T
2.38419e-05
0.0
5000
-1.000000
4631
8
35.9926
-8.822131
#DATA
5000	-0.374388
4984	0.450730
4968	-0.220036
4952	0.185918
4936	-0.092196
4920	0.484609
4904	-0.016021
4888	0.275087
4872	-0.018095
4856	0.111842
4840	0.314188
4824	-0.007557
4808	0.069284
4792	0.203037
4776	-0.012135
4760	-0.042963
4744	-0.076603
4728	0.063443
4712	-0.195789
4696	-0.208187
4680	0.051665
4664	-0.405883
4648	-0.200915
4632	0.145649
4616	1.419329
4600	0.827622
4584	-0.089049
4568	0.211071
4552	0.487279
4536	-0.175786
4520	-0.307869
4504	8.508419
4488	4.191136
4472	-1.424622
4456	0.504350
4440	0.059342
4424	0.039982
4408	-0.186896
4392	0.282645
4376	-0.275588
4360	-0.111317
4344	0.272035
4328	0.285029
4312	-0.215220
4296	0.241971
4280	-0.058341
4264	0.115871
4248	0.328922
4232	0.132226
4216	0.206112
4200	0.253629
4184	0.217342
4168	0.244903
4152	0.035762
4136	-0.149226
4120	0.224614
4104	0.054121
4088	0.208401
4072	0.055599
4056	-0.014185
4040	-0.022935
4024	0.155735
4008	0.268959
3992	0.394511
3976	-0.054860
3960	-0.058794
3944	0.123381
3928	0.000619
3912	0.184512
3896	0.201892
3880	0.210356
3864	0.158667
3848	-0.018382
3832	0.127506
3816	0.121784
3800	0.207471
3784	0.159382
3768	0.027203
3752	-0.104165
3736	0.057792
3720	-0.036668
3704	-0.086236
3688	0.212430
3672	0.123143
3656	0.023603
3640	-0.098085
3624	0.097632
3608	0.114512
3592	0.034141
3576	0.021576
3560	-0.021839
3544	-0.044584
3528	-0.083446
3512	0.143504
3496	0.011086
3480	-0.080466
3464	-0.134849
3448	-0.020098
3432	0.073719
3416	0.112080
3400	0.078201
3384	0.121641
3368	0.013065
3352	-0.044679
3336	0.150871
3320	-0.027227
3304	0.013923
3288	-0.029349
3272	0.192904
3256	0.105810
3240	0.071811
3224	0.176429
3208	0.201702
3192	0.187706
3176	0.045180
3160	-0.035715
3144	0.105786
3128	0.047802
3112	-0.050354
3096	0.123524
3080	0.019454
3064	0.027632
3048	0.102066
3032	0.108885
3016	0.006628
3000	0.057482
2984	-0.062823
2968	-0.052428
2952	0.097870
2936	0.097656
2920	-0.017571
2904	-0.082397
2888	0.065302
2872	0.049924
2856	0.150918
2840	-0.080037
2824	-0.015354
2808	0.056314
2792	0.090265
2776	0.015616
2760	0.024986
2744	0.020003
2728	-0.027322
2712	0.021958
2696	0.006842
2680	-0.033521
2664	0.071239
2648	0.096106
2632	-0.090932
2616	0.164985
2600	0.054001
2584	0.020098
2568	0.020956
2552	-0.005769
2536	0.072121
2520	-0.013804
2504	0.050854
2488	0.033307
2472	0.110888
2456	-0.009250
2440	0.113368
2424	-0.022864
2408	-0.013017
2392	0.056076
2376	0.117540
2360	0.190091
2344	0.223851
2328	0.130558
2312	0.350666
2296	0.576758
2280	0.743317
2264	1.207041
2248	1.689267
2232	2.253580
2216	3.094696
2200	4.083943
2184	5.339264
2168	6.868767
2152	8.715462
2136	10.4902
2120	12.5089
2104	14.5803
2088	16.646
2072	18.6269
2056	20.5038
2040	22.348
2024	24.1068
2008	25.7295
1992	26.9813
1976	28.3118
1960	29.4345
1944	30.3868
1928	31.2197
1912	31.8828
1896	32.5417
1880	33.0173
1864	33.4562
1848	33.878
1832	34.3317
1816	34.4863
1800	34.7135
1784	34.9305
1768	35.1182
1752	35.1685
1736	35.3624
1720	35.5268
1704	35.5197
1688	35.6858
1672	35.7017
1656	35.7414
1640	35.8035
1624	35.8447
1608	35.9273
1592	35.8431
1576	35.8699
1560	35.8855
1544	35.7015
1528	35.8305
1512	35.8335
1496	35.7024
1480	35.7333
1464	35.7841
1448	35.6566
1432	35.6551
1416	35.5338
1400	35.5735
1384	35.5677
1368	35.3479
1352	35.4645
1336	35.4338
1320	35.4123
1304	35.2881
1288	35.3522
1272	35.2597
1256	35.2615
1240	35.1909
1224	35.0627
1208	34.9753
1192	34.986
1176	34.9288
1160	34.9552
1144	34.681
1128	34.694
1112	34.8583
1096	34.6352
1080	34.6571
1064	34.3897
1048	34.1825
1032	34.1173
1016	33.964
1000	33.934
984	 33.9508
968	 33.5844
952	 33.675
936	 33.173
920	 33.116
904	 32.8547
888	 32.7034
872	 32.5474
856	 32.4048
840	 32.0745
824	 31.5984
808	 31.8867
792	 31.6874
776	 31.4461
760	 30.8713
744	 30.6907
728	 30.9044
712	 30.2979
696	 29.579
680	 29.7904
664	 29.274
648	 28.6595
632	 28.9813
616	 28.4471
600	 27.6881
584	 27.3957
568	 27.0323
552	 26.67
536	 25.8859
520	 24.9561
504	 24.8752
488	 25.2758
472	 23.5776
456	 23.2486
440	 24.1564
424	 21.5675
408	 20.8205
392	 -8.541631
376	 -1.135277
370	 0.586509