File: Bakgrunnsmateriale/MATLAB/FTIR/ftir_data/LPE453/Mapping_121/LPE453_t73.asc
PE IR       SPECTRUM    SPECTRUM    ASCII       PEDS        1.60
  -1
LPCFA5~1.ASC
17/05/16
20:22:44.00
17/05/16
20:23:10.00
tln
$LPE453_t0073$<tbV0>[-2.6,2.6,8.0,0.0,27,1,0]
27.028
64

2002,4.07
MIRTGS : RIGHTBACK : INTERNAL 2
MIR : ON : INTERNAL 2
OPTKBR

0.200000
8
8.000000
FILLER
RATIO
SPECTRUM
UNLOCKED 256

DOUBLE
64
COMBINED
1
0
0

0.002000
RATIO

1
0
TRUE
51149
0
LEFT NOT FITTED RIGHT NOT FITTED 0
NONE
NONE
15600
12
4.427000
51148
TRUE
1 0 8 72 0 0 0 0

15798

#HDR
-1
-1
#GR
µM
%T
2.38419e-05
0.0
2.000000
0.002000
12515
8
33.4363
-2.010767
#DATA
2.000000	 0.027704
2.084000	 0.446871
2.168000	 -0.153101
2.252000	 -0.527224
2.336000	 -0.113982
2.420000	 0.113554
2.504000	 0.056362
2.588000	 0.034068
2.672000	 -0.060662
2.756000	 0.038570
2.840000	 0.040514
2.924000	 0.229369
3.008000	 0.077784
3.092000	 0.110273
3.176000	 0.058306
3.260000	 0.037952
3.344000	 -0.132477
3.428000	 0.033227
3.512000	 0.053442
3.596000	 -0.008635
3.680000	 0.032659
3.764000	 0.086349
3.848000	 0.022916
3.932000	 0.013929
4.016000	 0.059639
4.100000	 -0.029006
4.184000	 -0.014402
4.268000	 0.144951
4.352000	 0.417206
4.436000	 1.161231
4.520000	 3.042208
4.604000	 6.029954
4.688000	 10.1817
4.772000	 14.7198
4.856000	 19.1547
4.940000	 22.6864
5.024000	 25.661
5.108000	 27.6366
5.192000	 29.4426
5.276000	 30.593
5.359999	 31.3441
5.444000	 32.0374
5.528000	 32.329
5.612000	 32.8143
5.696000	 32.8354
5.780000	 33.1658
5.864000	 33.1211
5.948000	 33.2217
6.032000	 33.1969
6.116000	 33.3251
6.200000	 33.1123
6.284000	 33.4342
6.368000	 32.9843
6.452000	 33.1405
6.536000	 33.1801
6.620000	 32.8601
6.704000	 33.1622
6.788000	 32.9248
6.872000	 32.6637
6.956000	 32.9764
7.040000	 32.8556
7.124000	 32.579
7.208000	 32.8232
7.292000	 32.5812
7.376000	 32.3074
7.460000	 32.7238
7.544000	 32.5884
7.628000	 32.1094
7.712000	 32.3141
7.796000	 32.6128
7.880000	 32.2574
7.964000	 31.9841
8.048000	 32.1515
8.132000	 32.2995
8.216000	 31.8871
8.300000	 31.6975
8.384000	 31.7934
8.468000	 32.2143
8.552000	 31.9273
8.635999	 31.4625
8.719999	 31.2668
8.804000	 31.671
8.888000	 31.7171
8.972000	 31.5238
9.056000	 31.17
9.140000	 30.9069
9.224000	 31.256
9.308000	 31.2061
9.391999	 31.1994
9.475999	 30.8781
9.560000	 30.6352
9.644000	 30.7423
9.728000	 30.831
9.812000	 30.9875
9.896000	 30.5738
9.980000	 30.068
10.064	30.0554
10.148	30.1676
10.232	30.4888
10.316	30.5481
10.4	30.1907
10.484	29.75
10.568	29.4682
10.652	29.6344
10.736	29.628
10.82	29.9057
10.904	29.9242
10.988	29.8022
11.072	29.3575
11.156	28.9774
11.24	28.7646
11.324	28.924
11.408	28.9459
11.492	29.0149
11.576	29.1588
11.66	29.0374
11.744	28.7716
11.828	28.3619
11.912	28.0535
11.996	28.0558
12.08	28.2411
12.164	28.4564
12.248	28.5367
12.332	28.5018
12.416	28.1957
12.5	27.9582
12.584	27.6698
12.668	27.3149
12.752	27.2086
12.836	27.2337
12.92	27.3143
13.004	27.4106
13.088	27.3217
13.172	27.3507
13.256	27.3756
13.34	27.0614
13.424	26.7415
13.508	26.617
13.592	26.4454
13.676	26.2008
13.76	26.1576
13.844	26.3868
13.928	26.5832
14.012	26.5541
14.096	26.4749
14.18	26.3866
14.264	26.3069
14.348	26.1315
14.432	25.7812
14.516	25.4608
14.6	25.2394
14.684	25.105
14.768	25.0364
14.852	24.939
14.936	24.9476
15.02	25.1124
15.104	25.2206
15.188	25.2574
15.272	25.2385
15.356	25.1134
15.44	25.0093
15.524	24.8941
15.608	24.5977
15.692	24.2352
15.776	23.9533
15.86	23.7545
15.944	23.722
16.028	23.8613
16.112	23.992
16.196	24.0666
16.28	24.2046
16.364	24.3958
16.448	24.4988
16.532	24.4629
16.616	24.3179
16.7	24.0718
16.784	23.7682
16.868	23.4962
16.952	23.262
17.036	22.9945
17.12	22.7079
17.204	22.5144
17.288	22.456
17.372	22.4399
17.456	22.3665
17.54	22.2444
17.624	22.1538
17.708	22.1505
17.792	22.2358
17.876	22.3663
17.96	22.4574
18.044	22.4201
18.128	22.2551
18.212	22.1033
18.296	22.1236
18.38	22.2946
18.464	22.4161
18.548	22.3244
18.632	22.0537
18.716	21.7661
18.8	21.5815
18.884	21.5145
18.968	21.5362
19.052	21.627
19.136	21.7577
19.22	21.8571
19.304	21.8392
19.388	21.6725
19.472	21.4191
19.556	21.2027
19.64	21.1129
19.724	21.1348
19.808	21.1731
19.892	21.1522
19.976	21.0715
20.06	20.9625
20.144	20.8281
20.228	20.6429
20.312	20.4103
20.396	20.1862
20.48	20.0356
20.564	19.9607
20.648	19.8968
20.732	19.768
20.816	19.5472
20.9	19.2852
20.984	19.0781
21.068	19.0109
21.152	19.0993
21.236	19.2813
21.32	19.4614
21.404	19.561
21.488	19.5469
21.572	19.4152
21.656	19.1653
21.74	18.8081
21.824	18.3999
21.908	18.0611
21.992	17.9305
22.076	18.089
22.16	18.5123
22.244	19.0799
22.328	19.6396
22.412	20.0616
22.496	20.2584
22.58	20.1923
22.664	19.8733
22.748	19.3698
22.832	18.8026
22.916	18.3275
23	18.0711
23.084	18.0755
23.168	18.298
23.252	18.6473
23.336	19.0159
23.42	19.3331
23.504	19.5639
23.588	19.678
23.672	19.6287
23.756	19.3634
23.84	18.8525
23.924	18.1265
24.008	17.2925
24.092	16.5231
24.176	16.0039
24.26	15.8901
24.344	16.2458
24.428	16.9797
24.512	17.8401
24.596	18.4775
24.68	18.5575
24.764	17.9135
24.848	16.6341
24.932	15.0637
25.016	13.6689
25.1	12.8524
25.184	12.843
25.268	13.6041
25.352	14.9037
25.436	16.3288
25.52	17.4711
25.604	18.0914
25.688	18.1148
25.772	17.6061
25.856	16.6761
25.94	15.4265
26.024	13.911
26.108	12.1411
26.192	10.119
26.276	7.895774
26.36	5.596294
26.444	3.483849
26.528	1.884424
26.612	1.110583
26.696	1.242932
26.78	2.000058
26.864	2.872476
26.948	3.455914
27.028	3.775787