File: Bakgrunnsmateriale/MATLAB/FTIR/ftir_data/LPE453/Mapping_121/LPE453_t44.asc
PE IR       SPECTRUM    SPECTRUM    ASCII       PEDS        1.60
  -1
LPD3A9~1.ASC
17/05/16
17:54:43.00
17/05/16
17:55:09.00
tln
$LPE453_t0044$<tbV0>[-13.0,-5.2,8.0,0.0,27,1,0]
27.028
64

2002,4.07
MIRTGS : RIGHTBACK : INTERNAL 2
MIR : ON : INTERNAL 2
OPTKBR

0.200000
8
8.000000
FILLER
RATIO
SPECTRUM
UNLOCKED 256

DOUBLE
64
COMBINED
1
0
0

0.002000
RATIO

1
0
TRUE
51149
0
LEFT NOT FITTED RIGHT NOT FITTED 0
NONE
NONE
15600
12
4.427000
51148
TRUE
1 0 8 72 0 0 0 0

15798

#HDR
-1
-1
#GR
µM
%T
2.38419e-05
0.0
2.000000
0.002000
12515
8
32.5653
-19.1003
#DATA
2.000000	 -0.017309
2.084000	 -0.113432
2.168000	 0.307369
2.252000	 0.531232
2.336000	 -0.113988
2.420000	 0.031645
2.504000	 -0.057448
2.588000	 0.026344
2.672000	 0.001764
2.756000	 0.155849
2.840000	 -0.187990
2.924000	 0.089628
3.008000	 0.135074
3.092000	 0.106830
3.176000	 -0.015911
3.260000	 0.057314
3.344000	 0.071227
3.428000	 -0.006931
3.512000	 0.047973
3.596000	 0.086562
3.680000	 -0.056574
3.764000	 0.091285
3.848000	 0.049449
3.932000	 -0.059469
4.016000	 -0.013399
4.100000	 0.120491
4.184000	 -0.011489
4.268000	 0.049945
4.352000	 0.297947
4.436000	 0.892131
4.520000	 2.226500
4.604000	 4.631319
4.688000	 8.115722
4.772000	 11.9272
4.856000	 15.7148
4.940000	 19.1979
5.024000	 22.1553
5.108000	 24.2563
5.192000	 26.0208
5.276000	 27.446
5.359999	 28.2705
5.444000	 29.2287
5.528000	 29.6884
5.612000	 30.3211
5.696000	 30.642
5.780000	 30.9522
5.864000	 31.1078
5.948000	 31.5433
6.032000	 31.5336
6.116000	 31.8414
6.200000	 31.6633
6.284000	 32.0223
6.368000	 32.0167
6.452000	 32.1059
6.536000	 32.3473
6.620000	 32.0708
6.704000	 32.1419
6.788000	 32.2306
6.872000	 31.9629
6.956000	 32.2836
7.040000	 32.3973
7.124000	 32.1035
7.208000	 32.124
7.292000	 32.4315
7.376000	 31.9724
7.460000	 31.8767
7.544000	 32.1808
7.628000	 32.2092
7.712000	 31.6923
7.796000	 31.7697
7.880000	 32.0467
7.964000	 31.7914
8.048000	 31.4334
8.132000	 31.5673
8.216000	 31.7856
8.300000	 31.5197
8.384000	 31.1629
8.468000	 31.1941
8.552000	 31.4413
8.635999	 31.376
8.719999	 31.0904
8.804000	 30.6397
8.888000	 30.6513
8.972000	 30.8132
9.056000	 31.092
9.140000	 30.8423
9.224000	 30.1928
9.308000	 30.1239
9.391999	 30.3371
9.475999	 30.5583
9.560000	 30.4514
9.644000	 30.0714
9.728000	 29.9093
9.812000	 29.6865
9.896000	 29.8985
9.980000	 29.9026
10.064	29.9312
10.148	29.385
10.232	29.0718
10.316	28.9137
10.4	29.0311
10.484	29.1713
10.568	29.2872
10.652	29.2028
10.736	28.7638
10.82	28.5317
10.904	28.242
10.988	28.2646
11.072	28.5621
11.156	28.5012
11.24	28.4838
11.324	28.415
11.408	27.902
11.492	27.6165
11.576	27.61
11.66	27.6883
11.744	27.7418
11.828	27.8797
11.912	27.9666
11.996	27.8997
12.08	27.5729
12.164	27.2862
12.248	26.8682
12.332	26.43
12.416	26.292
12.5	26.5569
12.584	26.7712
12.668	26.8501
12.752	26.7646
12.836	26.7394
12.92	26.5655
13.004	26.267
13.088	25.9275
13.172	25.9228
13.256	26.1169
13.34	26.2006
13.424	26.1027
13.508	25.8471
13.592	25.6896
13.676	25.8747
13.76	25.8356
13.844	25.7428
13.928	25.7702
14.012	25.4432
14.096	24.9859
14.18	24.83
14.264	24.9342
14.348	24.9695
14.432	24.9168
14.516	24.9658
14.6	25.1413
14.684	25.2108
14.768	25.0682
14.852	24.879
14.936	24.7194
15.02	24.6123
15.104	24.4904
15.188	24.191
15.272	23.84
15.356	23.7196
15.44	23.8004
15.524	23.8398
15.608	23.8101
15.692	23.8545
15.776	23.9371
15.86	24.0175
15.944	24.163
16.028	24.2437
16.112	24.1109
16.196	23.8885
16.28	23.6792
16.364	23.4365
16.448	23.2346
16.532	23.2134
16.616	23.2752
16.7	23.1828
16.784	22.9249
16.868	22.7307
16.952	22.7085
17.036	22.7102
17.12	22.6012
17.204	22.4687
17.288	22.4926
17.372	22.7298
17.456	23.0532
17.54	23.2626
17.624	23.287
17.708	23.221
17.792	23.1261
17.876	22.9236
17.96	22.5861
18.044	22.2713
18.128	22.1233
18.212	22.0666
18.296	21.9453
18.38	21.7638
18.464	21.6516
18.548	21.6428
18.632	21.6339
18.716	21.5361
18.8	21.3943
18.884	21.3378
18.968	21.433
19.052	21.6109
19.136	21.7589
19.22	21.8421
19.304	21.9042
19.388	21.9564
19.472	21.9294
19.556	21.7602
19.64	21.4905
19.724	21.2272
19.808	21.0465
19.892	20.9706
19.976	20.9977
20.06	21.1036
20.144	21.2114
20.228	21.2003
20.312	20.9819
20.396	20.575
20.48	20.1006
20.564	19.7069
20.648	19.5021
20.732	19.5163
20.816	19.6926
20.9	19.9131
20.984	20.0605
21.068	20.0793
21.152	19.9929
21.236	19.8732
21.32	19.7892
21.404	19.7758
21.488	19.8301
21.572	19.9231
21.656	20.0092
21.74	20.0357
21.824	19.974
21.908	19.8476
21.992	19.7178
22.076	19.6437
22.16	19.6423
22.244	19.6783
22.328	19.7017
22.412	19.6822
22.496	19.6353
22.58	19.6061
22.664	19.6357
22.748	19.7287
22.832	19.8386
22.916	19.8794
23	19.7653
23.084	19.4354
23.168	18.8881
23.252	18.1951
23.336	17.4812
23.42	16.8802
23.504	16.5079
23.588	16.4221
23.672	16.6226
23.756	17.0671
23.84	17.6693
23.924	18.3293
24.008	18.9659
24.092	19.5178
24.176	19.9175
24.26	20.1131
24.344	20.016
24.428	19.5194
24.512	18.5931
24.596	17.2836
24.68	15.741
24.764	14.2179
24.848	12.9973
24.932	12.3173
25.016	12.3005
25.1	13.0296
25.184	14.4716
25.268	16.4764
25.352	18.833
25.436	21.3262
25.52	23.7424
25.604	25.8369
25.688	27.2312
25.772	27.4639
25.856	26.1204
25.94	23.0097
26.024	18.207
26.108	12.0739
26.192	5.095220
26.276	-2.135280
26.36	-8.952682
26.444	-14.5996
26.528	-18.2051
26.612	-18.9684
26.696	-16.0983
26.78	-9.016719
26.864	2.058597
26.948	15.8951
27.028	29.543