File: Bakgrunnsmateriale/MATLAB/FTIR/ftir_data/LPE453/Mapping_121/LPE453_e127.asc
PE IR       SPECTRUM    SPECTRUM    ASCII       PEDS        1.60
  -1
LP8F83~1.ASC
17/05/16
23:26:29.00
17/05/16
23:26:55.00
tln
$LPE453_e0127$<ebV0>[-23.3,12.1,10.0,0.0,27,1,0]
27.028
64

2002,4.07
MIRTGS : RIGHTBACK : INTERNAL 2
MIR : ON : INTERNAL 2
OPTKBR

0.200000
8
8.000000
FILLER
SINGLE
SPECTRUM
UNLOCKED 256

DOUBLE

COMBINED
1
0
0

0.002000
BACKG

1
0
TRUE
51149
0
LEFT NOT FITTED RIGHT NOT FITTED 0
NONE
NONE
15600
12
4.427000
51148
TRUE
1 0 8 72 0 0 0 0

15798

#HDR
-1
-1
#GR
µM
EGY
2.38419e-05
0.0
2.000000
0.002000
12515
8
2.419396
0.007241
#DATA
2.000000	 0.767540
2.084000	 0.866863
2.168000	 0.914785
2.252000	 0.997874
2.336000	 1.130407
2.420000	 1.228397
2.504000	 1.381111
2.588000	 1.444039
2.672000	 1.540223
2.756000	 1.563934
2.840000	 1.613418
2.924000	 1.571079
3.008000	 1.670662
3.092000	 1.766988
3.176000	 1.794750
3.260000	 1.910972
3.344000	 2.008019
3.428000	 1.819829
3.512000	 1.991930
3.596000	 2.192099
3.680000	 2.232895
3.764000	 2.201308
3.848000	 2.204921
3.932000	 2.269577
4.016000	 2.301159
4.100000	 2.265714
4.184000	 2.226358
4.268000	 2.240056
4.352000	 2.312833
4.436000	 2.349767
4.520000	 2.337528
4.604000	 2.307565
4.688000	 2.299647
4.772000	 2.306086
4.856000	 2.347677
4.940000	 2.406538
5.024000	 2.418939
5.108000	 2.394790
5.192000	 2.365057
5.276000	 2.335414
5.359999	 2.341886
5.444000	 2.368036
5.528000	 2.388908
5.612000	 2.390539
5.696000	 2.361046
5.780000	 2.287644
5.864000	 2.246264
5.948000	 2.203786
6.032000	 2.158153
6.116000	 2.103910
6.200000	 1.975412
6.284000	 1.980729
6.368000	 1.947406
6.452000	 1.926536
6.536000	 2.062085
6.620000	 2.048002
6.704000	 1.664413
6.788000	 1.942664
6.872000	 1.765447
6.956000	 1.835708
7.040000	 1.827294
7.124000	 1.701083
7.208000	 1.760250
7.292000	 1.785149
7.376000	 1.786991
7.460000	 1.787597
7.544000	 1.818383
7.628000	 1.825422
7.712000	 1.825420
7.796000	 1.822370
7.880000	 1.744718
7.964000	 1.733405
8.048000	 1.806013
8.132000	 1.798253
8.216000	 1.757870
8.300000	 1.719923
8.384000	 1.716071
8.468000	 1.688475
8.552000	 1.650498
8.635999	 1.600257
8.719999	 1.580164
8.804000	 1.548915
8.888000	 1.502348
8.972000	 1.449415
9.056000	 1.412105
9.140000	 1.403491
9.224000	 1.407394
9.308000	 1.411132
9.391999	 1.416946
9.475999	 1.337957
9.560000	 1.307228
9.644000	 1.364990
9.728000	 1.348024
9.812000	 1.339310
9.896000	 1.359889
9.980000	 1.378294
10.064	1.376874
10.148	1.364798
10.232	1.348109
10.316	1.327406
10.4	1.300461
10.484	1.274927
10.568	1.252938
10.652	1.237693
10.736	1.221457
10.82	1.207088
10.904	1.187953
10.988	1.161496
11.072	1.143000
11.156	1.133462
11.24	1.113744
11.324	1.062297
11.408	1.015060
11.492	1.031213
11.576	1.067912
11.66	1.078123
11.744	1.072553
11.828	1.061589
11.912	1.040796
11.996	0.978427
12.08	0.869956
12.164	0.839716
12.248	0.901008
12.332	0.933005
12.416	0.932560
12.5	0.931477
12.584	0.939014
12.668	0.951655
12.752	0.962095
12.836	0.964505
12.92	0.962372
13.004	0.957888
13.088	0.953735
13.172	0.950165
13.256	0.944182
13.34	0.938282
13.424	0.931502
13.508	0.921425
13.592	0.909927
13.676	0.898346
13.76	0.885535
13.844	0.872787
13.928	0.860533
14.012	0.848524
14.096	0.836899
14.18	0.823108
14.264	0.806316
14.348	0.784922
14.432	0.756279
14.516	0.729519
14.6	0.720082
14.684	0.723207
14.768	0.723644
14.852	0.717933
14.936	0.709471
15.02	0.700840
15.104	0.692612
15.188	0.683838
15.272	0.674282
15.356	0.664605
15.44	0.655419
15.524	0.646909
15.608	0.638376
15.692	0.629347
15.776	0.620806
15.86	0.612985
15.944	0.604546
16.028	0.594905
16.112	0.584555
16.196	0.573024
16.28	0.559303
16.364	0.543498
16.448	0.528548
16.532	0.519029
16.616	0.516136
16.7	0.516222
16.784	0.515240
16.868	0.512283
16.952	0.508311
17.036	0.504388
17.12	0.501260
17.204	0.498916
17.288	0.496661
17.372	0.493902
17.456	0.490621
17.54	0.487080
17.624	0.483710
17.708	0.480475
17.792	0.477071
17.876	0.473321
17.96	0.469177
18.044	0.464706
18.128	0.459809
18.212	0.454609
18.296	0.449462
18.38	0.444684
18.464	0.440232
18.548	0.435802
18.632	0.431230
18.716	0.426345
18.8	0.421215
18.884	0.415817
18.968	0.410150
19.052	0.404467
19.136	0.399022
19.22	0.394064
19.304	0.389535
19.388	0.384950
19.472	0.379987
19.556	0.374478
19.64	0.368656
19.724	0.362792
19.808	0.356833
19.892	0.350497
19.976	0.343619
20.06	0.336376
20.144	0.329221
20.228	0.322510
20.312	0.316175
20.396	0.309813
20.48	0.303126
20.564	0.296035
20.648	0.288712
20.732	0.281378
20.816	0.274240
20.9	0.267491
20.984	0.261237
21.068	0.255629
21.152	0.250518
21.236	0.245637
21.32	0.240660
21.404	0.235296
21.488	0.229436
21.572	0.223171
21.656	0.216508
21.74	0.209689
21.824	0.202811
21.908	0.196014
21.992	0.189356
22.076	0.183061
22.16	0.177248
22.244	0.172052
22.328	0.167537
22.412	0.163535
22.496	0.159778
22.58	0.156077
22.664	0.152135
22.748	0.147897
22.832	0.143380
22.916	0.138621
23	0.133694
23.084	0.128791
23.168	0.123955
23.252	0.119275
23.336	0.114779
23.42	0.110321
23.504	0.105841
23.588	0.101201
23.672	0.096411
23.756	0.091493
23.84	0.086609
23.924	0.081889
24.008	0.077340
24.092	0.072895
24.176	0.068690
24.26	0.064595
24.344	0.060766
24.428	0.057152
24.512	0.053822
24.596	0.050755
24.68	0.047985
24.764	0.045581
24.848	0.043423
24.932	0.041575
25.016	0.039951
25.1	0.038473
25.184	0.036996
25.268	0.035412
25.352	0.033654
25.436	0.031638
25.52	0.029388
25.604	0.027012
25.688	0.024650
25.772	0.022370
25.856	0.020287
25.94	0.018441
26.024	0.016852
26.108	0.015452
26.192	0.014165
26.276	0.012933
26.36	0.011747
26.444	0.010609
26.528	0.009551
26.612	0.008636
26.696	0.007937
26.78	0.007473
26.864	0.007262
26.948	0.007265
27.028	0.007390