File: Bakgrunnsmateriale/MATLAB/FTIR/ftir_data/LPE453/Mapping_121/LPE453_t95.asc
PE IR       SPECTRUM    SPECTRUM    ASCII       PEDS        1.60
  -1
LPD7BD~1.ASC
17/05/16
22:11:16.00
17/05/16
22:11:43.00
tln
$LPE453_t0095$<tbV0>[-2.6,7.8,8.0,0.0,27,1,0]
27.028
64

2002,4.07
MIRTGS : RIGHTBACK : INTERNAL 2
MIR : ON : INTERNAL 2
OPTKBR

0.200000
8
8.000000
FILLER
RATIO
SPECTRUM
UNLOCKED 256

DOUBLE
64
COMBINED
1
0
0

0.002000
RATIO

1
0
TRUE
51149
0
LEFT NOT FITTED RIGHT NOT FITTED 0
NONE
NONE
15600
12
4.427000
51148
TRUE
1 0 8 72 0 0 0 0

15798

#HDR
-1
-1
#GR
µM
%T
2.38419e-05
0.0
2.000000
0.002000
12515
8
37.5832
-2.082308
#DATA
2.000000	 -0.306487
2.084000	 0.574577
2.168000	 2.039044
2.252000	 -0.753591
2.336000	 0.065721
2.420000	 0.107556
2.504000	 0.238178
2.588000	 -0.068722
2.672000	 0.033335
2.756000	 0.076849
2.840000	 0.145607
2.924000	 0.049103
3.008000	 -0.074694
3.092000	 0.099000
3.176000	 0.042323
3.260000	 0.187449
3.344000	 0.117844
3.428000	 0.036687
3.512000	 0.052387
3.596000	 0.069685
3.680000	 0.036383
3.764000	 -0.053983
3.848000	 0.168069
3.932000	 0.026458
4.016000	 -0.056293
4.100000	 -0.124422
4.184000	 0.098376
4.268000	 0.286412
4.352000	 0.848669
4.436000	 2.206589
4.520000	 4.736452
4.604000	 8.713018
4.688000	 13.5595
4.772000	 18.6462
4.856000	 23.1029
4.940000	 26.9871
5.024000	 29.7806
5.108000	 31.7521
5.192000	 33.5947
5.276000	 34.4273
5.359999	 35.6107
5.444000	 35.8239
5.528000	 36.639
5.612000	 36.4872
5.696000	 36.9686
5.780000	 36.9622
5.864000	 36.9459
5.948000	 37.3642
6.032000	 36.9
6.116000	 37.3803
6.200000	 37.2747
6.284000	 36.8581
6.368000	 37.3576
6.452000	 37.1645
6.536000	 36.8688
6.620000	 37.5666
6.704000	 36.9985
6.788000	 36.7775
6.872000	 37.0956
6.956000	 37.2163
7.040000	 36.6067
7.124000	 36.779
7.208000	 37.2551
7.292000	 36.8367
7.376000	 36.3525
7.460000	 36.7949
7.544000	 37.2474
7.628000	 36.8476
7.712000	 36.1832
7.796000	 36.463
7.880000	 36.9231
7.964000	 36.9129
8.048000	 36.157
8.132000	 35.99
8.216000	 36.287
8.300000	 36.7714
8.384000	 36.5831
8.468000	 35.9303
8.552000	 35.7195
8.635999	 36.0157
8.719999	 36.4551
8.804000	 36.529
8.888000	 35.8755
8.972000	 35.4259
9.056000	 35.5771
9.140000	 35.7514
9.224000	 36.0812
9.308000	 36.1255
9.391999	 35.666
9.475999	 35.0495
9.560000	 34.9752
9.644000	 35.2588
9.728000	 35.6022
9.812000	 35.7746
9.896000	 35.8211
9.980000	 35.2331
10.064	34.633
10.148	34.4923
10.232	34.7176
10.316	35.0563
10.4	35.3431
10.484	35.5016
10.568	35.1476
10.652	34.6289
10.736	34.1517
10.82	33.8925
10.904	33.9764
10.988	34.3169
11.072	34.6319
11.156	34.6828
11.24	34.7161
11.324	34.567
11.408	33.9535
11.492	33.5564
11.576	33.1843
11.66	33.1774
11.744	33.3561
11.828	33.6019
11.912	33.9294
11.996	33.9621
12.08	33.8421
12.164	33.5487
12.248	33.2445
12.332	32.802
12.416	32.4202
12.5	32.394
12.584	32.5049
12.668	32.6751
12.752	32.7903
12.836	32.8802
12.92	32.9285
13.004	32.9727
13.088	33.0032
13.172	32.7676
13.256	32.3574
13.34	32.0155
13.424	31.753
13.508	31.4264
13.592	31.168
13.676	31.2096
13.76	31.4175
13.844	31.7009
13.928	31.9718
14.012	32.0921
14.096	32.0988
14.18	32.0664
14.264	31.9086
14.348	31.5968
14.432	31.281
14.516	30.951
14.6	30.599
14.684	30.305
14.768	30.0944
14.852	29.9982
14.936	29.986
15.02	30.0401
15.104	30.173
15.188	30.3314
15.272	30.5024
15.356	30.6959
15.44	30.8278
15.524	30.8373
15.608	30.7266
15.692	30.494
15.776	30.2229
15.86	29.9964
15.944	29.7515
16.028	29.4309
16.112	29.1176
16.196	28.9422
16.28	28.8996
16.364	28.8126
16.448	28.6209
16.532	28.5414
16.616	28.6988
16.7	28.9053
16.784	28.9942
16.868	29.0211
16.952	29.0979
17.036	29.2836
17.12	29.5454
17.204	29.7
17.288	29.5748
17.372	29.2288
17.456	28.8799
17.54	28.6602
17.624	28.542
17.708	28.4154
17.792	28.186
17.876	27.8538
17.96	27.4897
18.044	27.1538
18.128	26.9152
18.212	26.8841
18.296	27.1017
18.38	27.4227
18.464	27.6284
18.548	27.6536
18.632	27.6042
18.716	27.6013
18.8	27.6777
18.884	27.7991
18.968	27.9212
19.052	28.0082
19.136	28.0285
19.22	27.9633
19.304	27.8259
19.388	27.6603
19.472	27.511
19.556	27.3779
19.64	27.2064
19.724	26.9402
19.808	26.5918
19.892	26.2529
19.976	26.0364
20.06	25.9905
20.144	26.0612
20.228	26.1268
20.312	26.079
20.396	25.8877
20.48	25.612
20.564	25.3595
20.648	25.2306
20.732	25.2738
20.816	25.4689
20.9	25.7452
20.984	26.0203
21.068	26.235
21.152	26.3683
21.236	26.4301
21.32	26.4403
21.404	26.4196
21.488	26.3798
21.572	26.3227
21.656	26.2389
21.74	26.1147
21.824	25.9472
21.908	25.7556
21.992	25.5772
22.076	25.4467
22.16	25.3673
22.244	25.3067
22.328	25.2219
22.412	25.0971
22.496	24.9694
22.58	24.8959
22.664	24.9147
22.748	25.0181
22.832	25.1589
22.916	25.2811
23	25.3435
23.084	25.3326
23.168	25.2348
23.252	25.0195
23.336	24.6507
23.42	24.1237
23.504	23.4773
23.588	22.8086
23.672	22.2464
23.756	21.92
23.84	21.9448
23.924	22.3755
24.008	23.1776
24.092	24.2169
24.176	25.2758
24.26	26.1385
24.344	26.6543
24.428	26.8194
24.512	26.8004
24.596	26.8358
24.68	27.0981
24.764	27.5822
24.848	28.1003
24.932	28.3624
25.016	28.1409
25.1	27.3908
25.184	26.2071
25.268	24.759
25.352	23.1985
25.436	21.647
25.52	20.1921
25.604	18.9084
25.688	17.8383
25.772	16.9878
25.856	16.3292
25.94	15.7677
26.024	15.1731
26.108	14.4355
26.192	13.5082
26.276	12.4155
26.36	11.2064
26.444	10.0121
26.528	9.024412
26.612	8.435525
26.696	8.390368
26.78	8.930390
26.864	9.948857
26.948	11.2292
27.028	12.469