File: Bakgrunnsmateriale/MATLAB/FTIR/ftir_data/LPE453/Mapping_121/LPE453_t50_cm-1.asc
PE IR       SPECTRUM    SPECTRUM    ASCII       PEDS        1.60
  -1
LPD955~1.ASC
17/05/16
18:29:20.00
17/05/16
18:29:20.00
tln
$LPE453_t0050$<tbV0>[0.0,-2.6,8.0,0.0,27,1,0]
370
64

2002,4.07
MIRTGS : RIGHTBACK : INTERNAL 2
MIR : ON : INTERNAL 2
OPTKBR

0.200000
8
8.000000
FILLER
RATIO
SPECTRUM
UNLOCKED 256

DOUBLE
64
COMBINED
1
0
0

1.000000
RATIO

1
0
TRUE
51149
0
LEFT NOT FITTED RIGHT NOT FITTED 0
NONE
NONE
15600
12
4.427000
51148
TRUE
1 0 8 72 0 0 0 0

15798

#HDR
-1
-1
#GR
CM-1
%T
2.38419e-05
0.0
5000
-1.000000
4631
8
28.3559
-14.6397
#DATA
5000	-0.219249
4984	0.042033
4968	0.019478
4952	0.095081
4936	-0.029182
4920	-0.198483
4904	0.240421
4888	0.127434
4872	-0.194668
4856	0.309610
4840	0.147891
4824	0.151133
4808	0.231719
4792	0.052499
4776	0.408434
4760	-0.056886
4744	0.124859
4728	0.062203
4712	0.057959
4696	-0.012969
4680	-0.036215
4664	0.646734
4648	0.533270
4632	0.804615
4616	0.389814
4600	0.624561
4584	-0.152206
4568	0.062084
4552	-0.812959
4536	0.152206
4520	-6.884288
4504	16.4574
4488	0.846934
4472	-1.073789
4456	-0.153636
4440	-0.270342
4424	-0.032663
4408	0.259947
4392	0.595402
4376	0.425362
4360	0.592589
4344	0.194740
4328	0.082659
4312	0.148987
4296	-0.022983
4280	-0.421261
4264	0.002574
4248	0.167965
4232	0.061178
4216	-0.065898
4200	0.038099
4184	0.394153
4168	0.113344
4152	0.122976
4136	-0.006246
4120	0.151991
4104	-0.053787
4088	0.062441
4072	-0.019574
4056	0.042247
4040	0.045537
4024	0.015902
4008	-0.074911
3992	-0.093054
3976	0.185561
3960	0.066733
3944	-0.000834
3928	0.017166
3912	-0.021529
3896	-0.008940
3880	-0.062179
3864	0.035357
3848	0.171995
3832	0.032377
3816	0.221967
3800	0.005984
3784	-0.133824
3768	-0.085282
3752	0.102281
3736	-0.064301
3720	-0.051784
3704	0.259399
3688	0.050354
3672	-0.073194
3656	0.034236
3640	0.089263
3624	-0.057554
3608	-0.135254
3592	0.016665
3576	0.099229
3560	0.166273
3544	0.079488
3528	-0.042676
3512	0.118446
3496	0.162005
3480	0.004172
3464	0.012755
3448	-0.033235
3432	0.044846
3416	0.170230
3400	0.078797
3384	0.090503
3368	0.045204
3352	0.087857
3336	0.021934
3320	-0.061607
3304	0.053453
3288	-0.057649
3272	-0.005602
3256	0.097322
3240	-0.076794
3224	0.099873
3208	-0.019574
3192	-0.073218
3176	-0.050449
3160	0.170278
3144	0.110983
3128	0.145673
3112	-0.036096
3096	-0.088381
3080	0.035452
3064	0.088858
3048	-0.038862
3032	0.020408
3016	0.010347
3000	0.108623
2984	-0.024533
2968	0.035047
2952	0.004243
2936	-0.063848
2920	0.072002
2904	-0.026130
2888	0.165486
2872	0.002884
2856	0.022077
2840	0.026273
2824	0.046420
2808	0.058341
2792	0.012993
2776	0.052309
2760	-0.011873
2744	-0.033116
2728	0.051879
2712	0.022459
2696	-0.031018
2680	0.068068
2664	0.018453
2648	-0.043988
2632	0.040364
2616	0.038027
2600	0.053453
2584	-0.061893
2568	-0.030303
2552	-0.060820
2536	0.113701
2520	0.023150
2504	0.128030
2488	-0.078105
2472	0.082731
2456	-0.002002
2440	-0.007534
2424	-0.039958
2408	-0.023722
2392	0.142312
2376	0.021243
2360	-0.045442
2344	0.006222
2328	0.045299
2312	0.103116
2296	0.085210
2280	0.151205
2264	0.223326
2248	0.429630
2232	0.680470
2216	1.042437
2200	1.533627
2184	2.423882
2168	3.149867
2152	4.351377
2136	5.768752
2120	7.127285
2104	8.687877
2088	10.3013
2072	12.2245
2056	13.7581
2040	15.2989
2024	16.846
2008	18.2966
1992	19.6247
1976	20.6551
1960	21.7684
1944	22.8214
1928	23.6321
1912	24.4337
1896	25.024
1880	25.5514
1864	26.0609
1848	26.4241
1832	26.7845
1816	27.1167
1800	27.3907
1784	27.529
1768	27.7293
1752	27.8487
1736	27.8933
1720	28.0213
1704	28.0552
1688	28.1569
1672	28.1158
1656	28.1935
1640	28.256
1624	28.3282
1608	28.3477
1592	28.2994
1576	28.1745
1560	28.2108
1544	28.1624
1528	28.1547
1512	28.1003
1496	28.0468
1480	27.977
1464	28.0398
1448	27.8776
1432	27.8583
1416	27.8591
1400	27.5732
1384	27.5644
1368	27.4837
1352	27.4425
1336	27.3652
1320	27.4152
1304	27.2138
1288	27.2148
1272	27.1785
1256	27.2381
1240	26.963
1224	26.9664
1208	26.8626
1192	26.9125
1176	26.652
1160	26.6068
1144	26.4513
1128	26.5388
1112	26.2603
1096	26.452
1080	26.1656
1064	25.7244
1048	25.9085
1032	25.5984
1016	25.4683
1000	25.279
984	 25.3728
968	 24.8965
952	 24.8296
936	 24.4113
920	 24.5032
904	 24.0339
888	 23.7897
872	 23.5558
856	 23.3843
840	 23.0859
824	 22.7003
808	 22.6599
792	 22.2138
776	 22.1014
760	 21.3988
744	 21.5286
728	 20.9733
712	 20.7947
696	 20.3608
680	 20.0467
664	 19.3772
648	 19.4926
632	 18.6292
616	 18.4751
600	 17.7628
584	 17.3758
568	 17.2085
552	 16.4466
536	 15.8108
520	 15.869
504	 15.4444
488	 14.6997
472	 14.6818
456	 14.3902
440	 11.9795
424	 13.6516
408	 10.6831
392	 -9.336948
376	 8.195495
370	 -14.6397