File: Bakgrunnsmateriale/MATLAB/FTIR/ftir_data/LPE453/Mapping_121/LPE453_t70.asc
PE IR       SPECTRUM    SPECTRUM    ASCII       PEDS        1.60
  -1
LPCFA9~1.ASC
17/05/16
20:08:54.00
17/05/16
20:09:20.00
tln
$LPE453_t0070$<tbV0>[5.2,2.6,8.0,0.0,27,1,0]
27.028
64

2002,4.07
MIRTGS : RIGHTBACK : INTERNAL 2
MIR : ON : INTERNAL 2
OPTKBR

0.200000
8
8.000000
FILLER
RATIO
SPECTRUM
UNLOCKED 256

DOUBLE
64
COMBINED
1
0
0

0.002000
RATIO

1
0
TRUE
51149
0
LEFT NOT FITTED RIGHT NOT FITTED 0
NONE
NONE
15600
12
4.427000
51148
TRUE
1 0 8 72 0 0 0 0

15798

#HDR
-1
-1
#GR
µM
%T
2.38419e-05
0.0
2.000000
0.002000
12515
8
28.9252
-36.4863
#DATA
2.000000	 0.253367
2.084000	 -0.042395
2.168000	 0.986652
2.252000	 -0.382469
2.336000	 0.035216
2.420000	 -0.011735
2.504000	 0.313827
2.588000	 0.041892
2.672000	 -0.096868
2.756000	 0.045337
2.840000	 0.033235
2.924000	 0.037992
3.008000	 -0.072016
3.092000	 -0.003952
3.176000	 -0.012650
3.260000	 0.066725
3.344000	 -0.019198
3.428000	 0.142353
3.512000	 0.059796
3.596000	 0.022594
3.680000	 -0.021135
3.764000	 -0.032301
3.848000	 0.065992
3.932000	 0.058178
4.016000	 0.175402
4.100000	 0.009100
4.184000	 0.012388
4.268000	 0.073070
4.352000	 0.067344
4.436000	 0.432332
4.520000	 1.380045
4.604000	 3.446442
4.688000	 6.483137
4.772000	 10.3224
4.856000	 14.2247
4.940000	 17.7038
5.024000	 20.5216
5.108000	 22.819
5.192000	 24.5302
5.276000	 25.7514
5.359999	 26.7061
5.444000	 27.3387
5.528000	 27.8185
5.612000	 28.1219
5.696000	 28.3481
5.780000	 28.4508
5.864000	 28.7052
5.948000	 28.7479
6.032000	 28.8723
6.116000	 28.8058
6.200000	 28.7726
6.284000	 28.7872
6.368000	 28.7491
6.452000	 28.77
6.536000	 28.6483
6.620000	 28.6457
6.704000	 28.6328
6.788000	 28.4574
6.872000	 28.4162
6.956000	 28.3678
7.040000	 28.2912
7.124000	 28.1545
7.208000	 28.1512
7.292000	 28.0993
7.376000	 28.3813
7.460000	 28.019
7.544000	 27.9983
7.628000	 28.0147
7.712000	 27.8604
7.796000	 27.6272
7.880000	 27.8345
7.964000	 27.7452
8.048000	 27.5678
8.132000	 27.6582
8.216000	 27.5284
8.300000	 27.3687
8.384000	 27.3512
8.468000	 27.3274
8.552000	 27.1994
8.635999	 27.0752
8.719999	 26.8607
8.804000	 27.1029
8.888000	 27.1146
8.972000	 26.9279
9.056000	 26.5409
9.140000	 26.7205
9.224000	 26.889
9.308000	 26.4554
9.391999	 26.4756
9.475999	 26.4181
9.560000	 26.2936
9.644000	 26.3482
9.728000	 26.1185
9.812000	 26.156
9.896000	 25.8458
9.980000	 25.6639
10.064	25.7925
10.148	25.7507
10.232	25.7707
10.316	25.5654
10.4	25.3051
10.484	25.1857
10.568	25.2467
10.652	25.1679
10.736	25.0903
10.82	25.1233
10.904	24.6948
10.988	24.7343
11.072	24.7408
11.156	24.653
11.24	24.336
11.324	24.2745
11.408	24.2954
11.492	24.1511
11.576	24.2074
11.66	24.1884
11.744	24.1366
11.828	23.8161
11.912	23.5994
11.996	23.4348
12.08	23.4433
12.164	23.5456
12.248	23.4388
12.332	23.4221
12.416	23.3884
12.5	23.3704
12.584	23.124
12.668	22.8191
12.752	22.711
12.836	22.5194
12.92	22.4119
13.004	22.452
13.088	22.3484
13.172	22.2058
13.256	22.1447
13.34	21.8159
13.424	21.5822
13.508	21.7122
13.592	21.7877
13.676	21.5268
13.76	21.3708
13.844	21.4858
13.928	21.5854
14.012	21.6013
14.096	21.4173
14.18	21.0921
14.264	20.885
14.348	20.8779
14.432	20.8086
14.516	20.7014
14.6	20.6753
14.684	20.5216
14.768	20.3003
14.852	20.2058
14.936	20.2382
15.02	20.3097
15.104	20.2917
15.188	20.1366
15.272	19.9369
15.356	19.7427
15.44	19.5014
15.524	19.285
15.608	19.1999
15.692	19.1979
15.776	19.2323
15.86	19.2351
15.944	19.0902
16.028	18.8549
16.112	18.6882
16.196	18.6392
16.28	18.6899
16.364	18.8046
16.448	18.9376
16.532	19.0439
16.616	19.0394
16.7	18.8569
16.784	18.5762
16.868	18.3545
16.952	18.2471
17.036	18.2103
17.12	18.2042
17.204	18.2128
17.288	18.2147
17.372	18.1538
17.456	17.9557
17.54	17.6253
17.624	17.3072
17.708	17.165
17.792	17.217
17.876	17.3386
17.96	17.3975
18.044	17.3682
18.128	17.3391
18.212	17.379
18.296	17.4385
18.38	17.4197
18.464	17.3082
18.548	17.1633
18.632	17.0215
18.716	16.9003
18.8	16.8475
18.884	16.8836
18.968	16.9329
19.052	16.9117
19.136	16.8453
19.22	16.8221
19.304	16.8446
19.388	16.8139
19.472	16.6773
19.556	16.5206
19.64	16.4638
19.724	16.5024
19.808	16.5056
19.892	16.3568
19.976	16.0698
20.06	15.753
20.144	15.4972
20.228	15.3191
20.312	15.2025
20.396	15.1431
20.48	15.1411
20.564	15.1604
20.648	15.1383
20.732	15.0385
20.816	14.8938
20.9	14.7843
20.984	14.767
21.068	14.8288
21.152	14.8998
21.236	14.9103
21.32	14.8307
21.404	14.6769
21.488	14.4711
21.572	14.2198
21.656	13.917
21.74	13.5645
21.824	13.2
21.908	12.8911
21.992	12.6955
22.076	12.6287
22.16	12.6517
22.244	12.6986
22.328	12.7199
22.412	12.7084
22.496	12.6963
22.58	12.7326
22.664	12.8544
22.748	13.0563
22.832	13.2837
22.916	13.4471
23	13.4505
23.084	13.2145
23.168	12.7329
23.252	12.0914
23.336	11.4255
23.42	10.8783
23.504	10.5506
23.588	10.4624
23.672	10.5549
23.756	10.7036
23.84	10.7764
23.924	10.6587
24.008	10.3144
24.092	9.830276
24.176	9.391770
24.26	9.173213
24.344	9.254054
24.428	9.521407
24.512	9.605961
24.596	9.050113
24.68	7.512461
24.764	4.981812
24.848	1.776145
24.932	-1.444179
25.016	-3.942703
25.1	-5.261631
25.184	-5.324516
25.268	-4.518198
25.352	-3.552512
25.436	-3.162579
25.52	-3.712493
25.604	-5.052704
25.688	-6.766226
25.772	-8.333656
25.856	-9.276394
25.94	-9.080758
26.024	-7.268985
26.108	-3.589556
26.192	1.540849
26.276	7.046948
26.36	11.3696
26.444	13.1934
26.528	11.8586
26.612	7.703951
26.696	1.437023
26.78	-6.273295
26.864	-15.2421
26.948	-25.5742
27.028	-36.4863