File: Bakgrunnsmateriale/MATLAB/FTIR/ftir_data/LPE453/Mapping_121/LPE453_t14_cm-1.asc
PE IR       SPECTRUM    SPECTRUM    ASCII       PEDS        1.60
  -1
LPE75B~1.ASC
17/05/16
15:28:37.00
17/05/16
15:28:37.00
tln
$LPE453_t0014$<tbV0>[7.8,-10.4,8.0,0.0,27,1,0]
370
64

2002,4.07
MIRTGS : RIGHTBACK : INTERNAL 2
MIR : ON : INTERNAL 2
OPTKBR

0.200000
8
8.000000
FILLER
RATIO
SPECTRUM
UNLOCKED 256

DOUBLE
64
COMBINED
1
0
0

1.000000
RATIO

1
0
TRUE
51149
0
LEFT NOT FITTED RIGHT NOT FITTED 0
NONE
NONE
15600
12
4.427000
51148
TRUE
1 0 8 72 0 0 0 0

15798

#HDR
-1
-1
#GR
CM-1
%T
2.38419e-05
0.0
5000
-1.000000
4631
8
32.4607
-6.658506
#DATA
5000	-0.105190
4984	-0.170469
4968	0.402450
4952	0.147509
4936	0.630116
4920	0.087308
4904	0.477027
4888	0.273036
4872	0.263905
4856	0.202131
4840	0.053119
4824	0.360083
4808	0.322031
4792	0.020313
4776	-0.090956
4760	0.588917
4744	0.212240
4728	-0.046730
4712	0.607514
4696	0.084352
4680	-0.112724
4664	0.341844
4648	0.499439
4632	0.211048
4616	0.246119
4600	0.322961
4584	0.296330
4568	0.469803
4552	1.249504
4536	-0.093126
4520	1.478147
4504	0.394988
4488	-0.604534
4472	0.112104
4456	-0.414490
4440	0.470995
4424	-0.160479
4408	0.477027
4392	0.336837
4376	0.350284
4360	-0.323367
4344	0.095748
4328	-0.005340
4312	0.136399
4296	0.053143
4280	-0.056266
4264	-0.141596
4248	0.204038
4232	0.001978
4216	-0.022268
4200	-0.128483
4184	0.794291
4168	-0.243258
4152	0.023388
4136	-0.212907
4120	-0.011038
4104	0.207924
4088	0.248622
4072	0.033068
4056	-0.185489
4040	0.210428
4024	0.060606
4008	0.182104
3992	-0.094914
3976	0.101113
3960	0.034379
3944	0.127077
3928	0.042843
3912	0.233197
3896	-0.053262
3880	0.177264
3864	0.044775
3848	0.083184
3832	-0.138783
3816	0.151705
3800	0.010728
3784	-0.007104
3768	0.053453
3752	-0.015020
3736	-0.134515
3720	0.073313
3704	0.064992
3688	-0.038099
3672	0.150537
3656	0.158238
3640	0.178337
3624	0.046706
3608	0.208997
3592	-0.019788
3576	-0.108218
3560	0.120496
3544	0.088143
3528	-0.069808
3512	0.076675
3496	0.019383
3480	-0.073766
3464	0.108623
3448	-0.032472
3432	0.019025
3416	0.053977
3400	0.190472
3384	0.087118
3368	-0.173902
3352	0.048279
3336	0.196385
3320	0.001335
3304	0.072789
3288	0.075078
3272	0.135970
3256	-0.010657
3240	0.153326
3224	-0.016880
3208	-0.093030
3192	0.178408
3176	0.107669
3160	0.065732
3144	0.144314
3128	0.190162
3112	0.038790
3096	-0.037813
3080	-0.040578
3064	-0.006008
3048	0.021624
3032	0.032067
3016	-0.010800
3000	0.085973
2984	0.104808
2968	0.115394
2952	-0.088930
2936	0.015664
2920	-0.032782
2904	0.108194
2888	0.013589
2872	0.116753
2856	0.182986
2840	0.178551
2824	0.063848
2808	0.023436
2792	0.105357
2776	-0.070881
2760	-0.021743
2744	-0.050354
2728	0.070977
2712	0.119590
2696	0.020194
2680	0.014567
2664	0.070953
2648	0.003170
2632	0.087952
2616	0.050616
2600	0.170159
2584	0.072574
2568	0.074124
2552	0.093817
2536	-0.048279
2520	-0.092935
2504	0.173163
2488	0.076699
2472	0.028347
2456	0.006651
2440	0.084137
2424	0.331377
2408	0.197505
2392	0.056242
2376	0.033140
2360	0.035977
2344	0.033903
2328	0.113797
2312	0.021195
2296	0.167441
2280	0.420999
2264	0.478887
2248	0.669026
2232	1.179838
2216	1.712942
2200	2.476191
2184	3.214859
2168	4.430007
2152	5.663275
2136	7.220339
2120	9.060740
2104	10.8527
2088	12.7508
2072	14.3505
2056	16.507
2040	18.3837
2024	20.0497
2008	21.568
1992	22.9526
1976	24.2097
1960	25.3574
1944	26.395
1928	27.3212
1912	28.1168
1896	28.8224
1880	29.4182
1864	29.9077
1848	30.2037
1832	30.6449
1816	30.9176
1800	31.1857
1784	31.3468
1768	31.6571
1752	31.6573
1736	31.9748
1720	31.9144
1704	32.174
1688	32.1882
1672	32.2502
1656	32.4131
1640	32.3087
1624	32.2025
1608	32.1607
1592	32.153
1576	32.3744
1560	32.4262
1544	32.273
1528	32.2155
1512	32.1655
1496	31.8852
1480	32.0112
1464	31.8979
1448	31.7101
1432	31.9695
1416	31.7312
1400	31.6222
1384	31.6207
1368	31.7184
1352	31.2427
1336	31.6009
1320	31.2996
1304	31.2077
1288	31.2682
1272	31.1975
1256	30.7688
1240	31.0776
1224	31.0416
1208	30.8318
1192	30.8632
1176	30.8603
1160	30.5558
1144	30.4245
1128	30.6629
1112	30.4912
1096	30.1532
1080	30.3569
1064	29.8851
1048	30.087
1032	30.1418
1016	29.6855
1000	29.6117
984	 29.6744
968	 29.1431
952	 29.1143
936	 29.2069
920	 28.8366
904	 28.3908
888	 28.4454
872	 28.2617
856	 27.5434
840	 27.675
824	 27.5476
808	 26.8822
792	 27.1834
776	 26.8219
760	 26.2216
744	 25.7813
728	 26.4454
712	 25.3528
696	 24.8179
680	 25.1867
664	 24.3626
648	 23.6571
632	 24.0613
616	 23.4217
600	 22.7867
584	 22.8968
568	 22.1046
552	 21.5991
536	 21.4044
520	 20.5293
504	 20.1147
488	 19.3084
472	 19.2681
456	 19.7608
440	 18.0148
424	 16.6754
408	 23.6242
392	 14.9982
376	 6.688928
370	 -6.658506