File: Bakgrunnsmateriale/MATLAB/FTIR/ftir_data/LPE453/Mapping_121/LPE453_t45.asc
PE IR       SPECTRUM    SPECTRUM    ASCII       PEDS        1.60
  -1
LPD3AD~1.ASC
17/05/16
18:06:16.00
17/05/16
18:06:42.00
tln
$LPE453_t0045$<tbV0>[13.0,-2.6,8.0,0.0,27,1,0]
27.028
64

2002,4.07
MIRTGS : RIGHTBACK : INTERNAL 2
MIR : ON : INTERNAL 2
OPTKBR

0.200000
8
8.000000
FILLER
RATIO
SPECTRUM
UNLOCKED 256

DOUBLE
64
COMBINED
1
0
0

0.002000
RATIO

1
0
TRUE
51149
0
LEFT NOT FITTED RIGHT NOT FITTED 0
NONE
NONE
15600
12
4.427000
51148
TRUE
1 0 8 72 0 0 0 0

15798

#HDR
-1
-1
#GR
µM
%T
2.38419e-05
0.0
2.000000
0.002000
12515
8
61.9483
-4.511648
#DATA
2.000000	 -0.150012
2.084000	 -0.027536
2.168000	 0.358675
2.252000	 0.322798
2.336000	 0.051261
2.420000	 0.162108
2.504000	 0.152307
2.588000	 -0.045791
2.672000	 0.263765
2.756000	 0.099304
2.840000	 -0.004311
2.924000	 0.037955
3.008000	 0.006759
3.092000	 -0.012954
3.176000	 0.085272
3.260000	 0.139424
3.344000	 0.134694
3.428000	 -0.030994
3.512000	 -0.053013
3.596000	 0.110056
3.680000	 -0.049418
3.764000	 0.005133
3.848000	 0.076513
3.932000	 -0.114147
4.016000	 0.062992
4.100000	 0.125699
4.184000	 0.016937
4.268000	 -0.036410
4.352000	 0.061807
4.436000	 0.259769
4.520000	 0.903129
4.604000	 2.300269
4.688000	 4.475843
4.772000	 7.553319
4.856000	 10.6924
4.940000	 13.5822
5.024000	 16.0374
5.108000	 18.138
5.192000	 19.7026
5.276000	 20.8859
5.359999	 21.9581
5.444000	 22.7327
5.528000	 23.3022
5.612000	 23.7505
5.696000	 24.0789
5.780000	 24.3778
5.864000	 24.5477
5.948000	 24.8165
6.032000	 24.9903
6.116000	 24.9982
6.200000	 25.2264
6.284000	 25.0053
6.368000	 25.1477
6.452000	 25.1142
6.536000	 25.2812
6.620000	 25.2319
6.704000	 25.4321
6.788000	 25.2704
6.872000	 25.2452
6.956000	 25.2676
7.040000	 25.1222
7.124000	 25.3309
7.208000	 25.061
7.292000	 25.0055
7.376000	 25.3333
7.460000	 25.0251
7.544000	 25.0372
7.628000	 25.1792
7.712000	 24.822
7.796000	 24.9659
7.880000	 25.0748
7.964000	 24.8687
8.048000	 24.7817
8.132000	 24.9254
8.216000	 24.8332
8.300000	 24.5872
8.384000	 24.6508
8.468000	 24.8377
8.552000	 24.5616
8.635999	 24.3806
8.719999	 24.4554
8.804000	 24.4171
8.888000	 24.3161
8.972000	 24.1947
9.056000	 24.3333
9.140000	 24.2258
9.224000	 24.0975
9.308000	 23.8403
9.391999	 23.8728
9.475999	 24.1905
9.560000	 23.9774
9.644000	 23.6845
9.728000	 23.5967
9.812000	 23.4992
9.896000	 23.7111
9.980000	 23.7386
10.064	23.4342
10.148	23.0631
10.232	22.982
10.316	23.1854
10.4	23.1695
10.484	23.1219
10.568	23.0076
10.652	22.638
10.736	22.5804
10.82	22.6409
10.904	22.7665
10.988	22.5674
11.072	22.3223
11.156	22.1079
11.24	22.1259
11.324	22.0177
11.408	22.1592
11.492	22.1902
11.576	21.9978
11.66	21.8282
11.744	21.6539
11.828	21.4889
11.912	21.5384
11.996	21.4182
12.08	21.2721
12.164	21.2923
12.248	21.3555
12.332	21.1401
12.416	20.7815
12.5	20.819
12.584	20.8846
12.668	20.8666
12.752	20.8822
12.836	20.7972
12.92	20.6095
13.004	20.4326
13.088	20.155
13.172	19.8722
13.256	19.886
13.34	19.9323
13.424	20.0403
13.508	20.16
13.592	20.0467
13.676	19.8042
13.76	19.6537
13.844	19.4456
13.928	19.2857
14.012	19.1991
14.096	19.2582
14.18	19.3385
14.264	19.3276
14.348	19.2563
14.432	19.0996
14.516	18.883
14.6	18.6941
14.684	18.5212
14.768	18.4061
14.852	18.3955
14.936	18.3478
15.02	18.3179
15.104	18.5084
15.188	18.7049
15.272	18.6354
15.356	18.4916
15.44	18.4305
15.524	18.2942
15.608	17.9845
15.692	17.5558
15.776	17.1855
15.86	17.0606
15.944	17.0801
16.028	17.0666
16.112	17.1108
16.196	17.262
16.28	17.2988
16.364	17.1298
16.448	16.9898
16.532	17.0449
16.616	17.1238
16.7	17.0297
16.784	16.8385
16.868	16.6814
16.952	16.5568
17.036	16.4708
17.12	16.4594
17.204	16.4283
17.288	16.2635
17.372	16.0706
17.456	16.0513
17.54	16.1848
17.624	16.2392
17.708	16.1126
17.792	15.941
17.876	15.8573
17.96	15.8442
18.044	15.8668
18.128	15.9491
18.212	16.0693
18.296	16.1249
18.38	16.0653
18.464	15.9459
18.548	15.8175
18.632	15.6465
18.716	15.3881
18.8	15.0762
18.884	14.7981
18.968	14.6052
19.052	14.4792
19.136	14.3846
19.22	14.3114
19.304	14.2687
19.388	14.2636
19.472	14.2976
19.556	14.3595
19.64	14.4176
19.724	14.4265
19.808	14.3648
19.892	14.2486
19.976	14.1055
20.06	13.9381
20.144	13.7496
20.228	13.5843
20.312	13.5104
20.396	13.5451
20.48	13.6135
20.564	13.6187
20.648	13.5352
20.732	13.4374
20.816	13.421
20.9	13.5043
20.984	13.6204
21.068	13.6867
21.152	13.6749
21.236	13.6049
21.32	13.4903
21.404	13.3193
21.488	13.1058
21.572	12.9455
21.656	12.9927
21.74	13.3584
21.824	13.9992
21.908	14.6949
21.992	15.1742
22.076	15.2648
22.16	14.968
22.244	14.4432
22.328	13.8851
22.412	13.4463
22.496	13.1942
22.58	13.1164
22.664	13.1541
22.748	13.2335
22.832	13.3046
22.916	13.35
23	13.3943
23.084	13.4685
23.168	13.5579
23.252	13.5848
23.336	13.4334
23.42	12.9941
23.504	12.2446
23.588	11.2815
23.672	10.2779
23.756	9.430560
23.84	8.867659
23.924	8.617859
24.008	8.632545
24.092	8.820640
24.176	9.069102
24.26	9.262396
24.344	9.302158
24.428	9.139912
24.512	8.740532
24.596	8.206822
24.68	7.781701
24.764	7.761791
24.848	8.390681
24.932	9.789089
25.016	11.8635
25.1	14.2897
25.184	16.6854
25.268	18.752
25.352	20.3038
25.436	21.2836
25.52	21.6832
25.604	21.4521
25.688	20.5001
25.772	18.8075
25.856	16.5827
25.94	14.3084
26.024	12.8402
26.108	13.242
26.192	16.3417
26.276	22.4106
26.36	30.9876
26.444	40.8652
26.528	50.3333
26.612	57.7338
26.696	61.6052
26.78	61.0302
26.864	55.8337
26.948	46.6428
27.028	35.5398