File: Bakgrunnsmateriale/MATLAB/FTIR/ftir_data/LPE453/Mapping_121/LPE453_t04_cm-1.asc
PE IR       SPECTRUM    SPECTRUM    ASCII       PEDS        1.60
  -1
LP675B~1.ASC
17/05/16
14:41:52.00
17/05/16
14:41:52.00
tln
$LPE453_t0004$<tbV0>[5.2,-13.0,8.0,0.0,27,1,0]
370
64

2002,4.07
MIRTGS : RIGHTBACK : INTERNAL 2
MIR : ON : INTERNAL 2
OPTKBR

0.200000
8
8.000000
FILLER
RATIO
SPECTRUM
UNLOCKED 256

DOUBLE
64
COMBINED
1
0
0

1.000000
RATIO

1
0
TRUE
51149
0
LEFT NOT FITTED RIGHT NOT FITTED 0
NONE
NONE
15600
12
4.427000
51148
TRUE
1 0 8 72 0 0 0 0

15798

#HDR
-1
-1
#GR
CM-1
%T
2.38419e-05
0.0
5000
-1.000000
4631
8
33.994
-7.844638
#DATA
5000	0.331711
4984	-0.107240
4968	0.456690
4952	-0.208878
4936	0.453138
4920	-0.093984
4904	0.086045
4888	0.257658
4872	0.094461
4856	-0.368928
4840	0.413250
4824	-0.203466
4808	-0.053334
4792	0.373554
4776	0.242137
4760	-0.221467
4744	0.345849
4728	-0.178527
4712	-0.017333
4696	-0.242328
4680	0.663137
4664	0.495290
4648	-0.250196
4632	-0.094056
4616	0.653791
4600	1.482748
4584	-0.495576
4568	-0.168514
4552	-1.132178
4536	-0.698852
4520	2.262854
4504	4.200792
4488	-3.085565
4472	-0.098180
4456	0.188112
4440	0.359058
4424	0.280737
4408	-0.241613
4392	0.064539
4376	-0.018525
4360	0.389289
4344	0.454282
4328	-0.015878
4312	0.209856
4296	0.224900
4280	0.345444
4264	-0.055217
4248	-0.331354
4232	-0.127005
4216	0.095152
4200	-0.029706
4184	0.488328
4168	-0.000643
4152	-0.169181
4136	0.195050
4120	-0.054264
4104	-0.005769
4088	0.240325
4072	0.069904
4056	0.237011
4040	0.010251
4024	-0.092101
4008	0.237035
3992	-0.035667
3976	0.007510
3960	0.028467
3944	0.102949
3928	0.098252
3912	-0.067257
3896	0.019049
3880	0.032162
3864	-0.070691
3848	-0.009369
3832	0.081586
3816	0.240540
3800	0.030064
3784	0.252962
3768	0.161266
3752	0.039935
3736	0.225114
3720	0.121212
3704	0.014781
3688	0.134325
3672	0.123262
3656	0.110793
3640	0.048780
3624	-0.093245
3608	0.132083
3592	-0.013566
3576	0.140309
3560	-0.173926
3544	0.004673
3528	0.001740
3512	0.018262
3496	0.005984
3480	0.092959
3464	0.128388
3448	0.070643
3432	-0.056362
3416	0.013399
3400	-0.010776
3384	0.107192
3368	-0.016450
3352	0.098967
3336	0.019693
3320	0.001668
3304	-0.037717
3288	0.042009
3272	0.113987
3256	0.022912
3240	0.114274
3224	-0.088620
3208	0.151181
3192	-0.004053
3176	0.076675
3160	-0.044941
3144	0.107502
3128	0.023889
3112	0.082349
3096	0.051259
3080	0.164628
3064	0.050473
3048	0.052404
3032	0.003552
3016	0.062203
3000	0.200057
2984	0.034332
2968	0.050568
2952	0.025653
2936	0.097608
2920	0.156974
2904	0.148248
2888	-0.027179
2872	-0.048446
2856	0.105738
2840	-0.003170
2824	0.003528
2808	-0.065040
2792	0.023436
2776	0.017714
2760	0.029230
2744	-0.022196
2728	0.076127
2712	-0.021886
2696	-0.014519
2680	-0.012755
2664	0.084495
2648	0.081610
2632	0.002956
2616	0.169634
2600	0.112080
2584	-0.103521
2568	0.054883
2552	0.024056
2536	0.082135
2520	0.047278
2504	-0.086808
2488	0.208473
2472	-0.005602
2456	-0.126409
2440	0.049781
2424	-0.131773
2408	0.038790
2392	-0.040030
2376	0.012302
2360	-0.024509
2344	0.173830
2328	0.178241
2312	0.176906
2296	0.191450
2280	0.470757
2264	0.662493
2248	1.041245
2232	1.652240
2216	2.270865
2200	3.243541
2184	4.233813
2168	5.401682
2152	6.984257
2136	8.653593
2120	10.5373
2104	12.4899
2088	14.4608
2072	16.2542
2056	18.4139
2040	20.1683
2024	21.8073
2008	23.454
1992	24.8674
1976	26.0567
1960	27.2457
1944	28.2762
1928	29.0699
1912	29.8496
1896	30.5208
1880	31.1761
1864	31.5461
1848	32.0578
1832	32.2698
1816	32.5858
1800	32.9846
1784	33.0767
1768	33.2727
1752	33.2753
1736	33.5887
1720	33.6916
1704	33.6551
1688	33.8636
1672	33.7152
1656	33.8679
1640	33.7307
1624	33.7284
1608	33.6053
1592	33.7502
1576	33.7466
1560	33.9328
1544	33.6949
1528	33.6899
1512	33.5887
1496	33.4973
1480	33.4331
1464	33.4706
1448	33.2898
1432	33.3934
1416	33.1796
1400	33.0976
1384	32.9931
1368	32.9932
1352	32.7644
1336	32.8697
1320	32.807
1304	32.7456
1288	32.6753
1272	32.4928
1256	32.4833
1240	32.4238
1224	32.5022
1208	32.277
1192	32.1843
1176	32.2255
1160	32.0864
1144	32.0803
1128	31.9144
1112	31.9911
1096	31.8558
1080	31.5746
1064	31.5486
1048	31.573
1032	31.3274
1016	31.2789
1000	31.2999
984	 31.1302
968	 30.7808
952	 30.683
936	 30.6397
920	 30.3884
904	 30.2117
888	 29.9955
872	 29.862
856	 29.6075
840	 29.5525
824	 29.3186
808	 28.9331
792	 28.431
776	 28.6525
760	 28.1842
744	 27.6524
728	 28.08
712	 27.5841
696	 27.196
680	 27.0866
664	 26.8927
648	 26.3585
632	 25.7733
616	 25.9887
600	 24.9719
584	 24.4893
568	 24.1314
552	 23.9188
536	 23.5313
520	 23.9562
504	 22.7394
488	 22.0804
472	 21.7563
456	 21.8147
440	 21.4863
424	 18.0889
408	 19.9276
392	 22.6861
376	 12.1375
370	 -7.844638