File: Bakgrunnsmateriale/MATLAB/FTIR/ftir_data/LPE453/Mapping_121/LPE453_t05_cm-1.asc
PE IR       SPECTRUM    SPECTRUM    ASCII       PEDS        1.60
  -1
LP67DB~1.ASC
17/05/16
14:46:28.00
17/05/16
14:46:28.00
tln
$LPE453_t0005$<tbV0>[2.6,-13.0,8.0,0.0,27,1,0]
370
64

2002,4.07
MIRTGS : RIGHTBACK : INTERNAL 2
MIR : ON : INTERNAL 2
OPTKBR

0.200000
8
8.000000
FILLER
RATIO
SPECTRUM
UNLOCKED 256

DOUBLE
64
COMBINED
1
0
0

1.000000
RATIO

1
0
TRUE
51149
0
LEFT NOT FITTED RIGHT NOT FITTED 0
NONE
NONE
15600
12
4.427000
51148
TRUE
1 0 8 72 0 0 0 0

15798

#HDR
-1
-1
#GR
CM-1
%T
2.38419e-05
0.0
5000
-1.000000
4631
8
44.1842
-6.525897
#DATA
5000	-0.225424
4984	0.333213
4968	0.126481
4952	0.200843
4936	-0.064396
4920	-0.192761
4904	-0.042200
4888	0.322580
4872	0.229454
4856	0.059318
4840	-0.026178
4824	0.323867
4808	0.201272
4792	0.154590
4776	0.387763
4760	0.387620
4744	-0.205969
4728	0.166797
4712	-0.321769
4696	0.142383
4680	-0.174641
4664	0.157356
4648	0.854682
4632	-0.483465
4616	0.389885
4600	1.575350
4584	0.470352
4568	-0.991153
4552	1.244330
4536	-0.912404
4520	0.594878
4504	15.1046
4488	-3.878521
4472	0.755977
4456	-0.650501
4440	0.016927
4424	-0.030899
4408	0.430393
4392	0.385260
4376	0.441265
4360	0.236463
4344	-0.016856
4328	0.067305
4312	0.274419
4296	0.292778
4280	-0.011944
4264	-0.157880
4248	0.203299
4232	0.086903
4216	0.109958
4200	0.291371
4184	0.195980
4168	-0.008034
4152	0.023388
4136	0.141811
4120	0.045013
4104	0.241732
4088	-0.166106
4072	-0.092172
4056	0.097513
4040	-0.034642
4024	0.103402
4008	0.051045
3992	0.246357
3976	0.219464
3960	0.127601
3944	0.167036
3928	0.237321
3912	-0.028705
3896	0.040507
3880	0.132036
3864	-0.007534
3848	-0.023341
3832	0.227355
3816	0.136470
3800	-0.013089
3784	-0.083255
3768	0.123596
3752	0.001597
3736	0.072598
3720	-0.002694
3704	0.184273
3688	0.098180
3672	-0.072336
3656	-0.031805
3640	0.095438
3624	0.035691
3608	-0.022006
3592	-0.058937
3576	0.010156
3560	0.072646
3544	-0.122809
3528	0.147700
3512	0.186967
3496	0.083827
3480	0.195264
3464	0.024724
3448	0.042557
3432	0.044393
3416	0.102996
3400	0.080013
3384	0.083637
3368	-0.071644
3352	0.122261
3336	0.065302
3320	0.004935
3304	0.164556
3288	0.118470
3272	0.032091
3256	0.163984
3240	0.058293
3224	0.092267
3208	0.071692
3192	0.014472
3176	-0.013232
3160	-0.081419
3144	-0.010132
3128	0.095462
3112	0.159835
3096	0.130033
3080	-0.053572
3064	0.052499
3048	-0.007462
3032	-0.027275
3016	0.180411
3000	0.121998
2984	0.051951
2968	0.024175
2952	0.027585
2936	0.095129
2920	-0.011301
2904	0.186753
2888	0.070023
2872	0.001144
2856	0.016450
2840	-0.092887
2824	0.233101
2808	0.073862
2792	-0.000333
2776	0.042033
2760	0.013470
2744	-0.023698
2728	0.082015
2712	0.014805
2696	0.042223
2680	0.029659
2664	0.013208
2648	0.046038
2632	-0.007462
2616	-0.044155
2600	0.009703
2584	-0.066804
2568	0.006651
2552	0.007915
2536	-0.049066
2520	-0.010371
2504	0.006079
2488	-0.025224
2472	0.011658
2456	-0.026202
2440	0.037002
2424	-0.021553
2408	0.100994
2392	-0.033378
2376	0.049924
2360	0.002670
2344	-0.000095
2328	0.126671
2312	0.107979
2296	0.256085
2280	0.545144
2264	0.740480
2248	1.193141
2232	1.611971
2216	2.281618
2200	3.207087
2184	4.288077
2168	5.646085
2152	7.181644
2136	8.723402
2120	10.8578
2104	12.8207
2088	14.6476
2072	16.818
2056	18.8044
2040	20.5437
2024	22.343
2008	23.8092
1992	25.2924
1976	26.6633
1960	27.7367
1944	28.7663
1928	29.7153
1912	30.442
1896	31.0467
1880	31.6535
1864	32.1126
1848	32.5329
1832	32.7805
1816	33.07
1800	33.3101
1784	33.458
1768	33.7211
1752	33.8125
1736	33.9311
1720	33.9355
1704	34.21
1688	34.1542
1672	34.1339
1656	34.36
1640	34.065
1624	34.1313
1608	34.0648
1592	34.0456
1576	33.9888
1560	34.2554
1544	34.0782
1528	34.0344
1512	34.0103
1496	33.8615
1480	33.8786
1464	33.8117
1448	33.4767
1432	33.6461
1416	33.4662
1400	33.5048
1384	33.3106
1368	33.3764
1352	33.2651
1336	33.3664
1320	33.2953
1304	33.1024
1288	33.134
1272	32.8161
1256	32.7967
1240	32.7928
1224	32.639
1208	32.7345
1192	32.6535
1176	32.5325
1160	32.4677
1144	32.4094
1128	32.1499
1112	32.1417
1096	31.7473
1080	32.0197
1064	31.881
1048	31.736
1032	31.518
1016	31.4772
1000	31.3226
984	 31.3474
968	 31.0857
952	 30.9365
936	 30.7993
920	 30.6111
904	 30.5738
888	 30.4056
872	 30.2387
856	 29.9331
840	 29.8719
824	 29.4837
808	 29.071
792	 29.3887
776	 28.9629
760	 28.6346
744	 28.2516
728	 28.1806
712	 28.0663
696	 27.3787
680	 27.2188
664	 26.7933
648	 26.4373
632	 26.5029
616	 26.1757
600	 25.6345
584	 24.6188
568	 25.0745
552	 23.9575
536	 23.7321
520	 23.4742
504	 22.8872
488	 22.9859
472	 22.5813
456	 22.623
440	 21.3246
424	 17.7871
408	 22.7969
392	 15.9939
376	 8.138275
370	 -6.525897