File: Bakgrunnsmateriale/MATLAB/FTIR/ftir_data/LPE453/Mapping_121/LPE453_t118.asc
PE IR       SPECTRUM    SPECTRUM    ASCII       PEDS        1.60
  -1
LP9398~1.ASC
17/05/17
00:18:36.00
17/05/17
00:19:02.00
tln
$LPE453_t0118$<tbV0>[-5.2,13.0,8.0,0.0,27,1,0]
27.028
64

2002,4.07
MIRTGS : RIGHTBACK : INTERNAL 2
MIR : ON : INTERNAL 2
OPTKBR

0.200000
8
8.000000
FILLER
RATIO
SPECTRUM
UNLOCKED 256

DOUBLE
64
COMBINED
1
0
0

0.002000
RATIO

1
0
TRUE
51149
0
LEFT NOT FITTED RIGHT NOT FITTED 0
NONE
NONE
15600
12
4.427000
51148
TRUE
1 0 8 72 0 0 0 0

15798

#HDR
-1
-1
#GR
µM
%T
2.38419e-05
0.0
2.000000
0.002000
12515
8
35.4884
-1.255116
#DATA
2.000000	 0.307250
2.084000	 -0.046305
2.168000	 0.560525
2.252000	 -0.293453
2.336000	 0.142563
2.420000	 0.139437
2.504000	 0.087587
2.588000	 0.117547
2.672000	 0.097962
2.756000	 0.075349
2.840000	 0.048271
2.924000	 0.031537
3.008000	 0.128193
3.092000	 0.059649
3.176000	 0.215589
3.260000	 0.083032
3.344000	 -0.094773
3.428000	 0.034431
3.512000	 0.015226
3.596000	 -0.022421
3.680000	 -0.060955
3.764000	 0.152492
3.848000	 0.065905
3.932000	 0.105560
4.016000	 -0.068088
4.100000	 -0.050099
4.184000	 0.059014
4.268000	 0.194314
4.352000	 0.656040
4.436000	 1.570454
4.520000	 3.668655
4.604000	 6.872145
4.688000	 11.0598
4.772000	 15.3921
4.856000	 19.5358
4.940000	 23.0662
5.024000	 25.8528
5.108000	 28.15
5.192000	 29.6014
5.276000	 31.033
5.359999	 31.9379
5.444000	 32.7537
5.528000	 33.2873
5.612000	 33.8546
5.696000	 33.9208
5.780000	 34.5953
5.864000	 34.4399
5.948000	 34.866
6.032000	 34.821
6.116000	 35.0079
6.200000	 35.2403
6.284000	 34.9772
6.368000	 35.1388
6.452000	 35.3265
6.536000	 34.9981
6.620000	 35.0699
6.704000	 35.2651
6.788000	 35.0663
6.872000	 34.7946
6.956000	 35.3312
7.040000	 35.0467
7.124000	 34.6571
7.208000	 34.7525
7.292000	 35.0786
7.376000	 34.7774
7.460000	 34.3533
7.544000	 34.7268
7.628000	 34.7589
7.712000	 34.4383
7.796000	 34.1553
7.880000	 34.4434
7.964000	 34.6132
8.048000	 34.3564
8.132000	 34.0161
8.216000	 33.7702
8.300000	 33.9875
8.384000	 34.2564
8.468000	 33.9887
8.552000	 33.5545
8.635999	 33.5313
8.719999	 33.7406
8.804000	 33.8457
8.888000	 33.7942
8.972000	 33.4912
9.056000	 33.2149
9.140000	 33.0862
9.224000	 33.1901
9.308000	 33.4706
9.391999	 33.3637
9.475999	 33.0147
9.560000	 32.6306
9.644000	 32.5761
9.728000	 32.6884
9.812000	 32.828
9.896000	 32.8594
9.980000	 32.8567
10.064	32.6462
10.148	32.2117
10.232	31.9323
10.316	32.0382
10.4	32.1934
10.484	32.4375
10.568	32.4793
10.652	32.3983
10.736	32.0559
10.82	31.735
10.904	31.47
10.988	31.4126
11.072	31.5216
11.156	31.6737
11.24	31.9613
11.324	31.9315
11.408	31.5562
11.492	31.2772
11.576	31.159
11.66	30.8811
11.744	30.5196
11.828	30.5351
11.912	30.8584
11.996	30.9535
12.08	30.8232
12.164	30.9211
12.248	30.9213
12.332	30.7206
12.416	30.5539
12.5	30.285
12.584	29.9656
12.668	29.8593
12.752	29.9313
12.836	30.0493
12.92	30.0347
13.004	30.1068
13.088	30.246
13.172	30.3102
13.256	30.2279
13.34	29.8807
13.424	29.5466
13.508	29.3229
13.592	29.1257
13.676	29.0442
13.76	29.0457
13.844	29.0383
13.928	29.0262
14.012	29.1489
14.096	29.3076
14.18	29.2135
14.264	29.0287
14.348	29.0894
14.432	29.2095
14.516	29.0962
14.6	28.8517
14.684	28.646
14.768	28.4704
14.852	28.1954
14.936	27.9396
15.02	27.9275
15.104	28.0458
15.188	28.0871
15.272	28.0637
15.356	28.1017
15.44	28.2053
15.524	28.2306
15.608	28.1139
15.692	27.9176
15.776	27.6663
15.86	27.4478
15.944	27.4242
16.028	27.508
16.112	27.4528
16.196	27.2272
16.28	27.0002
16.364	26.9163
16.448	26.9356
16.532	26.8788
16.616	26.7158
16.7	26.6108
16.784	26.6326
16.868	26.7304
16.952	26.8797
17.036	27.026
17.12	27.0499
17.204	26.9334
17.288	26.8344
17.372	26.8879
17.456	27.0239
17.54	27.0511
17.624	26.8755
17.708	26.5797
17.792	26.3064
17.876	26.1189
17.96	25.9735
18.044	25.8168
18.128	25.6774
18.212	25.6293
18.296	25.6839
18.38	25.7609
18.464	25.7797
18.548	25.7342
18.632	25.6663
18.716	25.6077
18.8	25.5734
18.884	25.5694
18.968	25.5929
19.052	25.6349
19.136	25.6968
19.22	25.787
19.304	25.8876
19.388	25.93
19.472	25.8302
19.556	25.555
19.64	25.1648
19.724	24.7842
19.808	24.5266
19.892	24.4209
19.976	24.4095
20.06	24.399
20.144	24.3184
20.228	24.143
20.312	23.8886
20.396	23.6023
20.48	23.3531
20.564	23.2064
20.648	23.1923
20.732	23.2958
20.816	23.4813
20.9	23.7191
20.984	23.9836
21.068	24.2313
21.152	24.4009
21.236	24.4495
21.32	24.39
21.404	24.2895
21.488	24.2127
21.572	24.1742
21.656	24.1354
21.74	24.0532
21.824	23.934
21.908	23.8312
21.992	23.7866
22.076	23.7831
22.16	23.7389
22.244	23.5736
22.328	23.2737
22.412	22.9029
22.496	22.5723
22.58	22.3679
22.664	22.3222
22.748	22.4217
22.832	22.6378
22.916	22.927
23	23.2192
23.084	23.4107
23.168	23.38
23.252	23.0519
23.336	22.4323
23.42	21.635
23.504	20.8274
23.588	20.1854
23.672	19.8396
23.756	19.8429
23.84	20.1908
23.924	20.828
24.008	21.635
24.092	22.4269
24.176	23.0184
24.26	23.2509
24.344	23.0474
24.428	22.4607
24.512	21.6501
24.596	20.8122
24.68	20.088
24.764	19.4959
24.848	18.9499
24.932	18.3266
25.016	17.5353
25.1	16.5073
25.184	15.2299
25.268	13.7651
25.352	12.2347
25.436	10.8472
25.52	9.906545
25.604	9.778326
25.688	10.838
25.772	13.3225
25.856	17.1892
25.94	21.9542
26.024	26.7132
26.108	30.3981
26.192	32.4505
26.276	32.9652
26.36	32.6856
26.444	32.4052
26.528	32.4886
26.612	32.5142
26.696	31.6676
26.78	29.2409
26.864	25.1758
26.948	20.0752
27.028	15.0027