File: Bakgrunnsmateriale/MATLAB/FTIR/ftir_data/LPE453/Mapping_121/LPE453_t58_cm-1.asc
PE IR       SPECTRUM    SPECTRUM    ASCII       PEDS        1.60
  -1
LPE959~1.ASC
17/05/16
19:06:51.00
17/05/16
19:06:51.00
tln
$LPE453_t0058$<tbV0>[7.8,0.0,8.0,0.0,27,1,0]
370
64

2002,4.07
MIRTGS : RIGHTBACK : INTERNAL 2
MIR : ON : INTERNAL 2
OPTKBR

0.200000
8
8.000000
FILLER
RATIO
SPECTRUM
UNLOCKED 256

DOUBLE
64
COMBINED
1
0
0

1.000000
RATIO

1
0
TRUE
51149
0
LEFT NOT FITTED RIGHT NOT FITTED 0
NONE
NONE
15600
12
4.427000
51148
TRUE
1 0 8 72 0 0 0 0

15798

#HDR
-1
-1
#GR
CM-1
%T
2.38419e-05
0.0
5000
-1.000000
4631
8
24.3291
-13.6148
#DATA
5000	-0.191450
4984	-0.303196
4968	0.924777
4952	-0.188565
4936	-0.021457
4920	0.061416
4904	-0.195527
4888	-0.121855
4872	0.227093
4856	0.339484
4840	-0.336170
4824	0.345468
4808	0.104069
4792	0.172710
4776	0.201296
4760	0.376701
4744	0.051259
4728	0.338268
4712	-0.376248
4696	0.784850
4680	2.288365
4664	1.296710
4648	-0.232505
4632	0.980544
4616	0.491070
4600	0.895643
4584	-0.120210
4568	0.341320
4552	0.227761
4536	-0.136113
4520	-0.089287
4504	-1.766085
4488	15.9574
4472	1.154899
4456	-0.160074
4440	-0.628542
4424	-0.636982
4408	0.078916
4392	0.166225
4376	0.489187
4360	0.421500
4344	0.138187
4328	0.132918
4312	0.285196
4296	-0.048971
4280	-0.045847
4264	0.220751
4248	0.068306
4232	-0.038123
4216	0.225424
4200	0.584173
4184	0.171303
4168	0.286698
4152	0.203108
4136	0.447702
4120	-0.095868
4104	0.265789
4088	0.074934
4072	0.179934
4056	0.124454
4040	0.204849
4024	0.125384
4008	0.062322
3992	-0.099301
3976	-0.037837
3960	0.086355
3944	0.052309
3928	0.054693
3912	0.162601
3896	0.004649
3880	-0.132298
3864	-0.065064
3848	0.007224
3832	0.005269
3816	0.239181
3800	0.084900
3784	0.061058
3768	-0.001883
3752	0.054836
3736	0.050449
3720	0.012874
3704	0.034451
3688	0.007224
3672	0.078058
3656	-0.090718
3640	-0.055909
3624	0.076413
3608	-0.119781
3592	0.124382
3576	0.032043
3560	0.038743
3544	-0.005984
3528	-0.061964
3512	0.033974
3496	0.020408
3480	-0.023913
3464	0.138640
3448	0.039505
3432	0.164461
3416	0.090885
3400	0.035214
3384	0.151944
3368	0.147509
3352	0.004506
3336	-0.052952
3320	-0.127172
3304	0.067949
3288	0.080609
3272	0.013852
3256	0.057840
3240	0.000691
3224	0.038504
3208	0.159907
3192	-0.229096
3176	-0.056958
3160	-0.022649
3144	0.221657
3128	-0.133132
3112	-0.086593
3096	0.092434
3080	0.145983
3064	0.031638
3048	-0.071358
3032	0.040078
3016	0.082898
3000	0.010871
2984	0.169992
2968	0.100135
2952	0.041294
2936	0.038051
2920	-0.037956
2904	0.042533
2888	0.100517
2872	0.077009
2856	-0.091838
2840	0.009036
2824	-0.041866
2808	0.060319
2792	-0.007128
2776	0.006794
2760	0.009441
2744	0.076198
2728	0.104355
2712	-0.129318
2696	-0.034928
2680	0.010371
2664	0.042152
2648	0.108098
2632	0.071406
2616	-0.102400
2600	0.014662
2584	-0.038838
2568	0.140738
2552	-0.070738
2536	-0.025725
2520	-0.081038
2504	0.063157
2488	-0.001811
2472	-0.010919
2456	0.002002
2440	0.132060
2424	-0.013971
2408	0.281500
2392	-0.104475
2376	-0.040125
2360	-0.055241
2344	0.135207
2328	-0.087189
2312	-0.037074
2296	0.050139
2280	-0.005626
2264	0.120997
2248	0.158619
2232	0.351691
2216	0.529241
2200	0.808167
2184	1.330232
2168	1.818466
2152	2.577519
2136	3.587675
2120	4.739022
2104	5.908203
2088	7.334780
2072	8.773183
2056	10.0197
2040	11.4727
2024	13.0101
2008	14.2976
1992	15.4311
1976	16.6208
1960	17.7539
1944	18.6541
1928	19.4973
1912	20.2734
1896	20.8371
1880	21.4484
1864	22.0303
1848	22.4132
1832	22.6899
1816	22.9631
1800	23.3627
1784	23.6149
1768	23.6861
1752	23.8231
1736	23.9352
1720	24.159
1704	24.0677
1688	24.2116
1672	24.204
1656	24.297
1640	24.1298
1624	24.2736
1608	24.1606
1592	24.2447
1576	24.1512
1560	24.1684
1544	24.125
1528	24.1529
1512	24.1188
1496	24.1517
1480	23.9384
1464	24.0423
1448	23.8623
1432	23.8303
1416	23.8673
1400	23.5778
1384	23.719
1368	23.4946
1352	23.494
1336	23.4785
1320	23.4639
1304	23.412
1288	23.3376
1272	23.2469
1256	23.1344
1240	23.1118
1224	22.9409
1208	22.9078
1192	22.9589
1176	22.6278
1160	22.629
1144	22.383
1128	22.1594
1112	22.2496
1096	21.9818
1080	22.0989
1064	21.7788
1048	21.6948
1032	21.5537
1016	21.608
1000	21.3083
984	 20.8862
968	 20.7656
952	 20.4001
936	 20.2412
920	 20.2306
904	 19.7064
888	 19.6363
872	 19.2682
856	 19.0915
840	 18.8399
824	 18.4607
808	 18.1474
792	 17.8186
776	 17.5248
760	 17.1786
744	 17.0477
728	 16.8416
712	 16.2279
696	 16.1561
680	 15.9086
664	 15.0191
648	 15.4046
632	 13.8361
616	 14.6178
600	 13.8201
584	 13.8789
568	 13.1459
552	 12.9654
536	 12.6648
520	 12.3495
504	 11.9576
488	 11.2087
472	 10.1882
456	 10.6981
440	 11.212
424	 11.7557
408	 16.5382
392	 19.4886
376	 -10.8243
370	 -13.6148