File: Bakgrunnsmateriale/MATLAB/FTIR/ftir_data/LPE453/Mapping_121/LPE453_t97_cm-1.asc
PE IR       SPECTRUM    SPECTRUM    ASCII       PEDS        1.60
  -1
LPEBDB~1.ASC
17/05/16
22:20:30.00
17/05/16
22:20:30.00
tln
$LPE453_t0097$<tbV0>[-7.8,7.8,8.0,0.0,27,1,0]
370
64

2002,4.07
MIRTGS : RIGHTBACK : INTERNAL 2
MIR : ON : INTERNAL 2
OPTKBR

0.200000
8
8.000000
FILLER
RATIO
SPECTRUM
UNLOCKED 256

DOUBLE
64
COMBINED
1
0
0

1.000000
RATIO

1
0
TRUE
51149
0
LEFT NOT FITTED RIGHT NOT FITTED 0
NONE
NONE
15600
12
4.427000
51148
TRUE
1 0 8 72 0 0 0 0

15798

#HDR
-1
-1
#GR
CM-1
%T
2.38419e-05
0.0
5000
-1.000000
4631
8
36.8793
-13.4294
#DATA
5000	-0.334215
4984	0.032663
4968	0.172162
4952	0.060915
4936	-0.111007
4920	0.038909
4904	0.113034
4888	0.729799
4872	0.095605
4856	0.781822
4840	0.097918
4824	0.193905
4808	0.317645
4792	0.573205
4776	0.186562
4760	0.535273
4744	0.504899
4728	-0.454545
4712	-0.806832
4696	0.479269
4680	0.583791
4664	1.189684
4648	0.421237
4632	1.545047
4616	-0.611376
4600	1.277756
4584	0.583744
4568	1.383113
4552	0.859618
4536	0.126433
4520	-0.540518
4504	-8.579611
4488	4.184865
4472	0.601673
4456	0.287032
4440	0.511336
4424	0.560569
4408	0.277471
4392	0.584864
4376	0.090742
4360	0.314140
4344	0.712704
4328	0.181722
4312	0.247454
4296	-0.077509
4280	0.419306
4264	-0.116348
4248	0.080442
4232	-0.049638
4216	0.019311
4200	0.221061
4184	0.159883
4168	-0.215315
4152	0.014662
4136	0.170016
4120	0.054335
4104	-0.027513
4088	0.194501
4072	0.013875
4056	-0.010681
4040	0.145268
4024	0.031089
4008	0.050330
3992	-0.052642
3976	0.072646
3960	0.255441
3944	-0.000071
3928	0.061106
3912	-0.008654
3896	0.218296
3880	-0.005745
3864	-0.023078
3848	0.302195
3832	0.053334
3816	0.002503
3800	-0.087761
3784	0.015449
3768	0.076198
3752	0.208401
3736	0.069546
3720	0.153851
3704	0.040245
3688	-0.055599
3672	0.074577
3656	0.101542
3640	0.101852
3624	0.040936
3608	0.023794
3592	-0.031232
3576	0.118446
3560	-0.026535
3544	-0.030875
3528	0.089144
3512	0.181889
3496	0.190639
3480	-0.044131
3464	0.051736
3448	0.007271
3432	0.215816
3416	0.076007
3400	-0.008130
3384	0.039720
3368	0.029826
3352	0.017094
3336	0.166344
3320	0.041460
3304	-0.029826
3288	0.082683
3272	-0.030493
3256	-0.070667
3240	-0.077557
3224	-0.098824
3208	0.024724
3192	0.122261
3176	0.094842
3160	0.076675
3144	0.202918
3128	0.032067
3112	0.033426
3096	0.042366
3080	0.110173
3064	0.212407
3048	-0.073194
3032	0.090956
3016	0.056695
3000	0.062751
2984	0.062561
2968	0.091862
2952	0.045228
2936	0.156092
2920	0.055789
2904	-0.037360
2888	0.004911
2872	-0.063395
2856	0.057673
2840	0.117683
2824	0.060725
2808	0.052618
2792	0.010991
2776	0.008630
2760	0.013327
2744	-0.071740
2728	0.002193
2712	0.036978
2696	-0.010728
2680	0.014710
2664	0.050663
2648	-0.041794
2632	-0.022435
2616	0.097966
2600	0.054216
2584	0.109124
2568	0.075268
2552	0.112533
2536	0.019621
2520	-0.009822
2504	0.023150
2488	-0.004458
2472	-0.042843
2456	-0.035023
2440	-0.015282
2424	0.046706
2408	-0.050258
2392	0.039768
2376	0.135731
2360	0.184965
2344	0.313758
2328	0.446534
2312	0.641536
2296	1.062631
2280	1.373267
2264	1.794004
2248	2.422118
2232	3.276252
2216	4.278612
2200	5.653452
2184	7.012581
2168	8.755111
2152	10.6122
2136	12.7258
2120	14.7733
2104	16.8021
2088	18.8882
2072	21.0854
2056	22.7285
2040	24.4483
2024	26.3648
2008	27.6309
1992	28.5668
1976	30.1868
1960	31.2778
1944	31.6161
1928	32.3299
1912	33.4817
1896	33.7608
1880	33.7067
1864	34.493
1848	35.3291
1832	35.1226
1816	34.9208
1800	35.6293
1784	36.1407
1768	35.6959
1752	35.5951
1736	36.2515
1720	36.4245
1704	35.7985
1688	35.9793
1672	36.6865
1656	36.5375
1640	35.9063
1624	36.1934
1608	36.7933
1592	36.5384
1576	35.7572
1560	36.3532
1544	36.8121
1528	36.2801
1512	35.8151
1496	36.2627
1480	36.8691
1464	36.158
1448	35.7072
1432	36.3759
1416	36.5584
1400	35.8631
1384	35.6805
1368	36.2277
1352	36.6358
1336	35.7441
1320	35.513
1304	36.3568
1288	36.4412
1272	35.5107
1256	35.4189
1240	36.3314
1224	36.3772
1208	35.32
1192	35.2262
1176	36.1567
1160	36.0894
1144	35.2265
1128	35.363
1112	36.0271
1096	36.086
1080	34.8227
1064	35.0054
1048	35.7594
1032	35.8248
1016	34.5511
1000	34.6804
984	 35.582
968	 35.3654
952	 34.2115
936	 34.5115
920	 35.1535
904	 34.6218
888	 33.5517
872	 33.8082
856	 34.7319
840	 34.2543
824	 33.1541
808	 33.3477
792	 34.147
776	 33.5397
760	 32.172
744	 32.4674
728	 33.3486
712	 32.5976
696	 31.4355
680	 31.5694
664	 31.9628
648	 31.3662
632	 30.0467
616	 30.2517
600	 31.2603
584	 29.9468
568	 28.7618
552	 28.6693
536	 29.898
520	 28.4851
504	 27.5568
488	 27.9
472	 27.7424
456	 26.9104
440	 24.9576
424	 26.3989
408	 25.8057
392	 17.4999
376	 18.3108
370	 26.1805