File: Bakgrunnsmateriale/MATLAB/FTIR/ftir_data/LPE453/Mapping_121/LPE453_t83.asc
PE IR       SPECTRUM    SPECTRUM    ASCII       PEDS        1.60
  -1
LPC3B5~1.ASC
17/05/16
21:09:28.00
17/05/16
21:09:54.00
tln
$LPE453_t0083$<tbV0>[0.0,5.2,8.0,0.0,27,1,0]
27.028
64

2002,4.07
MIRTGS : RIGHTBACK : INTERNAL 2
MIR : ON : INTERNAL 2
OPTKBR

0.200000
8
8.000000
FILLER
RATIO
SPECTRUM
UNLOCKED 256

DOUBLE
64
COMBINED
1
0
0

0.002000
RATIO

1
0
TRUE
51149
0
LEFT NOT FITTED RIGHT NOT FITTED 0
NONE
NONE
15600
12
4.427000
51148
TRUE
1 0 8 72 0 0 0 0

15798

#HDR
-1
-1
#GR
µM
%T
2.38419e-05
0.0
2.000000
0.002000
12515
8
35.2099
-2.187054
#DATA
2.000000	 0.232791
2.084000	 0.563605
2.168000	 -0.251065
2.252000	 -0.776325
2.336000	 -0.191921
2.420000	 0.227777
2.504000	 -0.128676
2.588000	 0.114854
2.672000	 0.102443
2.756000	 0.072683
2.840000	 0.115458
2.924000	 0.063793
3.008000	 0.037752
3.092000	 0.059908
3.176000	 0.217521
3.260000	 -0.108154
3.344000	 0.086275
3.428000	 -0.044547
3.512000	 -0.043617
3.596000	 0.031659
3.680000	 -0.007391
3.764000	 -0.098391
3.848000	 0.061027
3.932000	 0.115363
4.016000	 0.116092
4.100000	 0.012561
4.184000	 0.023015
4.268000	 0.196247
4.352000	 0.581319
4.436000	 1.614805
4.520000	 3.830298
4.604000	 7.255671
4.688000	 11.7775
4.772000	 16.5271
4.856000	 20.946
4.940000	 24.6166
5.024000	 27.3681
5.108000	 29.7555
5.192000	 31.0912
5.276000	 32.4031
5.359999	 33.2061
5.444000	 33.5025
5.528000	 34.304
5.612000	 34.2378
5.696000	 34.8146
5.780000	 34.6375
5.864000	 35.0261
5.948000	 34.8634
6.032000	 34.9098
6.116000	 35.0808
6.200000	 34.6633
6.284000	 35.0275
6.368000	 34.7868
6.452000	 34.6316
6.536000	 34.9949
6.620000	 34.6382
6.704000	 34.714
6.788000	 34.9773
6.872000	 34.3033
6.956000	 34.5695
7.040000	 34.8644
7.124000	 34.3118
7.208000	 34.2161
7.292000	 34.6681
7.376000	 34.4315
7.460000	 33.8685
7.544000	 34.2064
7.628000	 34.4821
7.712000	 34.0781
7.796000	 33.6988
7.880000	 34.0954
7.964000	 34.3925
8.048000	 33.8593
8.132000	 33.4845
8.216000	 33.6512
8.300000	 34.0456
8.384000	 33.9002
8.468000	 33.3572
8.552000	 33.0711
8.635999	 33.6162
8.719999	 33.6426
8.804000	 33.6318
8.888000	 33.0105
8.972000	 32.8567
9.056000	 33.1431
9.140000	 33.4527
9.224000	 33.2982
9.308000	 32.9289
9.391999	 32.5831
9.475999	 32.3982
9.560000	 32.8298
9.644000	 32.9963
9.728000	 32.809
9.812000	 32.6103
9.896000	 32.1262
9.980000	 32.0104
10.064	32.1884
10.148	32.5649
10.232	32.6743
10.316	32.2846
10.4	31.8161
10.484	31.507
10.568	31.3611
10.652	31.6375
10.736	31.8358
10.82	32.0282
10.904	31.8849
10.988	31.4965
11.072	31.0878
11.156	30.6502
11.24	30.5034
11.324	30.8181
11.408	31.0428
11.492	31.2822
11.576	31.3217
11.66	31.2011
11.744	30.7363
11.828	30.3877
11.912	30.1961
11.996	29.9895
12.08	30.0902
12.164	30.4734
12.248	30.492
12.332	30.3423
12.416	30.4845
12.5	30.2931
12.584	29.7138
12.668	29.281
12.752	29.0106
12.836	28.9493
12.92	29.0092
13.004	29.1272
13.088	29.2775
13.172	29.5109
13.256	29.5411
13.34	29.3714
13.424	29.2277
13.508	29.0247
13.592	28.6958
13.676	28.2764
13.76	28.0428
13.844	27.9679
13.928	27.9484
14.012	28.0994
14.096	28.3752
14.18	28.5741
14.264	28.4358
14.348	28.1261
14.432	28.0301
14.516	28.099
14.6	27.974
14.684	27.6421
14.768	27.2402
14.852	26.9046
14.936	26.8677
15.02	27.0404
15.104	27.0998
15.188	27.0251
15.272	27.0027
15.356	27.05
15.44	27.1215
15.524	27.2355
15.608	27.3464
15.692	27.3624
15.776	27.2141
15.86	26.8684
15.944	26.4026
16.028	25.9793
16.112	25.6979
16.196	25.5828
16.28	25.6366
16.364	25.7779
16.448	25.8357
16.532	25.7258
16.616	25.5534
16.7	25.4832
16.784	25.5886
16.868	25.8287
16.952	26.057
17.036	26.0808
17.12	25.8429
17.204	25.496
17.288	25.1971
17.372	24.9179
17.456	24.5861
17.54	24.2808
17.624	24.1142
17.708	24.0532
17.792	24.0076
17.876	23.9696
17.96	23.9811
18.044	24.0597
18.128	24.2113
18.212	24.3998
18.296	24.5189
18.38	24.4967
18.464	24.3982
18.548	24.3499
18.632	24.3916
18.716	24.4469
18.8	24.4253
18.884	24.3127
18.968	24.1661
19.052	24.0469
19.136	23.9578
19.22	23.8312
19.304	23.5947
19.388	23.2458
19.472	22.8614
19.556	22.5413
19.64	22.3475
19.724	22.2945
19.808	22.3735
19.892	22.5561
19.976	22.7664
20.06	22.8817
20.144	22.8021
20.228	22.5431
20.312	22.2514
20.396	22.1072
20.48	22.195
20.564	22.4535
20.648	22.7424
20.732	22.9514
20.816	23.051
20.9	23.0703
20.984	23.033
21.068	22.9298
21.152	22.7342
21.236	22.4343
21.32	22.0443
21.404	21.5973
21.488	21.1378
21.572	20.7103
21.656	20.3452
21.74	20.0606
21.824	19.8691
21.908	19.7913
21.992	19.8458
22.076	20.0178
22.16	20.2435
22.244	20.4227
22.328	20.474
22.412	20.386
22.496	20.2221
22.58	20.0609
22.664	19.9414
22.748	19.8435
22.832	19.7301
22.916	19.6013
23	19.5257
23.084	19.6131
23.168	19.95
23.252	20.5395
23.336	21.312
23.42	22.1348
23.504	22.859
23.588	23.3505
23.672	23.5052
23.756	23.2605
23.84	22.6625
23.924	21.8498
24.008	21.0184
24.092	20.3649
24.176	19.9893
24.26	19.8576
24.344	19.8373
24.428	19.814
24.512	19.7974
24.596	19.9381
24.68	20.4781
24.764	21.6186
24.848	23.3685
24.932	25.4788
25.016	27.4929
25.1	28.9424
25.184	29.3514
25.268	28.4086
25.352	26.0559
25.436	22.5216
25.52	18.2574
25.604	13.7728
25.688	9.620553
25.772	6.275127
25.856	4.034415
25.94	2.962382
26.024	2.899178
26.108	3.521703
26.192	4.405015
26.276	5.121875
26.36	5.317187
26.444	4.753671
26.528	3.436189
26.612	1.601360
26.696	-0.130314
26.78	-0.861883
26.864	0.298637
26.948	3.819807
27.028	9.101724