File: Bakgrunnsmateriale/MATLAB/FTIR/ftir_data/LPE453/Mapping_121/LPE453_t49.asc
PE IR       SPECTRUM    SPECTRUM    ASCII       PEDS        1.60
  -1
LPE3AD~1.ASC
17/05/16
18:24:43.00
17/05/16
18:25:09.00
tln
$LPE453_t0049$<tbV0>[2.6,-2.6,8.0,0.0,27,1,0]
27.028
64

2002,4.07
MIRTGS : RIGHTBACK : INTERNAL 2
MIR : ON : INTERNAL 2
OPTKBR

0.200000
8
8.000000
FILLER
RATIO
SPECTRUM
UNLOCKED 256

DOUBLE
64
COMBINED
1
0
0

0.002000
RATIO

1
0
TRUE
51149
0
LEFT NOT FITTED RIGHT NOT FITTED 0
NONE
NONE
15600
12
4.427000
51148
TRUE
1 0 8 72 0 0 0 0

15798

#HDR
-1
-1
#GR
µM
%T
2.38419e-05
0.0
2.000000
0.002000
12515
8
24.6228
-5.902590
#DATA
2.000000	 0.247406
2.084000	 -0.199881
2.168000	 0.512953
2.252000	 -0.126891
2.336000	 0.057928
2.420000	 0.229786
2.504000	 0.084647
2.588000	 0.077709
2.672000	 0.119275
2.756000	 0.060080
2.840000	 -0.049133
2.924000	 0.042421
3.008000	 0.030694
3.092000	 -0.022325
3.176000	 -0.020109
3.260000	 0.103360
3.344000	 0.079553
3.428000	 -0.040417
3.512000	 -0.040645
3.596000	 -0.001724
3.680000	 0.036289
3.764000	 -0.020802
3.848000	 -0.019700
3.932000	 -0.021962
4.016000	 0.018461
4.100000	 0.042038
4.184000	 -0.109721
4.268000	 -0.072068
4.352000	 -0.009915
4.436000	 0.008068
4.520000	 0.732933
4.604000	 1.890376
4.688000	 4.089208
4.772000	 7.036516
4.856000	 10.3864
4.940000	 13.4691
5.024000	 16.1748
5.108000	 18.3125
5.192000	 20.0202
5.276000	 21.262
5.359999	 22.2483
5.444000	 22.8835
5.528000	 23.4773
5.612000	 23.906
5.696000	 24.2267
5.780000	 24.1429
5.864000	 24.4643
5.948000	 24.4646
6.032000	 24.4849
6.116000	 24.4259
6.200000	 24.601
6.284000	 24.5897
6.368000	 24.6042
6.452000	 24.4615
6.536000	 24.4355
6.620000	 24.4255
6.704000	 24.3354
6.788000	 24.3493
6.872000	 24.2621
6.956000	 24.1025
7.040000	 24.1521
7.124000	 23.9443
7.208000	 23.9602
7.292000	 23.966
7.376000	 23.7902
7.460000	 23.9614
7.544000	 23.7796
7.628000	 23.7181
7.712000	 23.691
7.796000	 23.4804
7.880000	 23.4924
7.964000	 23.509
8.048000	 23.3355
8.132000	 23.3858
8.216000	 23.2066
8.300000	 23.0782
8.384000	 23.0525
8.468000	 23.0399
8.552000	 22.9251
8.635999	 22.9805
8.719999	 22.8817
8.804000	 22.4362
8.888000	 22.696
8.972000	 22.5168
9.056000	 22.4764
9.140000	 22.271
9.224000	 22.3446
9.308000	 22.3437
9.391999	 22.1236
9.475999	 21.9741
9.560000	 22.2445
9.644000	 22.021
9.728000	 21.8185
9.812000	 21.4153
9.896000	 21.5222
9.980000	 21.7523
10.064	21.5788
10.148	21.5196
10.232	21.1192
10.316	20.8813
10.4	21.1299
10.484	21.1712
10.568	21.1846
10.652	20.7934
10.736	20.5354
10.82	20.5592
10.904	20.5281
10.988	20.4394
11.072	20.1494
11.156	20.041
11.24	20.0645
11.324	19.864
11.408	19.7692
11.492	19.7882
11.576	19.5963
11.66	19.4261
11.744	19.2813
11.828	19.3179
11.912	19.227
11.996	19.1466
12.08	18.9868
12.164	19.0164
12.248	18.8594
12.332	18.6891
12.416	18.6082
12.5	18.5093
12.584	18.2169
12.668	17.9808
12.752	18.0615
12.836	17.9716
12.92	17.8873
13.004	17.7967
13.088	17.7951
13.172	17.8019
13.256	17.8079
13.34	17.8574
13.424	17.6193
13.508	17.3041
13.592	17.1984
13.676	17.1674
13.76	17.1375
13.844	17.1437
13.928	16.9901
14.012	16.8085
14.096	16.6413
14.18	16.4669
14.264	16.4803
14.348	16.597
14.432	16.5207
14.516	16.2806
14.6	16.2153
14.684	16.2896
14.768	16.1334
14.852	15.8061
14.936	15.6441
15.02	15.6306
15.104	15.5185
15.188	15.2852
15.272	15.1024
15.356	15.0727
15.44	15.175
15.524	15.2652
15.608	15.1944
15.692	15.0108
15.776	14.8153
15.86	14.6669
15.944	14.6578
16.028	14.7285
16.112	14.7069
16.196	14.6378
16.28	14.622
16.364	14.5482
16.448	14.348
16.532	14.1224
16.616	13.9226
16.7	13.754
16.784	13.6981
16.868	13.7802
16.952	13.8822
17.036	13.9103
17.12	13.9167
17.204	13.9795
17.288	14.0381
17.372	13.9694
17.456	13.7759
17.54	13.571
17.624	13.4118
17.708	13.268
17.792	13.1385
17.876	13.0791
17.96	13.099
18.044	13.1211
18.128	13.0755
18.212	12.9982
18.296	12.9776
18.38	13.0227
18.464	13.0482
18.548	12.9842
18.632	12.8365
18.716	12.6517
18.8	12.4784
18.884	12.3678
18.968	12.3574
19.052	12.4187
19.136	12.4654
19.22	12.4377
19.304	12.3687
19.388	12.3308
19.472	12.3349
19.556	12.3154
19.64	12.217
19.724	12.0692
19.808	11.9465
19.892	11.8642
19.976	11.7404
20.06	11.4747
20.144	11.0703
20.228	10.668
20.312	10.463
20.396	10.5678
20.48	10.9422
20.564	11.4246
20.648	11.8381
20.732	12.0788
20.816	12.1398
20.9	12.0768
20.984	11.9515
21.068	11.8107
21.152	11.6773
21.236	11.5587
21.32	11.4449
21.404	11.301
21.488	11.0843
21.572	10.7719
21.656	10.3832
21.74	9.976202
21.824	9.621757
21.908	9.370112
21.992	9.242259
22.076	9.245511
22.16	9.385116
22.244	9.664756
22.328	10.0505
22.412	10.4492
22.496	10.7187
22.58	10.732
22.664	10.4412
22.748	9.917095
22.832	9.301863
22.916	8.759305
23	8.381547
23.084	8.182795
23.168	8.122646
23.252	8.153898
23.336	8.249238
23.42	8.385598
23.504	8.523364
23.588	8.608930
23.672	8.598651
23.756	8.488042
23.84	8.331559
23.924	8.214954
24.008	8.239375
24.092	8.506016
24.176	9.065362
24.26	9.910848
24.344	10.9816
24.428	12.1844
24.512	13.4094
24.596	14.5561
24.68	15.5391
24.764	16.2962
24.848	16.7795
24.932	16.9596
25.016	16.8467
25.1	16.5131
25.184	16.039
25.268	15.4739
25.352	14.8263
25.436	14.0257
25.52	12.9267
25.604	11.3653
25.688	9.307175
25.772	6.904163
25.856	4.447183
25.94	2.326533
26.024	0.923436
26.108	0.450359
26.192	0.811850
26.276	1.629467
26.36	2.359596
26.444	2.456012
26.528	1.601142
26.612	-0.189797
26.696	-2.502861
26.78	-4.672077
26.864	-5.853100
26.948	-5.365044
27.028	-3.165459