File: Bakgrunnsmateriale/MATLAB/FTIR/ftir_data/LPE453/Mapping_121/LPE453_t17_cm-1.asc
PE IR       SPECTRUM    SPECTRUM    ASCII       PEDS        1.60
  -1
LPE7DA~1.ASC
17/05/16
15:42:27.00
17/05/16
15:42:27.00
tln
$LPE453_t0017$<tbV0>[0.0,-10.4,8.0,0.0,27,1,0]
370
64

2002,4.07
MIRTGS : RIGHTBACK : INTERNAL 2
MIR : ON : INTERNAL 2
OPTKBR

0.200000
8
8.000000
FILLER
RATIO
SPECTRUM
UNLOCKED 256

DOUBLE
64
COMBINED
1
0
0

1.000000
RATIO

1
0
TRUE
51149
0
LEFT NOT FITTED RIGHT NOT FITTED 0
NONE
NONE
15600
12
4.427000
51148
TRUE
1 0 8 72 0 0 0 0

15798

#HDR
-1
-1
#GR
CM-1
%T
2.38419e-05
0.0
5000
-1.000000
4631
8
36.3254
-7.518148
#DATA
5000	-0.100755
4984	-0.073289
4968	-0.271677
4952	0.560975
4936	0.147438
4920	0.115132
4904	0.503730
4888	0.781011
4872	0.022792
4856	0.074672
4840	-0.108075
4824	0.047183
4808	0.242447
4792	-0.102996
4776	-0.112748
4760	-0.058031
4744	0.247120
4728	-0.163245
4712	0.391244
4696	-0.117826
4680	0.137209
4664	0.214290
4648	0.224280
4632	0.682568
4616	-0.397348
4600	0.580382
4584	0.114870
4568	-0.315022
4552	0.277256
4536	-0.946378
4520	11.5168
4504	-3.941655
4488	0.355529
4472	-0.867676
4456	0.362420
4440	0.465059
4424	0.356626
4408	0.515365
4392	0.350880
4376	0.284457
4360	0.074172
4344	0.423383
4328	0.267124
4312	-0.003671
4296	-0.163292
4280	0.109601
4264	0.202155
4248	0.132083
4232	0.100016
4216	0.264692
4200	0.523042
4184	0.612115
4168	0.220966
4152	-0.316882
4136	0.175142
4120	0.040650
4104	0.086617
4088	0.086498
4072	0.240564
4056	0.032544
4040	0.162100
4024	0.039529
4008	0.152015
3992	0.035309
3976	0.193214
3960	0.142216
3944	-0.057697
3928	0.138878
3912	0.070714
3896	-0.070357
3880	-0.001263
3864	0.143074
3848	0.052833
3832	0.059366
3816	0.407052
3800	0.238275
3784	0.184226
3768	-0.121116
3752	-0.167417
3736	0.040006
3720	0.172996
3704	0.038886
3688	0.057959
3672	0.036144
3656	0.076150
3640	0.136637
3624	0.211691
3608	0.099086
3592	-0.074458
3576	0.105381
3560	0.144886
3544	-0.073933
3528	0.094938
3512	0.073266
3496	-0.027561
3480	0.124454
3464	0.112390
3448	0.054121
3432	-0.093579
3416	-0.076580
3400	-0.064849
3384	-0.085592
3368	0.046133
3352	0.246548
3336	0.118064
3320	-0.041794
3304	0.068688
3288	0.096392
3272	0.103569
3256	0.038051
3240	-0.045609
3224	0.200057
3208	0.105595
3192	-0.140881
3176	0.197720
3160	-0.024104
3144	0.136947
3128	0.060629
3112	0.250530
3096	-0.161266
3080	-0.099921
3064	-0.036263
3048	0.094199
3032	0.103306
3016	-0.022816
3000	0.018787
2984	0.007438
2968	0.098490
2952	0.062656
2936	0.027680
2920	0.011754
2904	0.122332
2888	-0.002026
2872	-0.009846
2856	0.282454
2840	0.064706
2824	0.032472
2808	0.017452
2792	0.152373
2776	0.021076
2760	0.022792
2744	0.022220
2728	-0.017905
2712	0.034904
2696	0.035071
2680	-0.046157
2664	-0.010848
2648	-0.012588
2632	-0.160360
2616	0.063753
2600	0.085401
2584	0.087881
2568	0.097727
2552	0.087261
2536	0.063228
2520	0.196552
2504	-0.130724
2488	0.026011
2472	-0.090503
2456	0.074362
2440	-0.068402
2424	-0.018739
2408	0.113797
2392	0.057053
2376	0.059294
2360	0.062251
2344	0.089597
2328	0.135159
2312	0.194787
2296	0.251936
2280	0.412559
2264	0.630474
2248	1.033687
2232	1.625728
2216	2.218627
2200	3.014850
2184	3.998517
2168	5.239510
2152	6.610584
2136	8.478832
2120	10.2381
2104	12.1305
2088	14.0711
2072	15.6853
2056	17.6548
2040	19.3483
2024	21.1261
2008	22.4621
1992	23.8143
1976	25.0142
1960	26.1015
1944	27.0203
1928	27.7837
1912	28.558
1896	29.1813
1880	29.6249
1864	30.2212
1848	30.5383
1832	30.9541
1816	31.0853
1800	31.5201
1784	31.6801
1768	31.9036
1752	31.9739
1736	32.2355
1720	32.2484
1704	32.3458
1688	32.407
1672	32.428
1656	32.6682
1640	32.5577
1624	32.4992
1608	32.4579
1592	32.5186
1576	32.6069
1560	32.764
1544	32.6831
1528	32.5696
1512	32.6181
1496	32.4656
1480	32.4147
1464	32.6302
1448	32.2006
1432	32.3451
1416	32.2808
1400	32.0719
1384	32.226
1368	32.2552
1352	32.1073
1336	32.0266
1320	32.0613
1304	32.2013
1288	32.0369
1272	31.9732
1256	31.9199
1240	31.9614
1224	32.0123
1208	31.8371
1192	32.0737
1176	31.7618
1160	31.7807
1144	31.771
1128	31.6849
1112	31.584
1096	31.3432
1080	31.6887
1064	31.1463
1048	31.028
1032	31.2058
1016	30.9771
1000	31.049
984	 30.6863
968	 30.9367
952	 30.6942
936	 30.4695
920	 30.5933
904	 30.0298
888	 29.9521
872	 29.8174
856	 29.6811
840	 29.1641
824	 29.2632
808	 29.0162
792	 28.7786
776	 28.4873
760	 28.5305
744	 27.3991
728	 27.5424
712	 27.6846
696	 27.0317
680	 26.8878
664	 26.5891
648	 26.434
632	 25.5216
616	 25.8038
600	 25.7073
584	 24.4292
568	 24.6746
552	 24.2594
536	 23.2718
520	 23.3985
504	 22.3501
488	 21.8926
472	 21.5843
456	 21.721
440	 21.2736
424	 17.1177
408	 13.207
392	 -1.731610
376	 15.5846
370	 -1.677393