File: Bakgrunnsmateriale/MATLAB/FTIR/ftir_data/LPE453/Mapping_121/LPE453_t38_cm-1.asc
PE IR       SPECTRUM    SPECTRUM    ASCII       PEDS        1.60
  -1
LPE859~1.ASC
17/05/16
17:27:03.00
17/05/16
17:27:03.00
tln
$LPE453_t0038$<tbV0>[2.6,-5.2,8.0,0.0,27,1,0]
370
64

2002,4.07
MIRTGS : RIGHTBACK : INTERNAL 2
MIR : ON : INTERNAL 2
OPTKBR

0.200000
8
8.000000
FILLER
RATIO
SPECTRUM
UNLOCKED 256

DOUBLE
64
COMBINED
1
0
0

1.000000
RATIO

1
0
TRUE
51149
0
LEFT NOT FITTED RIGHT NOT FITTED 0
NONE
NONE
15600
12
4.427000
51148
TRUE
1 0 8 72 0 0 0 0

15798

#HDR
-1
-1
#GR
CM-1
%T
2.38419e-05
0.0
5000
-1.000000
4631
8
24.7062
-32.1574
#DATA
5000	0.246620
4984	-0.152301
4968	0.543904
4952	0.099778
4936	0.043010
4920	0.055670
4904	-0.177049
4888	0.056791
4872	0.376415
4856	0.339651
4840	0.170278
4824	0.347089
4808	-0.060391
4792	0.077033
4776	-0.291824
4760	0.297474
4744	-0.158667
4728	0.631737
4712	0.184249
4696	0.284695
4680	0.475716
4664	0.604605
4648	0.617098
4632	0.193953
4616	0.567746
4600	0.434851
4584	-0.412869
4568	-0.376677
4552	-0.733661
4536	-1.126337
4520	8.268857
4504	3.229093
4488	0.549888
4472	0.164604
4456	0.197339
4440	-0.095081
4424	0.227665
4408	0.269460
4392	0.024819
4376	0.501108
4360	0.143575
4344	0.192189
4328	0.310778
4312	0.001835
4296	0.236582
4280	0.173139
4264	0.234532
4248	0.261783
4232	0.198316
4216	0.257277
4200	0.029969
4184	0.109744
4168	0.682878
4152	0.081849
4136	0.069379
4120	0.165414
4104	0.207829
4088	-0.054526
4072	0.165200
4056	0.095367
4040	0.002956
4024	0.078964
4008	0.199937
3992	0.135254
3976	0.259113
3960	0.086951
3944	0.024914
3928	0.049591
3912	0.072765
3896	0.016331
3880	-0.272893
3864	-0.051665
3848	0.212001
3832	0.178050
3816	-0.081992
3800	0.188589
3784	0.045204
3768	0.109791
3752	0.215482
3736	0.041723
3720	0.130701
3704	0.100970
3688	-0.027728
3672	0.009083
3656	0.191044
3640	-0.018358
3624	-0.094056
3608	0.012469
3592	-0.031399
3576	0.211811
3560	0.006747
3544	-0.033092
3528	0.043129
3512	0.063204
3496	0.040411
3480	-0.025558
3464	0.038623
3448	0.107049
3432	0.041723
3416	-0.070285
3400	0.034046
3384	0.181078
3368	0.072884
3352	0.176358
3336	-0.140762
3320	0.094556
3304	-0.058722
3288	-0.027370
3272	0.085377
3256	0.079059
3240	0.084948
3224	-0.226068
3208	0.027585
3192	0.069236
3176	-0.000143
3160	0.099539
3144	-0.010013
3128	0.447916
3112	-0.127172
3096	-0.050449
3080	0.129270
3064	0.122046
3048	0.014901
3032	0.092339
3016	0.087380
3000	-0.146031
2984	-0.066399
2968	0.203394
2952	0.061750
2936	0.092673
2920	0.043582
2904	0.109362
2888	0.109362
2872	0.040411
2856	0.086736
2840	-0.005841
2824	0.061583
2808	0.030469
2792	0.015449
2776	-0.013899
2760	0.057482
2744	0.041055
2728	0.038862
2712	0.030994
2696	0.056862
2680	0.016927
2664	0.024509
2648	0.044131
2632	0.069427
2616	0.088524
2600	0.044488
2584	0.032210
2568	-0.026655
2552	0.048828
2536	0.029468
2520	-0.002861
2504	0.108408
2488	-0.020003
2472	-0.023937
2456	0.077557
2440	0.029802
2424	0.218439
2408	0.002336
2392	-0.143647
2376	0.053787
2360	0.107550
2344	0.021743
2328	-0.027966
2312	-0.033378
2296	0.068163
2280	-0.047636
2264	0.152873
2248	0.019431
2232	0.255942
2216	0.432109
2200	0.835895
2184	1.332950
2168	1.847171
2152	2.730512
2136	3.552412
2120	4.630899
2104	5.963373
2088	7.285022
2072	8.706808
2056	10.2069
2040	11.6887
2024	13.0593
2008	14.4433
1992	15.6598
1976	16.7756
1960	17.8207
1944	18.7725
1928	19.6772
1912	20.3814
1896	21.0639
1880	21.5271
1864	22.1191
1848	22.5629
1832	22.9275
1816	23.1988
1800	23.5558
1784	23.7899
1768	23.8387
1752	24.0158
1736	24.1076
1720	24.4331
1704	24.1879
1688	24.405
1672	24.4815
1656	24.555
1640	24.6915
1624	24.4991
1608	24.632
1592	24.3829
1576	24.4895
1560	24.4226
1544	24.4911
1528	24.4997
1512	24.4794
1496	24.4856
1480	24.3076
1464	24.4532
1448	24.1679
1432	24.2947
1416	24.1472
1400	23.9795
1384	24.1766
1368	23.9408
1352	23.913
1336	23.8728
1320	23.7396
1304	23.8449
1288	23.6031
1272	23.7027
1256	23.4771
1240	23.4203
1224	23.3738
1208	23.187
1192	23.323
1176	22.9884
1160	23.0614
1144	22.9961
1128	22.7429
1112	22.7359
1096	22.4984
1080	22.6284
1064	22.262
1048	22.2442
1032	21.9471
1016	21.795
1000	21.7594
984	 21.3391
968	 21.3487
952	 21.2188
936	 20.9719
920	 20.7685
904	 20.3672
888	 20.2073
872	 19.8996
856	 19.4818
840	 19.5696
824	 19.2239
808	 18.7573
792	 18.4988
776	 18.2568
760	 17.9946
744	 17.5036
728	 17.4519
712	 16.9146
696	 16.7216
680	 16.3123
664	 15.4384
648	 15.8359
632	 15.1532
616	 14.9306
600	 14.465
584	 13.9854
568	 13.6177
552	 12.8648
536	 12.8359
520	 11.9033
504	 12.0393
488	 11.7514
472	 11.5259
456	 11.4693
440	 10.0869
424	 9.806036
408	 6.515312
392	 7.383322
376	 -27.0912
370	 -13.6626