File: Bakgrunnsmateriale/MATLAB/FTIR/ftir_data/LPE453/Mapping_121/LPE453_t40.asc
PE IR       SPECTRUM    SPECTRUM    ASCII       PEDS        1.60
  -1
LPC3A9~1.ASC
17/05/16
17:36:16.00
17/05/16
17:36:42.00
tln
$LPE453_t0040$<tbV0>[-2.6,-5.2,8.0,0.0,27,1,0]
27.028
64

2002,4.07
MIRTGS : RIGHTBACK : INTERNAL 2
MIR : ON : INTERNAL 2
OPTKBR

0.200000
8
8.000000
FILLER
RATIO
SPECTRUM
UNLOCKED 256

DOUBLE
64
COMBINED
1
0
0

0.002000
RATIO

1
0
TRUE
51149
0
LEFT NOT FITTED RIGHT NOT FITTED 0
NONE
NONE
15600
12
4.427000
51148
TRUE
1 0 8 72 0 0 0 0

15798

#HDR
-1
-1
#GR
µM
%T
2.38419e-05
0.0
2.000000
0.002000
12515
8
35.691
-13.3731
#DATA
2.000000	 0.362753
2.084000	 0.332909
2.168000	 0.172074
2.252000	 -0.762951
2.336000	 0.412957
2.420000	 0.104149
2.504000	 0.168196
2.588000	 0.128462
2.672000	 0.064216
2.756000	 0.124458
2.840000	 0.086329
2.924000	 0.109545
3.008000	 0.032857
3.092000	 0.057274
3.176000	 -0.026083
3.260000	 -0.030496
3.344000	 0.000367
3.428000	 -0.040256
3.512000	 0.063020
3.596000	 -0.011978
3.680000	 -0.002903
3.764000	 0.106643
3.848000	 -0.007006
3.932000	 0.090118
4.016000	 -0.042412
4.100000	 -0.002735
4.184000	 0.064138
4.268000	 0.074378
4.352000	 0.196167
4.436000	 0.655183
4.520000	 2.371453
4.604000	 5.039724
4.688000	 8.940929
4.772000	 13.4029
4.856000	 17.8183
4.940000	 21.6059
5.024000	 24.4911
5.108000	 26.9735
5.192000	 28.6611
5.276000	 30.029
5.359999	 30.8908
5.444000	 31.662
5.528000	 32.1583
5.612000	 32.4876
5.696000	 32.5767
5.780000	 33.0006
5.864000	 33.0113
5.948000	 33.1304
6.032000	 33.1449
6.116000	 33.1264
6.200000	 33.2722
6.284000	 33.1408
6.368000	 33.1355
6.452000	 33.1179
6.536000	 33.0193
6.620000	 33.183
6.704000	 32.9283
6.788000	 33.0193
6.872000	 33.0298
6.956000	 33.0052
7.040000	 32.93
7.124000	 32.6068
7.208000	 32.6808
7.292000	 32.6149
7.376000	 32.6452
7.460000	 32.56
7.544000	 32.596
7.628000	 32.5752
7.712000	 32.5075
7.796000	 32.3064
7.880000	 32.417
7.964000	 32.2951
8.048000	 32.1205
8.132000	 32.1225
8.216000	 32.0729
8.300000	 32.1121
8.384000	 31.9683
8.468000	 31.8727
8.552000	 32.1263
8.635999	 31.9008
8.719999	 31.6827
8.804000	 31.6995
8.888000	 31.5219
8.972000	 31.6582
9.056000	 31.5561
9.140000	 31.4574
9.224000	 31.5093
9.308000	 31.4432
9.391999	 31.394
9.475999	 31.4367
9.560000	 31.3187
9.644000	 30.881
9.728000	 30.7167
9.812000	 30.8679
9.896000	 30.7169
9.980000	 30.8474
10.064	30.6878
10.148	30.2979
10.232	30.1755
10.316	30.4365
10.4	30.5865
10.484	30.7134
10.568	30.3321
10.652	30.1943
10.736	29.9363
10.82	29.8755
10.904	29.7688
10.988	29.961
11.072	29.7695
11.156	29.6984
11.24	29.4942
11.324	29.2062
11.408	29.0864
11.492	29.027
11.576	28.9656
11.66	29.2899
11.744	29.3833
11.828	29.4296
11.912	29.0957
11.996	28.8401
12.08	28.6041
12.164	28.3028
12.248	28.174
12.332	28.3946
12.416	28.5874
12.5	28.4843
12.584	28.4812
12.668	28.2712
12.752	27.9254
12.836	27.7965
12.92	27.64
13.004	27.6056
13.088	27.5932
13.172	27.4932
13.256	27.5153
13.34	27.8645
13.424	27.9211
13.508	27.3379
13.592	26.9225
13.676	26.8737
13.76	26.6759
13.844	26.5578
13.928	26.579
14.012	26.4765
14.096	26.4292
14.18	26.5803
14.264	26.7375
14.348	26.7672
14.432	26.6293
14.516	26.387
14.6	26.1185
14.684	25.8727
14.768	25.751
14.852	25.6824
14.936	25.6523
15.02	25.7026
15.104	25.6034
15.188	25.2925
15.272	25.0777
15.356	25.1683
15.44	25.4433
15.524	25.5987
15.608	25.512
15.692	25.2787
15.776	24.9113
15.86	24.4909
15.944	24.266
16.028	24.2413
16.112	24.1416
16.196	23.9095
16.28	23.7799
16.364	23.8425
16.448	23.9474
16.532	24.0344
16.616	24.1858
16.7	24.3591
16.784	24.3787
16.868	24.2038
16.952	23.9847
17.036	23.8246
17.12	23.6767
17.204	23.5044
17.288	23.3963
17.372	23.4481
17.456	23.605
17.54	23.6733
17.624	23.5013
17.708	23.1445
17.792	22.8334
17.876	22.7598
17.96	22.8715
18.044	22.9401
18.128	22.8309
18.212	22.6614
18.296	22.6204
18.38	22.7094
18.464	22.7618
18.548	22.6724
18.632	22.4891
18.716	22.3086
18.8	22.1796
18.884	22.0946
18.968	21.9923
19.052	21.7482
19.136	21.2833
19.22	20.7056
19.304	20.2828
19.388	20.2144
19.472	20.4599
19.556	20.8046
19.64	21.064
19.724	21.2026
19.808	21.2684
19.892	21.2908
19.976	21.263
20.06	21.1954
20.144	21.1498
20.228	21.1941
20.312	21.3275
20.396	21.4677
20.48	21.512
20.564	21.4087
20.648	21.1642
20.732	20.8153
20.816	20.4127
20.9	20.0213
20.984	19.7225
21.068	19.578
21.152	19.5964
21.236	19.727
21.32	19.8958
21.404	20.0482
21.488	20.16
21.572	20.227
21.656	20.2425
21.74	20.2072
21.824	20.1406
21.908	20.0751
21.992	20.0333
22.076	20.0064
22.16	19.9562
22.244	19.8495
22.328	19.6887
22.412	19.5133
22.496	19.3825
22.58	19.3299
22.664	19.3587
22.748	19.4756
22.832	19.7175
22.916	20.1286
23	20.7295
23.084	21.4717
23.168	22.2054
23.252	22.7417
23.336	22.9275
23.42	22.722
23.504	22.1832
23.588	21.4487
23.672	20.6798
23.756	20.034
23.84	19.6677
23.924	19.7206
24.008	20.2431
24.092	21.1104
24.176	22.0042
24.26	22.5158
24.344	22.3023
24.428	21.3117
24.512	19.8557
24.596	18.5011
24.68	17.85
24.764	18.2532
24.848	19.5813
24.932	21.274
25.016	22.5944
25.1	22.916
25.184	21.9545
25.268	19.9331
25.352	17.4537
25.436	15.2445
25.52	13.838
25.604	13.4124
25.688	13.7924
25.772	14.5558
25.856	15.2705
25.94	15.6709
26.024	15.7508
26.108	15.7159
26.192	15.9182
26.276	16.5758
26.36	17.5568
26.444	18.371
26.528	18.3047
26.612	16.5774
26.696	12.6838
26.78	6.663134
26.864	-0.690587
26.948	-7.971015
27.028	-13.3731