File: Bakgrunnsmateriale/MATLAB/FTIR/ftir_data/LPE453/Mapping_121/LPE453_t01.asc
PE IR       SPECTRUM    SPECTRUM    ASCII       PEDS        1.60
  -1
LPE453~4.ASC
17/05/16
14:28:01.00
17/05/16
14:28:28.00
tln
$LPE453_t0001$<tbV0>[13.0,-13.0,8.0,0.0,27,1,0]
27.028
64

2002,4.07
MIRTGS : RIGHTBACK : INTERNAL 2
MIR : ON : INTERNAL 2
OPTKBR

0.200000
8
8.000000
FILLER
RATIO
SPECTRUM
UNLOCKED 256

DOUBLE
64
COMBINED
1
0
0

0.002000
RATIO

1
0
TRUE
51149
0
LEFT NOT FITTED RIGHT NOT FITTED 0
NONE
NONE
15600
12
4.427000
51148
TRUE
1 0 8 72 0 0 0 0

15798

#HDR
-1
-1
#GR
µM
%T
2.38419e-05
0.0
2.000000
0.002000
12515
8
33.3907
-6.039347
#DATA
2.000000	 0.128602
2.084000	 -1.306122
2.168000	 0.306197
2.252000	 0.603822
2.336000	 -0.066104
2.420000	 0.008597
2.504000	 0.010890
2.588000	 0.101679
2.672000	 -0.054723
2.756000	 0.215206
2.840000	 0.262028
2.924000	 0.071040
3.008000	 0.070407
3.092000	 0.061180
3.176000	 0.061431
3.260000	 -0.141404
3.344000	 0.055342
3.428000	 0.008505
3.512000	 0.047635
3.596000	 -0.005581
3.680000	 0.032015
3.764000	 0.132480
3.848000	 -0.007118
3.932000	 0.083470
4.016000	 0.030013
4.100000	 0.035483
4.184000	 0.144707
4.268000	 0.027403
4.352000	 0.189848
4.436000	 0.503723
4.520000	 1.513539
4.604000	 3.110268
4.688000	 5.952279
4.772000	 9.217756
4.856000	 12.5576
4.940000	 15.5317
5.024000	 18.0972
5.108000	 20.0417
5.192000	 21.5771
5.276000	 22.8643
5.359999	 23.7067
5.444000	 24.486
5.528000	 25.0193
5.612000	 25.4051
5.696000	 25.653
5.780000	 25.854
5.864000	 26.1905
5.948000	 26.3598
6.032000	 26.6505
6.116000	 26.6619
6.200000	 26.8102
6.284000	 26.8043
6.368000	 26.9729
6.452000	 26.9307
6.536000	 26.9075
6.620000	 26.9066
6.704000	 27.1346
6.788000	 26.8841
6.872000	 27.197
6.956000	 27.0556
7.040000	 27.0635
7.124000	 27.0456
7.208000	 27.0375
7.292000	 27.1426
7.376000	 27.0702
7.460000	 26.9782
7.544000	 27.0164
7.628000	 27.031
7.712000	 26.8872
7.796000	 26.8757
7.880000	 26.7287
7.964000	 26.7422
8.048000	 26.839
8.132000	 26.7019
8.216000	 26.7691
8.300000	 26.8384
8.384000	 26.7607
8.468000	 26.5795
8.552000	 26.7749
8.635999	 26.6267
8.719999	 26.5255
8.804000	 26.6104
8.888000	 26.4322
8.972000	 26.4136
9.056000	 26.3309
9.140000	 26.5042
9.224000	 26.3776
9.308000	 26.0751
9.391999	 25.9878
9.475999	 26.3053
9.560000	 26.0455
9.644000	 26.0587
9.728000	 25.9631
9.812000	 25.6895
9.896000	 25.5064
9.980000	 25.7497
10.064	25.5617
10.148	25.596
10.232	25.4319
10.316	25.443
10.4	25.4278
10.484	25.3928
10.568	25.3012
10.652	25.1319
10.736	25.0596
10.82	25.0219
10.904	24.8052
10.988	24.9634
11.072	25.0053
11.156	24.8133
11.24	24.7548
11.324	24.7927
11.408	24.6599
11.492	24.5134
11.576	24.4206
11.66	24.4486
11.744	24.3713
11.828	24.302
11.912	24.0654
11.996	24.163
12.08	24.0833
12.164	23.8482
12.248	23.8006
12.332	23.7848
12.416	23.517
12.5	23.4953
12.584	23.5449
12.668	23.5371
12.752	23.5091
12.836	23.3604
12.92	23.0969
13.004	22.8794
13.088	22.8484
13.172	22.8371
13.256	22.9226
13.34	23.0599
13.424	22.7436
13.508	22.4008
13.592	22.5455
13.676	22.6325
13.76	22.5772
13.844	22.4392
13.928	22.2392
14.012	22.1506
14.096	22.1182
14.18	22.0619
14.264	21.8995
14.348	21.6914
14.432	21.7802
14.516	22.009
14.6	21.9454
14.684	21.7159
14.768	21.6233
14.852	21.6753
14.936	21.5983
15.02	21.4383
15.104	21.4837
15.188	21.4959
15.272	21.3361
15.356	21.2325
15.44	21.1119
15.524	20.8919
15.608	20.7296
15.692	20.7154
15.776	20.8297
15.86	20.9649
15.944	21.0294
16.028	21.0219
16.112	20.8844
16.196	20.6053
16.28	20.3046
16.364	20.0224
16.448	19.8095
16.532	19.8185
16.616	19.9956
16.7	20.1238
16.784	20.1907
16.868	20.2471
16.952	20.2082
17.036	20.0535
17.12	19.9125
17.204	19.8575
17.288	19.8108
17.372	19.6686
17.456	19.432
17.54	19.219
17.624	19.1458
17.708	19.1978
17.792	19.2694
17.876	19.2849
17.96	19.2243
18.044	19.1068
18.128	19.0257
18.212	19.1022
18.296	19.3172
18.38	19.4639
18.464	19.3703
18.548	19.0946
18.632	18.8166
18.716	18.6325
18.8	18.5361
18.884	18.5149
18.968	18.5622
19.052	18.6318
19.136	18.6686
19.22	18.6795
19.304	18.7086
19.388	18.7409
19.472	18.6846
19.556	18.4613
19.64	18.095
19.724	17.6945
19.808	17.3698
19.892	17.1616
19.976	17.0482
20.06	16.9869
20.144	16.9481
20.228	16.9257
20.312	16.9339
20.396	16.9873
20.48	17.0762
20.564	17.1654
20.648	17.2276
20.732	17.2699
20.816	17.3222
20.9	17.3946
20.984	17.4482
21.068	17.4345
21.152	17.3433
21.236	17.216
21.32	17.1036
21.404	17.0124
21.488	16.9084
21.572	16.7669
21.656	16.6042
21.74	16.4572
21.824	16.3436
21.908	16.2399
21.992	16.124
22.076	16.0293
22.16	16.0413
22.244	16.2345
22.328	16.5913
22.412	16.9687
22.496	17.1673
22.58	17.0629
22.664	16.6728
22.748	16.1655
22.832	15.7445
22.916	15.5442
23	15.5527
23.084	15.6523
23.168	15.6593
23.252	15.4326
23.336	14.9386
23.42	14.2479
23.504	13.5376
23.588	13.0481
23.672	12.9959
23.756	13.5046
23.84	14.5688
23.924	16.009
24.008	17.5245
24.092	18.7755
24.176	19.4726
24.26	19.4929
24.344	18.9075
24.428	17.9625
24.512	17.0623
24.596	16.5859
24.68	16.8497
24.764	18.0557
24.848	20.2438
24.932	23.2103
25.016	26.5153
25.1	29.6336
25.184	32.0158
25.268	33.2584
25.352	33.1779
25.436	31.8104
25.52	29.4087
25.604	26.3571
25.688	23.1709
25.772	20.3883
25.856	18.4097
25.94	17.3999
26.024	17.1709
26.108	17.2079
26.192	16.7547
26.276	15.1547
26.36	12.082
26.444	7.913592
26.528	3.690825
26.612	0.811869
26.696	0.542564
26.78	3.514982
26.864	9.268871
26.948	16.411
27.028	22.8685