File: Bakgrunnsmateriale/MATLAB/FTIR/ftir_data/LPE453/Mapping_121/LPE453_t73_cm-1.asc
PE IR       SPECTRUM    SPECTRUM    ASCII       PEDS        1.60
  -1
LPDAD5~1.ASC
17/05/16
20:22:44.00
17/05/16
20:22:44.00
tln
$LPE453_t0073$<tbV0>[-2.6,2.6,8.0,0.0,27,1,0]
370
64

2002,4.07
MIRTGS : RIGHTBACK : INTERNAL 2
MIR : ON : INTERNAL 2
OPTKBR

0.200000
8
8.000000
FILLER
RATIO
SPECTRUM
UNLOCKED 256

DOUBLE
64
COMBINED
1
0
0

1.000000
RATIO

1
0
TRUE
51149
0
LEFT NOT FITTED RIGHT NOT FITTED 0
NONE
NONE
15600
12
4.427000
51148
TRUE
1 0 8 72 0 0 0 0

15798

#HDR
-1
-1
#GR
CM-1
%T
2.38419e-05
0.0
5000
-1.000000
4631
8
33.4359
-2.370214
#DATA
5000	0.027704
4984	0.707864
4968	0.350856
4952	-0.296306
4936	0.216984
4920	-0.056195
4904	0.264167
4888	0.629305
4872	-0.049734
4856	0.098538
4840	-0.222539
4824	0.270700
4808	0.295424
4792	0.295639
4776	-0.243496
4760	0.389313
4744	1.108717
4728	-0.336503
4712	-1.143670
4696	0.422143
4680	1.250791
4664	-0.342845
4648	2.327036
4632	0.212740
4616	-0.330281
4600	0.512361
4584	0.589513
4568	-0.104665
4552	-0.158333
4536	0.088953
4520	0.131750
4504	1.347017
4488	14.8949
4472	-2.000093
4456	-0.116562
4440	-0.472927
4424	-0.984883
4408	0.507354
4392	0.342869
4376	0.297546
4360	0.214195
4344	0.429391
4328	0.530743
4312	-0.321960
4296	0.149488
4280	-0.117802
4264	0.508379
4248	0.121855
4232	0.024032
4216	-0.149750
4200	0.298166
4184	0.140190
4168	-0.012612
4152	0.220870
4136	0.106287
4120	0.118947
4104	0.300097
4088	0.070381
4072	0.102925
4056	-0.113630
4040	0.211000
4024	0.032663
4008	0.047588
3992	-0.046443
3976	0.018262
3960	0.352025
3944	0.072407
3928	0.005483
3912	-0.102376
3896	0.143074
3880	-0.110888
3864	0.034165
3848	0.004220
3832	0.093054
3816	-0.044560
3800	0.076174
3784	0.071716
3768	0.060653
3752	-0.090718
3736	-0.003528
3720	0.047612
3704	0.001144
3688	0.072860
3672	0.036168
3656	-0.021481
3640	0.080418
3624	0.035023
3608	-0.177288
3592	0.136494
3576	0.126433
3560	0.046014
3544	0.066804
3528	0.048470
3512	0.001430
3496	0.312495
3480	0.012207
3464	0.099134
3448	-0.149059
3432	-0.029850
3416	0.284266
3400	0.021338
3384	-0.105381
3368	0.137519
3352	0.061655
3336	0.013256
3320	0.091814
3304	0.120139
3288	0.121021
3272	-0.035095
3256	0.000095
3240	-0.002861
3224	-0.034809
3208	-0.147533
3192	0.193047
3176	-0.064682
3160	-0.099039
3144	0.094819
3128	0.162696
3112	0.053000
3096	0.114417
3080	-0.022816
3064	0.020360
3048	0.038456
3032	0.077891
3016	0.071096
3000	-0.126028
2984	-0.083518
2968	0.103998
2952	0.030541
2936	0.101733
2920	0.040817
2904	0.009489
2888	0.116086
2872	0.152230
2856	0.021672
2840	-0.033497
2824	0.037717
2808	0.026082
2792	0.062012
2776	0.038361
2760	0.020098
2744	-0.077056
2728	0.012755
2712	0.052523
2696	0.024962
2680	0.072765
2664	0.035548
2648	0.011730
2632	-0.010275
2616	0.055193
2600	0.006198
2584	0.062322
2568	0.009298
2552	0.031638
2536	-0.012302
2520	0.042319
2504	0.104641
2488	0.054073
2472	0.013184
2456	-0.011420
2440	-0.015950
2424	0.128078
2408	0.146484
2392	-0.021266
2376	0.057744
2360	-0.039124
2344	0.134944
2328	0.220656
2312	0.166177
2296	0.450611
2280	0.644111
2264	0.953483
2248	1.334595
2232	2.066016
2216	2.834177
2200	3.783869
2184	5.029749
2168	6.413555
2152	8.120417
2136	9.883999
2120	11.8216
2104	13.734
2088	15.7103
2072	17.7026
2056	19.4815
2040	21.1673
2024	22.7119
2008	24.2096
1992	25.5412
1976	26.637
1960	27.5104
1944	28.4932
1928	29.3551
1912	29.8997
1896	30.5705
1880	31.0392
1864	31.396
1848	31.8223
1832	32.2005
1816	32.1825
1800	32.5626
1784	32.812
1768	32.7072
1752	32.9468
1736	33.1677
1720	33.0914
1704	33.1309
1688	33.2477
1672	33.1439
1656	33.2125
1640	33.3679
1624	33.134
1608	33.0714
1592	33.4282
1576	33.1249
1560	33.0482
1544	33.1722
1528	33.1463
1512	32.8318
1496	33.1729
1480	32.9901
1464	32.6972
1448	32.8035
1432	33.0262
1416	32.7438
1400	32.6166
1384	32.8468
1368	32.4236
1352	32.4116
1336	32.7983
1320	32.3772
1304	32.1196
1288	32.5209
1272	32.2877
1256	31.9907
1240	32.1987
1224	32.2132
1208	31.7483
1192	31.8174
1176	32.1954
1160	31.4972
1144	31.3036
1128	31.7003
1112	31.4082
1096	30.8673
1080	31.2394
1064	31.1793
1048	30.6448
1032	30.7907
1016	30.8854
1000	30.0048
984	 30.2104
968	 30.5296
952	 29.6809
936	 29.6597
920	 29.9664
904	 29.4168
888	 28.7897
872	 28.9572
856	 28.9882
840	 28.0701
824	 28.4009
808	 28.3509
792	 27.4751
776	 27.2694
760	 27.3311
744	 26.7053
728	 26.1381
712	 26.5222
696	 26.0595
680	 25.0858
664	 25.1791
648	 25.0164
632	 23.8293
616	 24.1159
600	 24.1806
584	 22.6979
568	 22.1672
552	 22.2824
536	 21.9632
520	 21.8628
504	 21.1735
488	 20.0213
472	 19.1681
456	 18.0022
440	 19.5056
424	 19.6765
408	 17.8196
392	 17.363
376	 1.184034
370	 3.775787