File: Bakgrunnsmateriale/MATLAB/FTIR/ftir_data/LPE453/Mapping_121/LPE453_t96_cm-1.asc
PE IR       SPECTRUM    SPECTRUM    ASCII       PEDS        1.60
  -1
LPEB5A~1.ASC
17/05/16
22:15:53.00
17/05/16
22:15:53.00
tln
$LPE453_t0096$<tbV0>[-5.2,7.8,8.0,0.0,27,1,0]
370
64

2002,4.07
MIRTGS : RIGHTBACK : INTERNAL 2
MIR : ON : INTERNAL 2
OPTKBR

0.200000
8
8.000000
FILLER
RATIO
SPECTRUM
UNLOCKED 256

DOUBLE
64
COMBINED
1
0
0

1.000000
RATIO

1
0
TRUE
51149
0
LEFT NOT FITTED RIGHT NOT FITTED 0
NONE
NONE
15600
12
4.427000
51148
TRUE
1 0 8 72 0 0 0 0

15798

#HDR
-1
-1
#GR
CM-1
%T
2.38419e-05
0.0
5000
-1.000000
4631
8
40.2418
-3.201127
#DATA
5000	0.146317
4984	-0.019454
4968	-0.129747
4952	0.092911
4936	0.172281
4920	0.199818
4904	-0.336050
4888	0.128960
4872	0.222253
4856	0.058197
4840	0.358557
4824	0.392341
4808	0.486874
4792	0.290346
4776	-0.034904
4760	0.198149
4744	0.373125
4728	-0.066924
4712	0.336527
4696	0.340604
4680	0.539588
4664	0.447750
4648	0.373911
4632	0.869750
4616	-0.189638
4600	0.278425
4584	0.854206
4568	-0.789880
4552	0.125265
4536	-0.082588
4520	-2.575278
4504	17.7719
4488	9.851002
4472	-1.104545
4456	-0.845479
4440	-0.948667
4424	0.339627
4408	0.449323
4392	0.258851
4376	0.586009
4360	0.642371
4344	0.547957
4328	0.322937
4312	0.334954
4296	0.027108
4280	0.137495
4264	0.163960
4248	-0.174975
4232	0.329685
4216	0.065588
4200	0.325179
4184	0.150489
4168	-0.309133
4152	0.142216
4136	0.137758
4120	0.162959
4104	0.140285
4088	0.091242
4072	-0.192022
4056	0.048494
4040	0.123238
4024	0.043249
4008	0.072932
3992	0.277805
3976	0.223135
3960	-0.047969
3944	0.053262
3928	0.042271
3912	-0.065827
3896	0.139021
3880	0.165104
3864	0.126719
3848	0.076627
3832	0.054931
3816	-0.060343
3800	-0.035238
3784	-0.069713
3768	0.039935
3752	0.151729
3736	-0.035357
3720	0.124096
3704	-0.015497
3688	0.082802
3672	0.208687
3656	-0.019311
3640	-0.064611
3624	0.043225
3608	0.159716
3592	-0.059747
3576	0.052618
3560	0.163674
3544	0.138878
3528	-0.070214
3512	0.027942
3496	-0.026965
3480	0.010299
3464	0.089883
3448	0.058102
3432	0.142407
3416	0.085735
3400	0.113487
3384	0.001621
3368	-0.143837
3352	0.193691
3336	0.137591
3320	0.246572
3304	0.052547
3288	0.016784
3272	0.170874
3256	0.001454
3240	0.010156
3224	0.213336
3208	0.120019
3192	-0.078272
3176	-0.020718
3160	-0.034928
3144	0.015735
3128	0.088524
3112	0.012326
3096	-0.039696
3080	0.067400
3064	0.093054
3048	0.026035
3032	-0.025534
3016	0.045847
3000	0.059747
2984	-0.028562
2968	-0.107574
2952	0.096487
2936	0.091695
2920	0.073289
2904	0.036811
2888	0.024819
2872	0.174975
2856	0.001001
2840	0.033545
2824	0.029325
2808	0.005078
2792	0.059080
2776	0.011706
2760	-0.059962
2744	0.018310
2728	0.140476
2712	0.029397
2696	0.017476
2680	0.021386
2664	0.044059
2648	0.007987
2632	0.003004
2616	-0.003218
2600	0.155115
2584	0.060224
2568	0.049996
2552	0.031208
2536	0.070095
2520	0.026845
2504	0.036525
2488	-0.030112
2472	0.048661
2456	0.108361
2440	0.118064
2424	0.027751
2408	0.024557
2392	0.127053
2376	0.227856
2360	0.170707
2344	0.343728
2328	0.520849
2312	0.646758
2296	0.967645
2280	1.401066
2264	1.827120
2248	2.620935
2232	3.542399
2216	4.613852
2200	5.880331
2184	7.529354
2168	9.294581
2152	11.2492
2136	13.3059
2120	15.6217
2104	17.8717
2088	19.8359
2072	22.1067
2056	24.0758
2040	25.7896
2024	27.2237
2008	29.1639
1992	30.324
1976	31.1163
1960	32.4486
1944	33.4967
1928	33.7807
1912	34.292
1896	35.4791
1880	35.8988
1864	35.658
1848	36.1948
1832	37.1836
1816	36.9418
1800	36.603
1784	37.2121
1768	37.7648
1752	37.2712
1736	37.1137
1720	37.9232
1704	37.9283
1688	37.3528
1672	37.4497
1656	38.1287
1640	37.9328
1624	37.3801
1608	37.5023
1592	38.3522
1576	37.6861
1560	37.3416
1544	37.7159
1528	38.2571
1512	37.7144
1496	37.0427
1480	37.8886
1464	38.2112
1448	37.4093
1432	37.1475
1416	37.7006
1400	37.9349
1384	37.1142
1368	36.868
1352	37.5809
1336	37.6688
1320	36.6986
1304	36.7851
1288	37.7379
1272	37.4656
1256	36.4635
1240	36.5825
1224	37.4892
1208	37.3204
1192	36.2072
1176	36.6228
1160	37.3086
1144	36.8064
1128	35.9718
1112	36.4381
1096	37.2227
1080	36.6417
1064	35.4825
1048	36.0364
1032	36.7281
1016	36.083
1000	35.0475
984	 35.6676
968	 36.2059
952	 35.5896
936	 34.6746
920	 35.2926
904	 35.6895
888	 34.6783
872	 33.7811
856	 34.7895
840	 34.82
824	 33.4547
808	 33.0444
792	 33.9022
776	 33.9772
760	 32.8726
744	 32.0453
728	 33.1383
712	 32.7972
696	 31.7702
680	 31.3142
664	 32.0549
648	 31.7796
632	 30.296
616	 29.7271
600	 30.3869
584	 30.3369
568	 29.2251
552	 28.7204
536	 28.7544
520	 28.3778
504	 27.1229
488	 26.8446
472	 27.5672
456	 25.6824
440	 25.2841
424	 19.373
408	 24.4335
392	 37.7478
376	 36.3251
370	 33.0408