File: Bakgrunnsmateriale/MATLAB/FTIR/ftir_data/LPE453/Mapping_121/LPE453_t35_cm-1.asc
PE IR       SPECTRUM    SPECTRUM    ASCII       PEDS        1.60
  -1
LPE8DB~1.ASC
17/05/16
17:13:13.00
17/05/16
17:13:13.00
tln
$LPE453_t0035$<tbV0>[10.4,-5.2,8.0,0.0,27,1,0]
370
64

2002,4.07
MIRTGS : RIGHTBACK : INTERNAL 2
MIR : ON : INTERNAL 2
OPTKBR

0.200000
8
8.000000
FILLER
RATIO
SPECTRUM
UNLOCKED 256

DOUBLE
64
COMBINED
1
0
0

1.000000
RATIO

1
0
TRUE
51149
0
LEFT NOT FITTED RIGHT NOT FITTED 0
NONE
NONE
15600
12
4.427000
51148
TRUE
1 0 8 72 0 0 0 0

15798

#HDR
-1
-1
#GR
CM-1
%T
2.38419e-05
0.0
5000
-1.000000
4631
8
24.7163
-14.5363
#DATA
5000	-0.109601
4984	0.346994
4968	0.052142
4952	0.240945
4936	0.117993
4920	-0.001811
4904	0.296545
4888	0.651192
4872	0.300502
4856	0.479078
4840	0.851106
4824	0.307035
4808	0.479054
4792	0.128364
4776	0.244522
4760	0.193929
4744	0.314927
4728	0.058603
4712	-0.018405
4696	-0.018262
4680	0.379729
4664	0.278925
4648	0.574827
4632	0.640344
4616	1.416778
4600	0.522732
4584	-0.102233
4568	-0.338220
4552	-0.409388
4536	-0.860023
4520	6.624436
4504	-2.622771
4488	0.660061
4472	-0.070500
4456	0.064516
4440	0.489449
4424	0.650334
4408	0.842618
4392	0.242805
4376	0.239276
4360	0.652194
4344	0.516486
4328	0.363731
4312	-0.053882
4296	-0.206708
4280	0.173330
4264	0.222492
4248	0.326108
4232	0.286126
4216	0.303864
4200	0.108480
4184	0.105309
4168	-0.209116
4152	0.180220
4136	0.348043
4120	0.203108
4104	-0.107145
4088	0.091505
4072	0.138711
4056	0.243139
4040	0.035071
4024	0.260877
4008	0.005483
3992	0.107884
3976	0.017094
3960	0.098180
3944	0.033044
3928	0.030970
3912	0.169634
3896	0.153732
3880	0.172591
3864	-0.177788
3848	0.113272
3832	0.021004
3816	-0.033164
3800	0.276780
3784	0.092291
3768	-0.012350
3752	0.341582
3736	0.138592
3720	0.085616
3704	0.000262
3688	0.074005
3672	0.062727
3656	-0.016307
3640	0.016927
3624	0.125265
3608	0.032830
3592	-0.020766
3576	0.110101
3560	0.086641
3544	0.254535
3528	-0.022149
3512	0.076699
3496	-0.152873
3480	0.232481
3464	-0.167584
3448	-0.052022
3432	0.050234
3416	0.069975
3400	-0.034165
3384	-0.042295
3368	0.046777
3352	0.043249
3336	0.264334
3320	-0.035405
3304	0.167775
3288	0.089001
3272	0.130963
3256	0.073838
3240	0.066614
3224	0.032520
3208	0.031661
3192	0.013804
3176	0.032401
3160	0.046658
3144	0.066757
3128	-0.092601
3112	0.199007
3096	0.067234
3080	0.165271
3064	-0.156903
3048	0.075197
3032	-0.030064
3016	0.130796
3000	0.013685
2984	0.007414
2968	0.020360
2952	0.155997
2936	0.091719
2920	0.054359
2904	0.161504
2888	0.096631
2872	0.022745
2856	0.149774
2840	0.024986
2824	0.005054
2808	0.157809
2792	-0.122737
2776	0.032162
2760	0.089240
2744	-0.074124
2728	0.070595
2712	0.135326
2696	-0.119614
2680	0.030851
2664	0.023818
2648	0.067877
2632	-0.026106
2616	0.082468
2600	0.052785
2584	0.062751
2568	0.069665
2552	0.090813
2536	0.077700
2520	0.058627
2504	-0.091290
2488	0.069332
2472	0.021505
2456	0.047063
2440	0.041937
2424	0.142836
2408	-0.060081
2392	-0.037860
2376	-0.063705
2360	-0.121355
2344	0.028443
2328	-0.026774
2312	0.007629
2296	-0.017929
2280	0.024247
2264	0.030612
2248	0.235295
2232	0.340127
2216	0.594305
2200	0.941371
2184	1.328015
2168	1.982021
2152	2.761983
2136	3.906130
2120	4.736399
2104	6.028842
2088	7.511043
2072	8.915138
2056	10.2063
2040	11.6976
2024	13.0917
2008	14.4643
1992	15.7981
1976	16.6905
1960	17.8362
1944	18.702
1928	19.5998
1912	20.3856
1896	21.0023
1880	21.6892
1864	22.2183
1848	22.6726
1832	22.9404
1816	23.3261
1800	23.6556
1784	23.7973
1768	23.985
1752	24.0955
1736	24.3706
1720	24.2729
1704	24.5183
1688	24.4932
1672	24.4007
1656	24.5474
1640	24.5527
1624	24.6305
1608	24.7075
1592	24.5681
1576	24.5724
1560	24.6787
1544	24.6384
1528	24.5212
1512	24.648
1496	24.4741
1480	24.5013
1464	24.4053
1448	24.4457
1432	24.3026
1416	24.3067
1400	24.1949
1384	24.2109
1368	23.9975
1352	24.0577
1336	24.0849
1320	23.8483
1304	23.8327
1288	23.782
1272	23.6955
1256	23.6914
1240	23.6209
1224	23.585
1208	23.4551
1192	23.3442
1176	23.2054
1160	23.1017
1144	23.0202
1128	22.9277
1112	22.8719
1096	22.601
1080	22.621
1064	22.4325
1048	22.5132
1032	22.0763
1016	22.0467
1000	21.9044
984	 21.7059
968	 21.3933
952	 21.4973
936	 20.9795
920	 20.8621
904	 20.5894
888	 20.416
872	 19.9307
856	 19.6495
840	 19.6487
824	 19.2163
808	 19.0276
792	 18.9198
776	 18.6233
760	 18.3166
744	 18.1433
728	 17.8367
712	 17.359
696	 17.1147
680	 16.7762
664	 16.4656
648	 16.0454
632	 15.7045
616	 15.0823
600	 14.4191
584	 13.8925
568	 14.0559
552	 13.623
536	 13.3231
520	 13.6516
504	 11.9341
488	 11.3789
472	 12.0506
456	 9.883594
440	 10.6814
424	 10.6739
408	 9.635519
392	 -14.3094
376	 11.1444
370	 21.1118