File: Bakgrunnsmateriale/MATLAB/FTIR/ftir_data/LPE453/Mapping_121/LPE453_t46.asc
PE IR       SPECTRUM    SPECTRUM    ASCII       PEDS        1.60
  -1
LPD3A1~1.ASC
17/05/16
18:10:53.00
17/05/16
18:11:19.00
tln
$LPE453_t0046$<tbV0>[10.4,-2.6,8.0,0.0,27,1,0]
27.028
64

2002,4.07
MIRTGS : RIGHTBACK : INTERNAL 2
MIR : ON : INTERNAL 2
OPTKBR

0.200000
8
8.000000
FILLER
RATIO
SPECTRUM
UNLOCKED 256

DOUBLE
64
COMBINED
1
0
0

0.002000
RATIO

1
0
TRUE
51149
0
LEFT NOT FITTED RIGHT NOT FITTED 0
NONE
NONE
15600
12
4.427000
51148
TRUE
1 0 8 72 0 0 0 0

15798

#HDR
-1
-1
#GR
µM
%T
2.38419e-05
0.0
2.000000
0.002000
12515
8
23.1146
-7.726876
#DATA
2.000000	 -0.082921
2.084000	 0.293139
2.168000	 -0.407459
2.252000	 -0.353352
2.336000	 0.009364
2.420000	 -0.152925
2.504000	 0.058221
2.588000	 0.001326
2.672000	 0.053439
2.756000	 0.132090
2.840000	 0.136783
2.924000	 0.081463
3.008000	 0.164395
3.092000	 -0.032446
3.176000	 0.102260
3.260000	 -0.021138
3.344000	 0.139570
3.428000	 0.124145
3.512000	 -0.118606
3.596000	 -0.093680
3.680000	 0.051648
3.764000	 0.031543
3.848000	 0.026597
3.932000	 0.098249
4.016000	 -0.080150
4.100000	 0.121295
4.184000	 -0.079607
4.268000	 0.139855
4.352000	 0.003101
4.436000	 -0.079589
4.520000	 0.560493
4.604000	 1.516027
4.688000	 3.233720
4.772000	 5.783889
4.856000	 8.785767
4.940000	 11.662
5.024000	 14.3408
5.108000	 16.4309
5.192000	 18.1582
5.276000	 19.4783
5.359999	 20.3697
5.444000	 21.183
5.528000	 21.659
5.612000	 22.184
5.696000	 22.3226
5.780000	 22.6199
5.864000	 22.7686
5.948000	 22.7768
6.032000	 22.9077
6.116000	 23.092
6.200000	 22.9236
6.284000	 23.0002
6.368000	 23.0587
6.452000	 22.9753
6.536000	 22.865
6.620000	 23.021
6.704000	 22.8529
6.788000	 22.8432
6.872000	 22.6861
6.956000	 22.767
7.040000	 22.714
7.124000	 22.8127
7.208000	 22.4549
7.292000	 22.5706
7.376000	 22.5395
7.460000	 22.3237
7.544000	 22.4152
7.628000	 22.2967
7.712000	 22.2206
7.796000	 22.307
7.880000	 22.2039
7.964000	 22.1051
8.048000	 22.1914
8.132000	 22.0713
8.216000	 21.8898
8.300000	 22.0149
8.384000	 21.9045
8.468000	 21.8753
8.552000	 21.876
8.635999	 21.7438
8.719999	 21.7347
8.804000	 21.5886
8.888000	 21.5316
8.972000	 21.3536
9.056000	 21.2441
9.140000	 21.1738
9.224000	 21.093
9.308000	 21.161
9.391999	 21.1317
9.475999	 20.9737
9.560000	 20.8094
9.644000	 20.8631
9.728000	 20.7161
9.812000	 20.7345
9.896000	 20.3447
9.980000	 20.4847
10.064	20.2879
10.148	20.2941
10.232	20.0227
10.316	20.18
10.4	19.9757
10.484	19.9513
10.568	19.9052
10.652	19.9049
10.736	19.7665
10.82	19.5935
10.904	19.4366
10.988	19.406
11.072	19.1536
11.156	19.2426
11.24	19.1998
11.324	19.1713
11.408	18.9531
11.492	18.8282
11.576	18.6905
11.66	18.5645
11.744	18.486
11.828	18.3281
11.912	18.2359
11.996	18.1621
12.08	18.115
12.164	18.0669
12.248	17.8812
12.332	17.7579
12.416	17.6695
12.5	17.6246
12.584	17.7584
12.668	17.7186
12.752	17.4497
12.836	17.2721
12.92	17.274
13.004	17.2307
13.088	17.0394
13.172	16.8374
13.256	16.8008
13.34	16.7346
13.424	16.6549
13.508	16.7719
13.592	16.8936
13.676	16.8966
13.76	16.6978
13.844	16.3776
13.928	16.1475
14.012	16.023
14.096	15.8996
14.18	15.8748
14.264	15.9206
14.348	15.9026
14.432	15.745
14.516	15.5397
14.6	15.4465
14.684	15.3592
14.768	15.1829
14.852	15.082
14.936	15.0887
15.02	14.9868
15.104	14.7647
15.188	14.6291
15.272	14.5969
15.356	14.6109
15.44	14.6345
15.524	14.5533
15.608	14.3575
15.692	14.1606
15.776	14.0674
15.86	14.1202
15.944	14.2045
16.028	14.1486
16.112	13.9827
16.196	13.835
16.28	13.6769
16.364	13.4392
16.448	13.2145
16.532	13.1116
16.616	13.0962
16.7	13.0944
16.784	13.0927
16.868	13.0918
16.952	13.0874
17.036	13.1132
17.12	13.1905
17.204	13.2291
17.288	13.0949
17.372	12.7956
17.456	12.5137
17.54	12.4203
17.624	12.5008
17.708	12.5953
17.792	12.5745
17.876	12.4425
17.96	12.2958
18.044	12.2339
18.128	12.3074
18.212	12.4712
18.296	12.598
18.38	12.5991
18.464	12.5259
18.548	12.4997
18.632	12.5416
18.716	12.5455
18.8	12.41
18.884	12.1407
18.968	11.8209
19.052	11.5524
19.136	11.4193
19.22	11.4643
19.304	11.6584
19.388	11.8923
19.472	12.0345
19.556	12.014
19.64	11.856
19.724	11.6236
19.808	11.3581
19.892	11.0734
19.976	10.7965
20.06	10.5729
20.144	10.4304
20.228	10.3496
20.312	10.3026
20.396	10.2993
20.48	10.3899
20.564	10.6106
20.648	10.9388
20.732	11.2982
20.816	11.6043
20.9	11.8034
20.984	11.878
21.068	11.8391
21.152	11.7095
21.236	11.5025
21.32	11.1971
21.404	10.7546
21.488	10.1691
21.572	9.525871
21.656	8.996627
21.74	8.748830
21.824	8.840575
21.908	9.168240
21.992	9.540359
22.076	9.801038
22.16	9.892217
22.244	9.842008
22.328	9.684775
22.412	9.429428
22.496	9.087318
22.58	8.721676
22.664	8.459927
22.748	8.433657
22.832	8.661334
22.916	9.027586
23	9.313449
23.084	9.316827
23.168	8.944604
23.252	8.259087
23.336	7.428513
23.42	6.647036
23.504	6.053462
23.588	5.703881
23.672	5.581077
23.756	5.602317
23.84	5.699773
23.924	5.853829
24.008	6.105912
24.092	6.549568
24.176	7.288349
24.26	8.340564
24.344	9.576526
24.428	10.7335
24.512	11.4476
24.596	11.4413
24.68	10.6265
24.764	9.154801
24.848	7.361116
24.932	5.616274
25.016	4.132836
25.1	2.900991
25.184	1.676756
25.268	0.156263
25.352	-1.815235
25.436	-4.076753
25.52	-6.156977
25.604	-7.491760
25.688	-7.609044
25.772	-6.386230
25.856	-4.110637
25.94	-1.348583
26.024	1.236028
26.108	3.130300
26.192	4.184336
26.276	4.573435
26.36	4.643348
26.444	4.732401
26.528	5.042800
26.612	5.671526
26.696	6.601317
26.78	7.745015
26.864	9.015180
26.948	10.351
27.028	11.6733