File: Bakgrunnsmateriale/MATLAB/FTIR/ftir_data/LPE453/Mapping_121/LPE453_t41.asc
PE IR       SPECTRUM    SPECTRUM    ASCII       PEDS        1.60
  -1
LPC3AD~1.ASC
17/05/16
17:40:53.00
17/05/16
17:41:19.00
tln
$LPE453_t0041$<tbV0>[-5.2,-5.2,8.0,0.0,27,1,0]
27.028
64

2002,4.07
MIRTGS : RIGHTBACK : INTERNAL 2
MIR : ON : INTERNAL 2
OPTKBR

0.200000
8
8.000000
FILLER
RATIO
SPECTRUM
UNLOCKED 256

DOUBLE
64
COMBINED
1
0
0

0.002000
RATIO

1
0
TRUE
51149
0
LEFT NOT FITTED RIGHT NOT FITTED 0
NONE
NONE
15600
12
4.427000
51148
TRUE
1 0 8 72 0 0 0 0

15798

#HDR
-1
-1
#GR
µM
%T
2.38419e-05
0.0
2.000000
0.002000
12515
8
35.9047
-37.6906
#DATA
2.000000	 0.154805
2.084000	 0.023223
2.168000	 0.081111
2.252000	 -0.082125
2.336000	 0.045189
2.420000	 -0.108912
2.504000	 0.016988
2.588000	 0.009511
2.672000	 -0.060729
2.756000	 0.070426
2.840000	 0.136537
2.924000	 -0.004463
3.008000	 0.001305
3.092000	 0.070333
3.176000	 0.028033
3.260000	 -0.123221
3.344000	 0.034236
3.428000	 -0.012122
3.512000	 0.189385
3.596000	 -0.008267
3.680000	 0.078275
3.764000	 0.029647
3.848000	 0.076423
3.932000	 0.009079
4.016000	 0.231024
4.100000	 -0.036897
4.184000	 0.024278
4.268000	 0.060667
4.352000	 0.449328
4.436000	 1.394153
4.520000	 3.301035
4.604000	 6.638277
4.688000	 11.1262
4.772000	 16.0814
4.856000	 20.708
4.940000	 24.6249
5.024000	 27.389
5.108000	 29.7815
5.192000	 31.5415
5.276000	 32.7305
5.359999	 33.8244
5.444000	 34.3398
5.528000	 34.9475
5.612000	 35.1067
5.696000	 35.3059
5.780000	 35.4341
5.864000	 35.5922
5.948000	 35.6718
6.032000	 35.8236
6.116000	 35.7685
6.200000	 35.7563
6.284000	 35.8366
6.368000	 35.6575
6.452000	 35.703
6.536000	 35.8051
6.620000	 35.6233
6.704000	 35.6338
6.788000	 35.5615
6.872000	 35.3566
6.956000	 35.3753
7.040000	 35.5458
7.124000	 35.226
7.208000	 35.3502
7.292000	 35.4639
7.376000	 35.1819
7.460000	 35.1038
7.544000	 35.2802
7.628000	 35.2807
7.712000	 35.0117
7.796000	 34.9375
7.880000	 35.0158
7.964000	 34.9651
8.048000	 34.7638
8.132000	 34.8202
8.216000	 34.8532
8.300000	 35.0007
8.384000	 34.8276
8.468000	 34.5435
8.552000	 34.4058
8.635999	 34.4604
8.719999	 34.6377
8.804000	 34.4758
8.888000	 34.3817
8.972000	 34.2002
9.056000	 34.1921
9.140000	 34.1782
9.224000	 34.1502
9.308000	 33.8331
9.391999	 33.8056
9.475999	 33.7296
9.560000	 33.7339
9.644000	 33.9789
9.728000	 33.9006
9.812000	 33.8082
9.896000	 33.4947
9.980000	 33.179
10.064	33.3874
10.148	33.5672
10.232	33.8445
10.316	33.4706
10.4	33.102
10.484	32.6796
10.568	32.4653
10.652	32.7215
10.736	33.0764
10.82	33.2051
10.904	33.0824
10.988	32.6226
11.072	32.3261
11.156	32.024
11.24	32.0508
11.324	32.2261
11.408	32.3066
11.492	32.4971
11.576	32.4476
11.66	32.1133
11.744	31.7172
11.828	31.4525
11.912	31.2884
11.996	31.363
12.08	31.6107
12.164	31.8221
12.248	31.6677
12.332	31.5148
12.416	31.4819
12.5	31.3474
12.584	31.126
12.668	30.9126
12.752	30.4924
12.836	30.3645
12.92	30.4861
13.004	30.5522
13.088	30.5071
13.172	30.6663
13.256	30.8347
13.34	30.9651
13.424	31.0426
13.508	30.8071
13.592	30.4476
13.676	30.0582
13.76	29.811
13.844	29.5831
13.928	29.3934
14.012	29.4505
14.096	29.7106
14.18	29.7811
14.264	29.7368
14.348	29.8971
14.432	30.0477
14.516	29.85
14.6	29.3391
14.684	28.9157
14.768	28.6603
14.852	28.4213
14.936	28.3035
15.02	28.3487
15.104	28.3509
15.188	28.2591
15.272	28.272
15.356	28.4202
15.44	28.5635
15.524	28.6501
15.608	28.66
15.692	28.5421
15.776	28.2986
15.86	28.0181
15.944	27.7316
16.028	27.4438
16.112	27.2728
16.196	27.2526
16.28	27.1957
16.364	26.9991
16.448	26.7741
16.532	26.6012
16.616	26.501
16.7	26.5669
16.784	26.8305
16.868	27.139
16.952	27.3224
17.036	27.3327
17.12	27.2243
17.204	27.1356
17.288	27.178
17.372	27.2452
17.456	27.1162
17.54	26.7699
17.624	26.4109
17.708	26.19
17.792	26.0767
17.876	25.962
17.96	25.7864
18.044	25.591
18.128	25.4962
18.212	25.5685
18.296	25.7221
18.38	25.8203
18.464	25.8471
18.548	25.8911
18.632	25.9648
18.716	25.9572
18.8	25.7826
18.884	25.4874
18.968	25.1869
19.052	24.9386
19.136	24.7109
19.22	24.4587
19.304	24.2137
19.388	24.0715
19.472	24.0897
19.556	24.2148
19.64	24.3259
19.724	24.357
19.808	24.3501
19.892	24.3852
19.976	24.4688
20.06	24.5149
20.144	24.4392
20.228	24.2525
20.312	24.0527
20.396	23.9329
20.48	23.9092
20.564	23.9259
20.648	23.9139
20.732	23.8347
20.816	23.694
20.9	23.5306
20.984	23.4092
21.068	23.3997
21.152	23.554
21.236	23.872
21.32	24.2956
21.404	24.7265
21.488	25.0661
21.572	25.2442
21.656	25.2205
21.74	24.9881
21.824	24.5818
21.908	24.0847
21.992	23.6102
22.076	23.2585
22.16	23.0725
22.244	23.0133
22.328	22.9927
22.412	22.9261
22.496	22.7719
22.58	22.5444
22.664	22.2897
22.748	22.0616
22.832	21.9038
22.916	21.8442
23	21.8819
23.084	21.9828
23.168	22.0872
23.252	22.1457
23.336	22.1389
23.42	22.0718
23.504	21.9853
23.588	21.9168
23.672	21.8652
23.756	21.7896
23.84	21.6275
23.924	21.3329
24.008	20.9171
24.092	20.463
24.176	20.088
24.26	19.9322
24.344	20.0676
24.428	20.4337
24.512	20.8978
24.596	21.2494
24.68	21.3627
24.764	21.3387
24.848	21.4267
24.932	21.9372
25.016	23.0549
25.1	24.7388
25.184	26.6818
25.268	28.4388
25.352	29.6335
25.436	30.0447
25.52	29.7063
25.604	28.8387
25.688	27.6638
25.772	26.2769
25.856	24.5893
25.94	22.3421
26.024	19.1892
26.108	14.8927
26.192	9.227350
26.276	2.126763
26.36	-6.123094
26.444	-14.9595
26.528	-23.5631
26.612	-30.8631
26.696	-35.8013
26.78	-37.6801
26.864	-36.4292
26.948	-32.5801
27.028	-27.3467