File: Bakgrunnsmateriale/MATLAB/FTIR/ftir_data/LPE453/Mapping_121/LPE453_t113_cm-1.asc
PE IR       SPECTRUM    SPECTRUM    ASCII       PEDS        1.60
  -1
LP06FC~1.ASC
17/05/16
23:41:05.00
17/05/16
23:41:05.00
tln
$LPE453_t0113$<tbV0>[7.8,13.0,8.0,0.0,27,1,0]
370
64

2002,4.07
MIRTGS : RIGHTBACK : INTERNAL 2
MIR : ON : INTERNAL 2
OPTKBR

0.200000
8
8.000000
FILLER
RATIO
SPECTRUM
UNLOCKED 256

DOUBLE
64
COMBINED
1
0
0

1.000000
RATIO

1
0
TRUE
51149
0
LEFT NOT FITTED RIGHT NOT FITTED 0
NONE
NONE
15600
12
4.427000
51148
TRUE
1 0 8 72 0 0 0 0

15798

#HDR
-1
-1
#GR
CM-1
%T
2.38419e-05
0.0
5000
-1.000000
4631
8
52.3118
-2.651524
#DATA
5000	0.052547
4984	0.198674
4968	0.202012
4952	0.184679
4936	-0.102472
4920	-0.345396
4904	0.543642
4888	0.301432
4872	0.257658
4856	0.260353
4840	0.128579
4824	0.080227
4808	0.340795
4792	-0.169157
4776	0.460004
4760	0.147390
4744	0.541377
4728	-0.063085
4712	0.141954
4696	-0.824427
4680	1.000332
4664	0.182294
4648	1.331353
4632	0.724577
4616	0.576925
4600	1.020169
4584	1.791071
4568	0.964307
4552	-0.004482
4536	-0.687718
4520	-0.686264
4504	-1.992630
4488	13.1457
4472	-0.286030
4456	-0.473093
4440	-0.160503
4424	-0.347661
4408	0.034356
4392	0.932216
4376	0.135064
4360	0.722718
4344	0.574159
4328	0.837039
4312	0.044655
4296	0.500440
4280	0.260496
4264	0.220417
4248	0.070786
4232	0.112318
4216	-0.099611
4200	0.258612
4184	0.601124
4168	0.090408
4152	0.238633
4136	-0.002694
4120	0.105237
4104	0.063824
4088	0.140810
4072	0.154495
4056	0.011825
4040	0.213289
4024	0.150918
4008	0.139427
3992	0.077486
3976	0.045657
3960	0.317049
3944	0.071525
3928	0.196743
3912	0.303983
3896	0.112438
3880	0.066161
3864	-0.111579
3848	0.324892
3832	-0.122976
3816	0.127148
3800	0.154304
3784	-0.055837
3768	0.093173
3752	0.085926
3736	0.218152
3720	0.184273
3704	0.091242
3688	0.104904
3672	0.177860
3656	0.282812
3640	0.065112
3624	0.068736
3608	0.185680
3592	0.037264
3576	0.010967
3560	0.153613
3544	0.085783
3528	0.140261
3512	-0.002503
3496	-0.032377
3480	-0.015020
3464	-0.089836
3448	-0.040864
3432	0.066637
3416	0.041961
3400	0.057911
3384	0.275516
3368	0.068306
3352	-0.095486
3336	0.021171
3320	0.068688
3304	-0.027298
3288	-0.066256
3272	0.037312
3256	0.045704
3240	-0.002670
3224	0.047016
3208	-0.035715
3192	0.143051
3176	-0.022387
3160	0.160193
3144	-0.040030
3128	-0.030159
3112	0.003623
3096	-0.022482
3080	-0.013065
3064	0.092434
3048	0.009751
3032	-0.112009
3016	0.154423
3000	0.038170
2984	0.030827
2968	-0.018858
2952	0.143742
2936	0.123000
2920	-0.019741
2904	-0.029134
2888	-0.032782
2872	0.092458
2856	-0.062060
2840	0.057220
2824	0.050520
2808	-0.113010
2792	0.021028
2776	0.024414
2760	-0.062394
2744	0.131702
2728	0.040364
2712	-0.063109
2696	0.036382
2680	0.008249
2664	0.014138
2648	0.077033
2632	0.094318
2616	-0.013995
2600	0.018668
2584	-0.067973
2568	0.058698
2552	-0.029540
2536	0.034642
2520	0.164842
2504	-0.053215
2488	-0.027155
2472	0.085020
2456	0.019717
2440	0.092506
2424	0.161910
2408	0.047516
2392	0.082802
2376	0.261449
2360	0.233602
2344	0.345563
2328	0.430727
2312	0.670981
2296	0.786638
2280	1.281499
2264	1.717686
2248	2.313804
2232	3.025794
2216	3.966522
2200	5.186748
2184	6.336212
2168	7.951068
2152	9.579062
2136	11.107
2120	12.8403
2104	14.6853
2088	16.226
2072	18.0368
2056	19.3888
2040	20.9199
2024	22.158
2008	23.44
1992	24.4818
1976	25.3358
1960	26.1595
1944	26.9235
1928	27.742
1912	28.2341
1896	28.7783
1880	29.2019
1864	29.7347
1848	30.119
1832	30.3353
1816	30.6034
1800	30.8602
1784	31.0217
1768	31.1978
1752	31.4077
1736	31.6294
1720	31.6735
1704	31.9161
1688	31.9637
1672	32.0828
1656	32.1297
1640	32.2628
1624	32.5011
1608	32.5491
1592	32.6526
1576	32.6646
1560	32.6054
1544	32.7647
1528	33.0139
1512	32.906
1496	32.7553
1480	32.9876
1464	33.0219
1448	33.0131
1432	33.0582
1416	33.2882
1400	33.2215
1384	33.1674
1368	33.2855
1352	33.4067
1336	33.3027
1320	33.2717
1304	33.2311
1288	33.3272
1272	33.3309
1256	33.3113
1240	33.2989
1224	33.4615
1208	33.3253
1192	33.12
1176	33.1949
1160	33.2937
1144	33.4259
1128	33.3714
1112	33.3449
1096	33.2309
1080	33.3423
1064	33.032
1048	33.2001
1032	33.1414
1016	33.2985
1000	32.8918
984	 32.8393
968	 33.0001
952	 32.9195
936	 32.9266
920	 32.4738
904	 32.5256
888	 32.5304
872	 32.2885
856	 32.2911
840	 32.1951
824	 31.9674
808	 31.8235
792	 31.5982
776	 31.4618
760	 31.3539
744	 31.2103
728	 30.7318
712	 30.512
696	 30.5651
680	 30.4724
664	 30.2268
648	 29.7689
632	 29.4868
616	 30.0962
600	 28.9764
584	 28.6509
568	 28.3888
552	 28.4946
536	 28.2985
520	 27.5111
504	 27.7881
488	 27.1201
472	 27.0587
456	 25.9931
440	 24.8965
424	 23.8195
408	 26.1521
392	 25.3588
376	 37.3777
370	 49.3341