File: Bakgrunnsmateriale/MATLAB/FTIR/ftir_data/LPE453/Mapping_121/LPE453_t33.asc
PE IR       SPECTRUM    SPECTRUM    ASCII       PEDS        1.60
  -1
LPCF95~1.ASC
17/05/16
17:03:23.00
17/05/16
17:03:49.00
tln
$LPE453_t0033$<tbV0>[-13.0,-7.8,8.0,0.0,27,1,0]
27.028
64

2002,4.07
MIRTGS : RIGHTBACK : INTERNAL 2
MIR : ON : INTERNAL 2
OPTKBR

0.200000
8
8.000000
FILLER
RATIO
SPECTRUM
UNLOCKED 256

DOUBLE
64
COMBINED
1
0
0

0.002000
RATIO

1
0
TRUE
51149
0
LEFT NOT FITTED RIGHT NOT FITTED 0
NONE
NONE
15600
12
4.427000
51148
TRUE
1 0 8 72 0 0 0 0

15798

#HDR
-1
-1
#GR
µM
%T
2.38419e-05
0.0
2.000000
0.002000
12515
8
44.3849
-74.1541
#DATA
2.000000	 -0.035691
2.084000	 0.553742
2.168000	 0.400479
2.252000	 0.300932
2.336000	 -0.031630
2.420000	 0.046915
2.504000	 -0.114553
2.588000	 -0.334981
2.672000	 0.085027
2.756000	 0.070291
2.840000	 0.132300
2.924000	 0.210495
3.008000	 0.081542
3.092000	 -0.094177
3.176000	 0.063160
3.260000	 0.066758
3.344000	 0.147174
3.428000	 0.059964
3.512000	 0.074083
3.596000	 0.060309
3.680000	 0.010689
3.764000	 0.042794
3.848000	 0.073244
3.932000	 0.065831
4.016000	 0.052811
4.100000	 0.214146
4.184000	 0.007809
4.268000	 -0.051274
4.352000	 0.178356
4.436000	 0.702058
4.520000	 1.651953
4.604000	 3.790058
4.688000	 7.000199
4.772000	 10.6493
4.856000	 14.6104
4.940000	 17.9757
5.024000	 20.6734
5.108000	 23.2012
5.192000	 24.9397
5.276000	 26.3456
5.359999	 27.357
5.444000	 28.3238
5.528000	 29.0068
5.612000	 29.4141
5.696000	 29.9584
5.780000	 30.3254
5.864000	 30.5172
5.948000	 30.7773
6.032000	 30.915
6.116000	 31.0492
6.200000	 31.1705
6.284000	 31.3691
6.368000	 31.3523
6.452000	 31.5866
6.536000	 31.4938
6.620000	 31.6713
6.704000	 31.6989
6.788000	 31.5305
6.872000	 31.514
6.956000	 31.58
7.040000	 31.4512
7.124000	 31.5563
7.208000	 31.4531
7.292000	 31.2948
7.376000	 31.3093
7.460000	 31.395
7.544000	 31.0214
7.628000	 31.2101
7.712000	 31.1213
7.796000	 31.1509
7.880000	 30.9888
7.964000	 30.9882
8.048000	 30.9792
8.132000	 30.7448
8.216000	 30.6735
8.300000	 30.627
8.384000	 30.5568
8.468000	 30.4555
8.552000	 30.4084
8.635999	 30.2835
8.719999	 30.1292
8.804000	 29.9151
8.888000	 29.9083
8.972000	 30.0362
9.056000	 29.7411
9.140000	 29.6594
9.224000	 29.6547
9.308000	 29.7105
9.391999	 29.3125
9.475999	 29.3664
9.560000	 29.1769
9.644000	 29.0891
9.728000	 28.9072
9.812000	 28.5661
9.896000	 28.8579
9.980000	 28.9299
10.064	28.6212
10.148	28.6509
10.232	28.4405
10.316	28.3938
10.4	28.477
10.484	28.3404
10.568	28.0893
10.652	27.8294
10.736	27.7679
10.82	27.8465
10.904	27.7678
10.988	27.6459
11.072	27.536
11.156	27.2514
11.24	27.1143
11.324	26.9356
11.408	27.1529
11.492	27.274
11.576	27.0503
11.66	27.047
11.744	26.8684
11.828	26.5912
11.912	26.2566
11.996	26.2579
12.08	26.3781
12.164	26.1187
12.248	26.0163
12.332	26.2408
12.416	26.1068
12.5	26.0133
12.584	26.1095
12.668	25.9783
12.752	25.7538
12.836	25.7659
12.92	25.9237
13.004	25.8016
13.088	25.5339
13.172	25.7369
13.256	26.012
13.34	25.8845
13.424	25.5566
13.508	25.1184
13.592	24.9177
13.676	24.8526
13.76	24.6249
13.844	24.3982
13.928	24.5858
14.012	24.8805
14.096	24.8312
14.18	24.6182
14.264	24.4091
14.348	24.3163
14.432	24.3314
14.516	24.1218
14.6	23.7992
14.684	23.7197
14.768	23.719
14.852	23.6297
14.936	23.5836
15.02	23.5757
15.104	23.4662
15.188	23.3673
15.272	23.4989
15.356	23.6447
15.44	23.4922
15.524	23.301
15.608	23.378
15.692	23.4514
15.776	23.2109
15.86	22.8684
15.944	22.7062
16.028	22.6888
16.112	22.7223
16.196	22.7452
16.28	22.6601
16.364	22.508
16.448	22.4119
16.532	22.3281
16.616	22.2277
16.7	22.2736
16.784	22.4886
16.868	22.6364
16.952	22.6195
17.036	22.5742
17.12	22.5476
17.204	22.4637
17.288	22.3324
17.372	22.2019
17.456	22.0463
17.54	21.8778
17.624	21.7816
17.708	21.7557
17.792	21.6919
17.876	21.554
17.96	21.4544
18.044	21.4985
18.128	21.647
18.212	21.7611
18.296	21.7512
18.38	21.6546
18.464	21.567
18.548	21.5341
18.632	21.5196
18.716	21.4502
18.8	21.2567
18.884	20.8998
18.968	20.4165
19.052	19.9528
19.136	19.6895
19.22	19.7055
19.304	19.9247
19.388	20.1902
19.472	20.3792
19.556	20.4431
19.64	20.3948
19.724	20.2842
19.808	20.1853
19.892	20.1603
19.976	20.2203
20.06	20.315
20.144	20.3634
20.228	20.3027
20.312	20.1166
20.396	19.8329
20.48	19.5098
20.564	19.2162
20.648	19.0178
20.732	18.9543
20.816	19.025
20.9	19.1767
20.984	19.3226
21.068	19.3934
21.152	19.393
21.236	19.4046
21.32	19.5206
21.404	19.7579
21.488	20.0185
21.572	20.1636
21.656	20.1141
21.74	19.9079
21.824	19.6708
21.908	19.5142
21.992	19.4661
22.076	19.4849
22.16	19.506
22.244	19.5115
22.328	19.5338
22.412	19.6164
22.496	19.774
22.58	20.0031
22.664	20.3039
22.748	20.6896
22.832	21.171
22.916	21.7174
23	22.2446
23.084	22.6283
23.168	22.6958
23.252	22.2966
23.336	21.3723
23.42	20.0194
23.504	18.5014
23.588	17.1923
23.672	16.4185
23.756	16.3104
23.84	16.7641
23.924	17.4605
24.008	18.0153
24.092	18.1354
24.176	17.7395
24.26	16.9008
24.344	15.8124
24.428	14.7126
24.512	13.8452
24.596	13.3486
24.68	13.3473
24.764	14.007
24.848	15.2982
24.932	17.0344
25.016	18.8895
25.1	20.406
25.184	21.0959
25.268	20.6479
25.352	19.0412
25.436	16.5373
25.52	13.6636
25.604	11.0983
25.688	9.618821
25.772	9.936724
25.856	12.5024
25.94	17.4557
26.024	24.4096
26.108	32.3067
26.192	39.4993
26.276	43.8972
26.36	43.2953
26.444	36.2805
26.528	22.8022
26.612	4.155431
26.696	-17.2176
26.78	-38.2694
26.864	-56.0711
26.948	-68.4329
27.028	-74.1541