File: Bakgrunnsmateriale/MATLAB/FTIR/ftir_data/LPE453/Mapping_121/LPE453_t47_cm-1.asc
PE IR       SPECTRUM    SPECTRUM    ASCII       PEDS        1.60
  -1
LP69DA~1.ASC
17/05/16
18:15:30.00
17/05/16
18:15:30.00
tln
$LPE453_t0047$<tbV0>[7.8,-2.6,8.0,0.0,27,1,0]
370
64

2002,4.07
MIRTGS : RIGHTBACK : INTERNAL 2
MIR : ON : INTERNAL 2
OPTKBR

0.200000
8
8.000000
FILLER
RATIO
SPECTRUM
UNLOCKED 256

DOUBLE
64
COMBINED
1
0
0

1.000000
RATIO

1
0
TRUE
51149
0
LEFT NOT FITTED RIGHT NOT FITTED 0
NONE
NONE
15600
12
4.427000
51148
TRUE
1 0 8 72 0 0 0 0

15798

#HDR
-1
-1
#GR
CM-1
%T
2.38419e-05
0.0
5000
-1.000000
4631
8
22.2545
-15.2378
#DATA
5000	0.009989
4984	0.128650
4968	0.109052
4952	-0.165176
4936	0.471305
4920	0.142073
4904	0.128316
4888	-0.147414
4872	-0.226116
4856	-0.185108
4840	0.466990
4824	-0.066065
4808	0.222587
4792	0.124812
4776	-0.136017
4760	0.152516
4744	0.028514
4728	-0.028562
4712	-0.282382
4696	0.262045
4680	0.559782
4664	0.321006
4648	-0.016474
4632	0.553607
4616	-0.072979
4600	0.171208
4584	-0.436305
4568	-0.188422
4552	-0.910687
4536	-0.181531
4520	6.417632
4504	-2.125096
4488	1.172542
4472	0.057935
4456	0.703692
4440	0.667977
4424	0.647377
4408	0.412631
4392	0.257945
4376	0.238943
4360	0.189852
4344	-0.017857
4328	0.033068
4312	0.188016
4296	0.138115
4280	0.129771
4264	0.204038
4248	0.055932
4232	-0.304770
4216	0.096058
4200	-0.063943
4184	0.090932
4168	0.384998
4152	0.092768
4136	-0.248765
4120	-0.057458
4104	-0.083494
4088	0.073027
4072	0.047492
4056	-0.051236
4040	-0.033235
4024	0.159883
4008	0.259566
3992	0.209546
3976	0.041222
3960	0.102686
3944	0.051569
3928	-0.009655
3912	-0.022339
3896	0.114488
3880	-0.056004
3864	0.356912
3848	0.111675
3832	-0.009036
3816	0.293970
3800	-0.102281
3784	0.086927
3768	0.016951
3752	-0.051951
3736	0.124573
3720	-0.012063
3704	0.075984
3688	0.018620
3672	0.087451
3656	-0.026988
3640	0.008893
3624	0.004625
3608	-0.122165
3592	-0.111913
3576	0.065159
3560	0.054335
3544	-0.100874
3528	0.130534
3512	0.011658
3496	0.183033
3480	-0.096988
3464	0.086879
3448	-0.109720
3432	-0.049042
3416	0.056242
3400	0.046253
3384	0.050044
3368	0.094652
3352	0.184822
3336	0.017285
3320	0.096058
3304	0.150537
3288	0.114059
3272	0.002431
3256	0.011897
3240	0.023508
3224	-0.024294
3208	0.048255
3192	-0.000905
3176	0.059914
3160	0.089597
3144	-0.012183
3128	-0.054311
3112	0.063872
3096	-0.009155
3080	0.073862
3064	-0.031661
3048	0.079989
3032	0.002670
3016	-0.030207
3000	0.032258
2984	0.035548
2968	0.111055
2952	-0.044155
2936	0.218176
2920	0.261783
2904	0.015020
2888	-0.000381
2872	0.106859
2856	-0.047802
2840	0.041246
2824	0.096440
2808	0.095796
2792	0.078940
2776	0.085163
2760	-0.084280
2744	0.022482
2728	-0.037908
2712	0.035691
2696	0.071430
2680	0.110149
2664	0.053000
2648	-0.006175
2632	0.128793
2616	0.021624
2600	0.026679
2584	0.033950
2568	0.001788
2552	0.027680
2536	-0.056910
2520	0.029325
2504	0.024771
2488	0.021743
2472	0.003457
2456	0.253415
2440	0.100803
2424	0.090408
2408	-0.174355
2392	0.063562
2376	0.015282
2360	-0.163817
2344	0.025987
2328	0.114727
2312	-0.048613
2296	0.004482
2280	-0.059914
2264	0.060582
2248	0.130128
2232	0.188994
2216	0.289463
2200	0.444102
2184	0.870847
2168	1.277947
2152	1.820182
2136	2.785181
2120	3.692436
2104	4.793810
2088	5.927348
2072	6.951141
2056	8.676338
2040	9.872746
2024	11.1172
2008	12.4861
1992	13.6205
1976	14.6265
1960	15.7455
1944	16.5279
1928	17.4575
1912	18.0988
1896	18.7535
1880	19.327
1864	19.8045
1848	20.2495
1832	20.6894
1816	20.9601
1800	21.3207
1784	21.4189
1768	21.6019
1752	21.7408
1736	21.8384
1720	22.0476
1704	22.0647
1688	21.9939
1672	22.1788
1656	22.0399
1640	22.1351
1624	22.1579
1608	22.1332
1592	22.1647
1576	22.02
1560	22.086
1544	22.1402
1528	22.13
1512	21.9971
1496	21.9423
1480	21.8961
1464	21.8265
1448	21.841
1432	21.7915
1416	21.7439
1400	21.5648
1384	21.592
1368	21.5765
1352	21.471
1336	21.3722
1320	21.1956
1304	21.2426
1288	21.2389
1272	21.0048
1256	21.14
1240	20.952
1224	20.9314
1208	20.8364
1192	20.6513
1176	20.6604
1160	20.4902
1144	20.399
1128	20.3629
1112	20.2171
1096	19.9859
1080	19.921
1064	19.6538
1048	19.506
1032	19.5357
1016	19.2516
1000	19.0163
984	 19.1129
968	 18.7472
952	 18.5827
936	 18.3955
920	 18.2869
904	 17.8233
888	 17.779
872	 17.3749
856	 17.1798
840	 17.0514
824	 16.7331
808	 16.2147
792	 16.0826
776	 15.8338
760	 15.5274
744	 15.3077
728	 14.7601
712	 14.7326
696	 13.9534
680	 13.9705
664	 13.5472
648	 13.2379
632	 13.1629
616	 12.5162
600	 12.0044
584	 11.4131
568	 11.4867
552	 10.4938
536	 10.3267
520	 9.895682
504	 9.259772
488	 9.673976
472	 8.899092
456	 7.428574
440	 8.553194
424	 4.770374
408	 1.999115
392	 -5.035209
376	 -6.982135
370	 -14.6789