File: Bakgrunnsmateriale/MATLAB/FTIR/ftir_data/LPE453/Mapping_121/LPE453_t104_cm-1.asc
PE IR       SPECTRUM    SPECTRUM    ASCII       PEDS        1.60
  -1
LP0778~1.ASC
17/05/16
22:53:23.00
17/05/16
22:53:23.00
tln
$LPE453_t0104$<tbV0>[2.6,10.4,8.0,0.0,27,1,0]
370
64

2002,4.07
MIRTGS : RIGHTBACK : INTERNAL 2
MIR : ON : INTERNAL 2
OPTKBR

0.200000
8
8.000000
FILLER
RATIO
SPECTRUM
UNLOCKED 256

DOUBLE
64
COMBINED
1
0
0

1.000000
RATIO

1
0
TRUE
51149
0
LEFT NOT FITTED RIGHT NOT FITTED 0
NONE
NONE
15600
12
4.427000
51148
TRUE
1 0 8 72 0 0 0 0

15798

#HDR
-1
-1
#GR
CM-1
%T
2.38419e-05
0.0
5000
-1.000000
4631
8
36.6546
-11.6789
#DATA
5000	-0.154924
4984	0.029277
4968	-0.232577
4952	0.068831
4936	-0.051331
4920	0.146389
4904	-0.039792
4888	0.121974
4872	0.765728
4856	0.134515
4840	0.431036
4824	0.338983
4808	0.455904
4792	0.209999
4776	0.308442
4760	-0.296711
4744	0.335216
4728	-0.045943
4712	0.401163
4696	0.592255
4680	0.610756
4664	2.020120
4648	0.766706
4632	0.102949
4616	1.002454
4600	0.470328
4584	0.091123
4568	-0.585484
4552	-1.057839
4536	-0.989174
4520	-0.620770
4504	1.351714
4488	29.3538
4472	-1.312470
4456	-2.140498
4440	-1.510071
4424	-1.262879
4408	-0.017213
4392	1.092576
4376	0.788426
4360	0.575947
4344	0.113463
4328	0.411343
4312	0.133705
4296	0.442576
4280	-0.393748
4264	-0.213575
4248	0.593376
4232	0.084757
4216	-0.041723
4200	0.267338
4184	0.488138
4168	0.731229
4152	0.133609
4136	0.148367
4120	0.101304
4104	-0.174140
4088	0.182533
4072	-0.093173
4056	-0.064539
4040	-0.140118
4024	-0.097465
4008	0.014495
3992	0.086450
3976	0.117301
3960	-0.073194
3944	0.243973
3928	0.033092
3912	0.074052
3896	0.035238
3880	0.071215
3864	-0.027608
3848	-0.005030
3832	0.035047
3816	0.269842
3800	0.173640
3784	0.227785
3768	-0.010943
3752	0.169444
3736	-0.109457
3720	-0.020337
3704	0.265645
3688	0.074934
3672	-0.026679
3656	-0.189638
3640	0.112032
3624	0.060343
3608	-0.023078
3592	0.122594
3576	0.122427
3560	-0.062060
3544	0.037550
3528	0.047707
3512	0.083017
3496	0.072526
3480	0.294709
3464	0.140142
3448	0.082635
3432	0.205397
3416	-0.054049
3400	0.116539
3384	0.057172
3368	-0.120615
3352	0.008559
3336	0.178360
3320	0.045037
3304	0.054407
3288	0.064110
3272	0.074553
3256	0.120735
3240	-0.062751
3224	0.065732
3208	-0.012660
3192	0.196838
3176	0.051403
3160	0.016903
3144	0.120782
3128	0.066804
3112	0.096130
3096	0.122761
3080	0.024628
3064	0.062489
3048	0.058889
3032	-0.082683
3016	0.035071
3000	0.008630
2984	0.035262
2968	0.031518
2952	0.016951
2936	0.125527
2920	0.120306
2904	0.165414
2888	-0.026988
2872	0.085949
2856	0.101494
2840	-0.015568
2824	0.040197
2808	0.013899
2792	0.062870
2776	0.140452
2760	0.122499
2744	0.033903
2728	-0.016546
2712	0.068569
2696	0.007605
2680	0.057411
2664	0.058507
2648	0.074362
2632	0.004887
2616	0.007772
2600	0.045275
2584	0.028777
2568	-0.024223
2552	0.053238
2536	-0.061869
2520	-0.036907
2504	0.085926
2488	0.138401
2472	-0.086998
2456	-0.023770
2440	0.026416
2424	0.052618
2408	0.025987
2392	0.081396
2376	0.164985
2360	0.335168
2344	0.291037
2328	0.441098
2312	0.706028
2296	1.039171
2280	1.347684
2264	1.814055
2248	2.467966
2232	3.387713
2216	4.404258
2200	5.655384
2184	7.033753
2168	8.724832
2152	10.702
2136	12.6397
2120	14.6555
2104	16.7675
2088	18.8722
2072	20.7268
2056	22.7201
2040	24.3697
2024	25.9893
2008	27.5177
1992	28.7261
1976	29.9399
1960	30.8345
1944	31.6369
1928	32.4618
1912	33.1427
1896	33.6941
1880	34.1626
1864	34.674
1848	34.9055
1832	35.2094
1816	35.6084
1800	35.7469
1784	35.6961
1768	36.0366
1752	36.1547
1736	36.2404
1720	36.2703
1704	36.3363
1688	36.4956
1672	36.3569
1656	36.4241
1640	36.3619
1624	36.5361
1608	36.4413
1592	36.4884
1576	36.3695
1560	36.4568
1544	36.5079
1528	36.4301
1512	36.5976
1496	36.3828
1480	36.4783
1464	36.4257
1448	36.3311
1432	36.3707
1416	36.2456
1400	36.4856
1384	36.2151
1368	36.2978
1352	36.3211
1336	36.3254
1320	36.3301
1304	36.2882
1288	36.2528
1272	36.1487
1256	35.9988
1240	35.9451
1224	36.1188
1208	36.0902
1192	35.9853
1176	35.9902
1160	36.0333
1144	35.8237
1128	35.7211
1112	35.5678
1096	35.7263
1080	35.9027
1064	35.415
1048	35.3715
1032	35.4604
1016	35.3718
1000	34.904
984	 35.0142
968	 35.0967
952	 35.073
936	 34.5994
920	 34.4485
904	 34.6192
888	 34.3989
872	 33.9837
856	 33.9731
840	 33.9585
824	 33.393
808	 33.3723
792	 33.4048
776	 33.255
760	 32.3588
744	 32.929
728	 32.5374
712	 32.2699
696	 31.7228
680	 31.1863
664	 31.4196
648	 31.2021
632	 30.4624
616	 29.8959
600	 30.0658
584	 29.9765
568	 28.8516
552	 28.6102
536	 29.1948
520	 27.9155
504	 27.2573
488	 26.9725
472	 27.8472
456	 25.8095
440	 24.0696
424	 24.3704
408	 26.1464
392	 7.084274
376	 -4.194211
370	 -11.6789