File: Bakgrunnsmateriale/MATLAB/FTIR/ftir_data/LPE453/Mapping_121/LPE453_t61_cm-1.asc
PE IR       SPECTRUM    SPECTRUM    ASCII       PEDS        1.60
  -1
LP5AD5~1.ASC
17/05/16
19:20:41.00
17/05/16
19:20:41.00
tln
$LPE453_t0061$<tbV0>[0.0,0.0,8.0,0.0,27,1,0]
370
64

2002,4.07
MIRTGS : RIGHTBACK : INTERNAL 2
MIR : ON : INTERNAL 2
OPTKBR

0.200000
8
8.000000
FILLER
RATIO
SPECTRUM
UNLOCKED 256

DOUBLE
64
COMBINED
1
0
0

1.000000
RATIO

1
0
TRUE
51149
0
LEFT NOT FITTED RIGHT NOT FITTED 0
NONE
NONE
15600
12
4.427000
51148
TRUE
1 0 8 72 0 0 0 0

15798

#HDR
-1
-1
#GR
CM-1
%T
2.38419e-05
0.0
5000
-1.000000
4631
8
30.3524
-22.3091
#DATA
5000	0.046706
4984	-0.271415
4968	0.337886
4952	0.334358
4936	0.197124
4920	0.171160
4904	-0.167322
4888	0.057411
4872	0.651240
4856	-0.067615
4840	0.340008
4824	0.522971
4808	0.161194
4792	0.299334
4776	-0.158214
4760	-0.197339
4744	-0.450348
4728	0.915098
4712	-1.521229
4696	0.027894
4680	0.776648
4664	-0.259280
4648	0.098252
4632	0.021576
4616	0.244235
4600	-0.142145
4584	0.400352
4568	0.510311
4552	0.445103
4536	0.980281
4520	-1.183509
4504	-0.445652
4488	8.256530
4472	2.993917
4456	0.462532
4440	-0.563931
4424	-0.623154
4408	0.217008
4392	0.134944
4376	0.092458
4360	0.114679
4344	0.148797
4328	0.436091
4312	0.347661
4296	-0.133776
4280	-0.096035
4264	0.045442
4248	0.301289
4232	0.380420
4216	0.161194
4200	0.233435
4184	-0.044918
4168	0.175404
4152	0.293779
4136	-0.033879
4120	0.088930
4104	0.141763
4088	0.021576
4072	0.041484
4056	-0.002813
4040	0.177145
4024	-0.099802
4008	0.046157
3992	0.180172
3976	0.121331
3960	0.217151
3944	-0.036478
3928	0.077056
3912	-0.057220
3896	0.126075
3880	0.089073
3864	0.040507
3848	0.052237
3832	0.199651
3816	-0.053310
3800	0.005769
3784	0.024580
3768	-0.003671
3752	0.066113
3736	0.045013
3720	0.012540
3704	0.254321
3688	-0.035572
3672	0.060462
3656	0.107002
3640	0.106358
3624	0.029087
3608	0.058579
3592	0.069355
3576	-0.062727
3560	-0.022649
3544	0.071930
3528	-0.015044
3512	0.021529
3496	-0.013136
3480	-0.098061
3464	0.077772
3448	0.114631
3432	-0.137925
3416	0.011277
3400	0.021266
3384	-0.065851
3368	-0.004625
3352	-0.080490
3336	-0.112748
3320	0.012540
3304	-0.049018
3288	0.017118
3272	0.055837
3256	-0.042176
3240	0.098657
3224	0.107192
3208	0.098061
3192	0.062227
3176	0.103306
3160	0.137233
3144	0.115036
3128	0.243759
3112	-0.079107
3096	0.108885
3080	-0.106120
3064	-0.009560
3048	0.024175
3032	0.066661
3016	0.041794
3000	0.103330
2984	-0.029993
2968	0.156545
2952	0.064158
2936	-0.001764
2920	-0.073623
2904	0.016832
2888	-0.032091
2872	-0.045943
2856	0.067639
2840	0.112581
2824	-0.035309
2808	-0.027298
2792	0.003027
2776	0.006294
2760	-0.036025
2744	0.092172
2728	0.047254
2712	-0.010871
2696	-0.063300
2680	-0.016260
2664	-0.033497
2648	0.002312
2632	0.060558
2616	-0.027966
2600	-0.047707
2584	0.047254
2568	0.026369
2552	-0.090265
2536	0.061988
2520	0.001549
2504	-0.002145
2488	0.036072
2472	0.033855
2456	0.018906
2440	-0.015592
2424	-0.106954
2408	0.106000
2392	0.036644
2376	0.047588
2360	-0.008368
2344	-0.006318
2328	-0.010299
2312	0.137734
2296	0.154066
2280	0.194883
2264	0.435805
2248	0.689983
2232	1.083397
2216	1.620435
2200	2.269482
2184	3.051042
2168	4.273533
2152	5.492210
2136	7.008194
2120	8.812928
2104	10.4427
2088	12.1521
2072	14.1752
2056	15.7859
2040	17.4352
2024	19.0204
2008	20.4863
1992	21.858
1976	22.998
1960	24.0715
1944	24.9847
1928	25.9557
1912	26.597
1896	27.1987
1880	27.6544
1864	28.2123
1848	28.6116
1832	28.9538
1816	29.1204
1800	29.4461
1784	29.7324
1768	29.6637
1752	29.8762
1736	29.9722
1720	30.0632
1704	30.041
1688	30.2345
1672	30.218
1656	30.2788
1640	30.2254
1624	30.2834
1608	30.2983
1592	30.2302
1576	30.1734
1560	30.2182
1544	30.2757
1528	30.0719
1512	30.0876
1496	30.128
1480	29.9077
1464	29.9937
1448	29.8409
1432	29.8904
1416	29.8114
1400	29.5259
1384	29.6278
1368	29.629
1352	29.3388
1336	29.5057
1320	29.4598
1304	29.2397
1288	29.3239
1272	29.1869
1256	29.0527
1240	29.1555
1224	28.7942
1208	28.7182
1192	29.0729
1176	28.6009
1160	28.6018
1144	28.7071
1128	28.3019
1112	28.2346
1096	28.4831
1080	27.9732
1064	27.8277
1048	27.6779
1032	27.6854
1016	27.6256
1000	27.5578
984	 26.9864
968	 27.0998
952	 26.8674
936	 26.1581
920	 26.412
904	 26.2261
888	 25.6702
872	 25.6355
856	 25.5641
840	 24.9209
824	 24.8932
808	 24.6656
792	 24.0313
776	 24.3584
760	 23.7717
744	 23.3772
728	 23.2232
712	 22.9084
696	 22.3294
680	 22.1263
664	 21.5401
648	 21.4746
632	 20.7757
616	 20.2198
600	 19.6687
584	 20.145
568	 19.1138
552	 18.8089
536	 19.1679
520	 18.2112
504	 17.4103
488	 17.7805
472	 16.5697
456	 15.9488
440	 15.4373
424	 15.2141
408	 12.308
392	 13.4574
376	 11.4033
370	 -22.3091