File: Bakgrunnsmateriale/MATLAB/FTIR/ftir_data/LPE453/Mapping_121/LPE453_t75_cm-1.asc
PE IR       SPECTRUM    SPECTRUM    ASCII       PEDS        1.60
  -1
LPEADA~1.ASC
17/05/16
20:31:57.00
17/05/16
20:31:57.00
tln
$LPE453_t0075$<tbV0>[-7.8,2.6,8.0,0.0,27,1,0]
370
64

2002,4.07
MIRTGS : RIGHTBACK : INTERNAL 2
MIR : ON : INTERNAL 2
OPTKBR

0.200000
8
8.000000
FILLER
RATIO
SPECTRUM
UNLOCKED 256

DOUBLE
64
COMBINED
1
0
0

1.000000
RATIO

1
0
TRUE
51149
0
LEFT NOT FITTED RIGHT NOT FITTED 0
NONE
NONE
15600
12
4.427000
51148
TRUE
1 0 8 72 0 0 0 0

15798

#HDR
-1
-1
#GR
CM-1
%T
2.38419e-05
0.0
5000
-1.000000
4631
8
45.2929
-13.88
#DATA
5000	0.034594
4984	0.712227
4968	0.165271
4952	-0.261521
4936	0.261092
4920	0.059723
4904	0.129413
4888	0.220298
4872	-0.041770
4856	0.012111
4840	0.404381
4824	0.119447
4808	0.347208
4792	-0.476598
4776	0.060081
4760	-0.074028
4744	0.490450
4728	1.820731
4712	1.228666
4696	0.406765
4680	0.647854
4664	1.383423
4648	0.367760
4632	-0.346016
4616	0.538492
4600	0.279450
4584	0.186324
4568	-0.022435
4552	0.509262
4536	-0.473713
4520	-0.796675
4504	-5.003166
4488	15.2301
4472	0.844860
4456	0.470757
4440	-0.165557
4424	0.217914
4408	-0.229358
4392	-0.163936
4376	-0.040245
4360	0.135183
4344	0.095605
4328	0.109934
4312	0.171232
4296	0.018215
4280	0.176548
4264	0.385165
4248	0.097131
4232	-0.157999
4216	-0.075650
4200	-0.081872
4184	-0.106811
4168	0.412702
4152	0.057911
4136	-0.085473
4120	0.157642
4104	0.168299
4088	0.149774
4072	-0.047469
4056	0.088286
4040	0.063776
4024	0.140810
4008	-0.179839
3992	0.137305
3976	0.078678
3960	0.126600
3944	-0.071549
3928	0.097560
3912	0.111985
3896	0.033307
3880	0.055146
3864	-0.169491
3848	0.163483
3832	0.116729
3816	-0.190424
3800	0.239777
3784	0.066542
3768	-0.149822
3752	0.088000
3736	0.196361
3720	0.104761
3704	0.094699
3688	0.008964
3672	0.243282
3656	0.011897
3640	0.119781
3624	-0.102782
3608	0.023627
3592	0.042772
3576	-0.031113
3560	0.017404
3544	0.088167
3528	0.111627
3512	0.211334
3496	0.038075
3480	0.067949
3464	0.092148
3448	0.118732
3432	-0.014233
3416	0.149083
3400	0.045657
3384	0.147724
3368	0.093412
3352	0.164246
3336	0.043630
3320	-0.046539
3304	-0.002741
3288	-0.059151
3272	-0.045013
3256	0.173234
3240	0.166797
3224	0.034451
3208	0.086808
3192	-0.011134
3176	0.029945
3160	0.128078
3144	0.049781
3128	0.014019
3112	-0.074768
3096	0.111627
3080	0.069046
3064	0.115013
3048	-0.008535
3032	0.073647
3016	0.042557
3000	0.035023
2984	0.075483
2968	0.012183
2952	0.083875
2936	0.049328
2920	-0.025868
2904	0.173091
2888	0.039768
2872	0.111126
2856	0.036954
2840	0.031971
2824	0.024080
2808	0.059914
2792	0.087451
2776	-0.056314
2760	0.049877
2744	0.023484
2728	0.090360
2712	-0.076103
2696	-0.044822
2680	0.060510
2664	-0.025582
2648	0.039911
2632	0.013399
2616	0.052285
2600	0.015497
2584	-0.022053
2568	0.074458
2552	0.007891
2536	-0.033831
2520	-0.104665
2504	0.128197
2488	-0.004887
2472	0.048589
2456	0.074100
2440	0.024223
2424	0.058341
2408	-0.002121
2392	0.132369
2376	0.101447
2360	0.098991
2344	0.142502
2328	0.161862
2312	0.448179
2296	0.447034
2280	0.766539
2264	1.077461
2248	1.489639
2232	2.210259
2216	3.144454
2200	4.116725
2184	5.413556
2168	7.044672
2152	8.556985
2136	10.4809
2120	12.5332
2104	14.6236
2088	16.6929
2072	18.8148
2056	20.7582
2040	22.3053
2024	24.0288
2008	25.5459
1992	26.7755
1976	28.0595
1960	29.0628
1944	29.8787
1928	30.8267
1912	31.5457
1896	31.9671
1880	32.5771
1864	33.0315
1848	33.2472
1832	33.6501
1816	34.1063
1800	34.0555
1784	34.2472
1768	34.5983
1752	34.5426
1736	34.3989
1720	34.8718
1704	34.8461
1688	34.6791
1672	34.9513
1656	35.0345
1640	34.6938
1624	34.7618
1608	35.1528
1592	34.7018
1576	34.5314
1560	34.998
1544	34.8325
1528	34.4156
1512	34.7515
1496	34.8093
1480	34.4547
1464	34.409
1448	34.8408
1432	34.4474
1416	34.2976
1400	34.7246
1384	34.4277
1368	33.8714
1352	34.2187
1336	34.523
1320	33.8517
1304	33.8915
1288	34.3641
1272	33.904
1256	33.6665
1240	34.0525
1224	34.1249
1208	33.4165
1192	33.6755
1176	34.0689
1160	33.3942
1144	33.0207
1128	33.6223
1112	33.4933
1096	32.7865
1080	33.2825
1064	33.2802
1048	32.4238
1032	32.4887
1016	33.0371
1000	32.5998
984	 31.9288
968	 32.4776
952	 32.2816
936	 31.5386
920	 31.4292
904	 31.901
888	 31.1694
872	 30.8012
856	 31.2151
840	 31.0718
824	 30.2693
808	 30.374
792	 30.3431
776	 29.4979
760	 29.2033
744	 29.6622
728	 29.0903
712	 28.1293
696	 28.3037
680	 28.2882
664	 27.0899
648	 27.2257
632	 27.7549
616	 26.4415
600	 26.113
584	 26.0357
568	 25.3539
552	 24.6708
536	 24.91
520	 24.2006
504	 23.8321
488	 23.7362
472	 23.3766
456	 22.2931
440	 19.7454
424	 18.5881
408	 18.7234
392	 33.8524
376	 15.9059
370	 14.4263