File: Bakgrunnsmateriale/MATLAB/FTIR/ftir_data/LPE453/Mapping_121/LPE453_t39.asc
PE IR       SPECTRUM    SPECTRUM    ASCII       PEDS        1.60
  -1
LPEF9D~1.ASC
17/05/16
17:31:40.00
17/05/16
17:32:06.00
tln
$LPE453_t0039$<tbV0>[0.0,-5.2,8.0,0.0,27,1,0]
27.028
64

2002,4.07
MIRTGS : RIGHTBACK : INTERNAL 2
MIR : ON : INTERNAL 2
OPTKBR

0.200000
8
8.000000
FILLER
RATIO
SPECTRUM
UNLOCKED 256

DOUBLE
64
COMBINED
1
0
0

0.002000
RATIO

1
0
TRUE
51149
0
LEFT NOT FITTED RIGHT NOT FITTED 0
NONE
NONE
15600
12
4.427000
51148
TRUE
1 0 8 72 0 0 0 0

15798

#HDR
-1
-1
#GR
µM
%T
2.38419e-05
0.0
2.000000
0.002000
12515
8
38.4702
-4.653425
#DATA
2.000000	 -0.064992
2.084000	 0.067218
2.168000	 -0.059810
2.252000	 0.589037
2.336000	 0.242592
2.420000	 0.013069
2.504000	 0.134041
2.588000	 -0.112363
2.672000	 -0.011251
2.756000	 -0.039266
2.840000	 0.136288
2.924000	 0.028724
3.008000	 -0.046038
3.092000	 -0.081022
3.176000	 0.135979
3.260000	 0.075116
3.344000	 0.075681
3.428000	 0.048025
3.512000	 0.019271
3.596000	 -0.031765
3.680000	 0.016431
3.764000	 0.077627
3.848000	 0.059998
3.932000	 0.075431
4.016000	 -0.118976
4.100000	 -0.014965
4.184000	 0.051705
4.268000	 -0.022425
4.352000	 0.270569
4.436000	 0.519825
4.520000	 1.525364
4.604000	 3.706397
4.688000	 6.669293
4.772000	 10.8377
4.856000	 14.8915
4.940000	 18.6228
5.024000	 21.5655
5.108000	 23.904
5.192000	 25.6324
5.276000	 27.0675
5.359999	 27.9505
5.444000	 28.8269
5.528000	 29.3314
5.612000	 29.5757
5.696000	 29.9596
5.780000	 30.1241
5.864000	 30.3503
5.948000	 30.2472
6.032000	 30.449
6.116000	 30.5228
6.200000	 30.4073
6.284000	 30.4539
6.368000	 30.4571
6.452000	 30.2999
6.536000	 30.3235
6.620000	 30.2827
6.704000	 30.0225
6.788000	 30.2548
6.872000	 30.0278
6.956000	 30.1142
7.040000	 29.9846
7.124000	 29.9898
7.208000	 30.0034
7.292000	 29.9025
7.376000	 29.7691
7.460000	 29.8873
7.544000	 29.7436
7.628000	 29.5904
7.712000	 29.6122
7.796000	 29.7503
7.880000	 29.419
7.964000	 29.391
8.048000	 29.3279
8.132000	 29.361
8.216000	 29.149
8.300000	 29.1874
8.384000	 29.216
8.468000	 29.0689
8.552000	 29.0737
8.635999	 28.9425
8.719999	 28.8506
8.804000	 28.8424
8.888000	 28.6721
8.972000	 28.7855
9.056000	 28.6031
9.140000	 28.7483
9.224000	 28.3497
9.308000	 28.4472
9.391999	 28.3432
9.475999	 28.3237
9.560000	 28.1438
9.644000	 28.015
9.728000	 27.8163
9.812000	 27.7013
9.896000	 27.9001
9.980000	 27.8734
10.064	27.5969
10.148	27.2599
10.232	27.0852
10.316	27.3488
10.4	27.2432
10.484	27.2955
10.568	27.1693
10.652	26.7805
10.736	26.7884
10.82	26.8113
10.904	26.9344
10.988	26.8907
11.072	26.3955
11.156	26.2596
11.24	26.2414
11.324	26.071
11.408	26.0332
11.492	26.1871
11.576	26.201
11.66	25.9786
11.744	25.703
11.828	25.3716
11.912	25.1956
11.996	25.4386
12.08	25.5381
12.164	25.5411
12.248	25.4099
12.332	25.0829
12.416	24.7869
12.5	24.7695
12.584	24.8767
12.668	24.6996
12.752	24.665
12.836	24.6171
12.92	24.3243
13.004	24.2906
13.088	24.3094
13.172	24.0993
13.256	23.9821
13.34	23.8827
13.424	23.4361
13.508	23.1693
13.592	23.2529
13.676	23.4765
13.76	23.54
13.844	23.4448
13.928	23.342
14.012	23.2144
14.096	23.0621
14.18	22.9979
14.264	22.9567
14.348	22.7098
14.432	22.5665
14.516	22.8615
14.6	23.1538
14.684	23.1037
14.768	22.8587
14.852	22.4808
14.936	22.1523
15.02	21.9831
15.104	21.8298
15.188	21.7064
15.272	21.6533
15.356	21.633
15.44	21.6799
15.524	21.7348
15.608	21.7008
15.692	21.6644
15.776	21.6787
15.86	21.6713
15.944	21.6133
16.028	21.5024
16.112	21.338
16.196	21.1521
16.28	20.983
16.364	20.8394
16.448	20.6455
16.532	20.3316
16.616	20.0734
16.7	20.1142
16.784	20.3668
16.868	20.5945
16.952	20.73
17.036	20.7647
17.12	20.6462
17.204	20.4351
17.288	20.2824
17.372	20.1868
17.456	20.0027
17.54	19.6926
17.624	19.4104
17.708	19.291
17.792	19.2984
17.876	19.3124
17.96	19.2796
18.044	19.2326
18.128	19.2292
18.212	19.2931
18.296	19.3715
18.38	19.3385
18.464	19.1315
18.548	18.8696
18.632	18.7441
18.716	18.7937
18.8	18.8613
18.884	18.7937
18.968	18.6153
19.052	18.4788
19.136	18.4663
19.22	18.5052
19.304	18.4653
19.388	18.3189
19.472	18.1718
19.556	18.1412
19.64	18.2261
19.724	18.3125
19.808	18.2878
19.892	18.1431
19.976	17.965
20.06	17.8581
20.144	17.8623
20.228	17.9401
20.312	18.0195
20.396	18.056
20.48	18.0763
20.564	18.1455
20.648	18.2735
20.732	18.3656
20.816	18.2702
20.9	17.8987
20.984	17.3008
21.068	16.6511
21.152	16.1607
21.236	15.9653
21.32	16.0578
21.404	16.2944
21.488	16.4774
21.572	16.4665
21.656	16.2633
21.74	15.9966
21.824	15.8264
21.908	15.8339
21.992	15.9889
22.076	16.2048
22.16	16.4071
22.244	16.56
22.328	16.6507
22.412	16.6592
22.496	16.5719
22.58	16.3941
22.664	16.164
22.748	15.9375
22.832	15.73
22.916	15.5122
23	15.2362
23.084	14.8883
23.168	14.5229
23.252	14.238
23.336	14.1298
23.42	14.2457
23.504	14.5442
23.588	14.9287
23.672	15.3171
23.756	15.6834
23.84	16.0538
23.924	16.5215
24.008	17.1736
24.092	18.0208
24.176	18.9991
24.26	19.9537
24.344	20.6732
24.428	21.0117
24.512	20.9853
24.596	20.7368
24.68	20.4363
24.764	20.1685
24.848	19.8493
24.932	19.2237
25.016	18.0299
25.1	16.2
25.184	13.9863
25.268	11.9208
25.352	10.5949
25.436	10.6667
25.52	12.5733
25.604	16.336
25.688	21.52
25.772	27.2747
25.856	32.5676
25.94	36.4862
26.024	38.3598
26.108	37.8983
26.192	35.0975
26.276	30.2307
26.36	23.8125
26.444	16.7561
26.528	10.2694
26.612	5.653822
26.696	3.932563
26.78	5.528929
26.864	9.949478
26.948	15.7767
27.028	20.6551