File: Bakgrunnsmateriale/MATLAB/FTIR/ftir_data/LPE453/Mapping_121/LPE453_t108_cm-1.asc
PE IR       SPECTRUM    SPECTRUM    ASCII       PEDS        1.60
  -1
LP0B78~1.ASC
17/05/16
23:11:49.00
17/05/16
23:11:49.00
tln
$LPE453_t0108$<tbV0>[-7.8,10.4,8.0,0.0,27,1,0]
370
64

2002,4.07
MIRTGS : RIGHTBACK : INTERNAL 2
MIR : ON : INTERNAL 2
OPTKBR

0.200000
8
8.000000
FILLER
RATIO
SPECTRUM
UNLOCKED 256

DOUBLE
64
COMBINED
1
0
0

1.000000
RATIO

1
0
TRUE
51149
0
LEFT NOT FITTED RIGHT NOT FITTED 0
NONE
NONE
15600
12
4.427000
51148
TRUE
1 0 8 72 0 0 0 0

15798

#HDR
-1
-1
#GR
CM-1
%T
2.38419e-05
0.0
5000
-1.000000
4631
8
37.2319
-4.727029
#DATA
5000	0.448870
4984	-0.541019
4968	0.051307
4952	0.448131
4936	0.202989
4920	-0.263190
4904	-0.170993
4888	0.098347
4872	0.122356
4856	0.141787
4840	-0.265312
4824	0.258755
4808	0.388765
4792	-0.107693
4776	-0.345253
4760	-0.219464
4744	0.183677
4728	0.230097
4712	0.492811
4696	0.388193
4680	-0.142431
4664	0.480651
4648	0.803923
4632	0.756978
4616	1.049065
4600	1.916432
4584	0.359869
4568	0.230836
4552	-0.248908
4536	0.141835
4520	0.228309
4504	-0.803160
4488	12.4393
4472	-2.048015
4456	-0.604844
4440	0.106143
4424	-0.591969
4408	0.174093
4392	-0.245690
4376	0.021934
4360	0.319337
4344	0.060319
4328	0.196814
4312	0.293040
4296	0.077033
4280	-0.090718
4264	0.187516
4248	-0.022745
4232	-0.147914
4216	0.039982
4200	0.319457
4184	0.211071
4168	0.238108
4152	-0.072503
4136	-0.028944
4120	0.042390
4104	-0.044894
4088	-0.078773
4072	-0.054788
4056	-0.099802
4040	0.167179
4024	0.153923
4008	0.072336
3992	0.121521
3976	0.038909
3960	0.245857
3944	0.130915
3928	-0.093698
3912	0.056338
3896	0.053715
3880	0.088953
3864	0.151109
3848	-0.099492
3832	0.018405
3816	0.152182
3800	-0.023841
3784	0.097918
3768	0.010108
3752	0.097179
3736	0.138711
3720	-0.008249
3704	0.093054
3688	0.170326
3672	-0.057625
3656	0.061440
3640	0.042510
3624	0.008773
3608	0.047254
3592	0.053191
3576	0.014448
3560	0.019001
3544	-0.013256
3528	0.185751
3512	-0.030279
3496	0.064849
3480	0.026202
3464	0.099730
3448	0.038766
3432	0.082445
3416	-0.041699
3400	0.074052
3384	0.002551
3368	-0.071024
3352	0.012516
3336	0.121045
3320	-0.129652
3304	-0.007987
3288	-0.023746
3272	0.107336
3256	0.067210
3240	0.096702
3224	-0.077676
3208	0.071120
3192	0.083351
3176	-0.090479
3160	-0.086236
3144	0.072932
3128	0.108313
3112	0.087404
3096	0.005125
3080	-0.005245
3064	0.020480
3048	-0.005769
3032	0.072002
3016	0.088000
3000	-0.011515
2984	-0.066137
2968	-0.071406
2952	-0.038456
2936	0.035667
2920	0.020432
2904	0.070071
2888	0.053191
2872	0.049614
2856	0.011944
2840	0.112676
2824	-0.062036
2808	0.046372
2792	-0.037217
2776	-0.010323
2760	0.063967
2744	-0.025725
2728	0.010585
2712	-0.004839
2696	-0.016760
2680	0.079178
2664	-0.046634
2648	-0.007128
2632	-0.013780
2616	0.060415
2600	0.009346
2584	0.007915
2568	0.056934
2552	0.061035
2536	-0.043106
2520	0.032210
2504	0.003576
2488	-0.009894
2472	0.043225
2456	0.041747
2440	-0.058364
2424	-0.038576
2408	0.172448
2392	0.152015
2376	0.112462
2360	0.150251
2344	0.275444
2328	0.378489
2312	0.510072
2296	0.795125
2280	1.096272
2264	1.482748
2248	2.220749
2232	2.827382
2216	3.778839
2200	5.042695
2184	6.544804
2168	8.124041
2152	9.937262
2136	11.8576
2120	14.0242
2104	16.1247
2088	18.1769
2072	20.198
2056	22.2369
2040	23.9014
2024	25.7716
2008	27.3927
1992	28.5892
1976	29.715
1960	31.0694
1944	31.9578
1928	32.3524
1912	33.3638
1896	34.2439
1880	34.3569
1864	34.6506
1848	35.5091
1832	35.8654
1816	35.5075
1800	35.8191
1784	36.5817
1768	36.3827
1752	36.0871
1736	36.5704
1720	36.8701
1704	36.356
1688	36.3703
1672	37.1136
1656	36.9448
1640	36.4166
1624	36.6021
1608	37.0616
1592	36.7887
1576	36.2556
1560	36.7557
1544	37.1833
1528	36.4739
1512	36.2612
1496	36.7552
1480	36.8474
1464	36.1825
1448	36.2711
1432	36.8023
1416	36.4942
1400	35.7492
1384	36.082
1368	36.7451
1352	36.1722
1336	35.5092
1320	36.166
1304	36.407
1288	35.6476
1272	35.2602
1256	36.037
1240	36.0638
1224	35.2597
1208	35.3346
1192	36.0469
1176	35.7336
1160	34.7727
1144	35.1396
1128	35.9306
1112	35.33
1096	34.4939
1080	35.0948
1064	35.7051
1048	34.6974
1032	34.3468
1016	35.1351
1000	35.1456
984	 34.3797
968	 33.834
952	 34.6525
936	 34.5748
920	 33.4404
904	 33.2967
888	 34.139
872	 33.7416
856	 32.8178
840	 32.7963
824	 33.433
808	 32.87
792	 31.9864
776	 32.1422
760	 32.3915
744	 31.6733
728	 30.794
712	 31.27
696	 31.4643
680	 30.4242
664	 29.8761
648	 30.4898
632	 30.3204
616	 29.2739
600	 28.9873
584	 29.1587
568	 28.7573
552	 27.5311
536	 27.1431
520	 27.2512
504	 26.3999
488	 25.7481
472	 25.7789
456	 25.7069
440	 24.6189
424	 21.0101
408	 21.7878
392	 17.4113
376	 9.996485
370	 24.4389