File: Bakgrunnsmateriale/MATLAB/FTIR/ftir_data/LPE453/Mapping_121/LPE453_t57.asc
PE IR       SPECTRUM    SPECTRUM    ASCII       PEDS        1.60
  -1
LPD7A5~1.ASC
17/05/16
19:02:14.00
17/05/16
19:02:40.00
tln
$LPE453_t0057$<tbV0>[10.4,0.0,8.0,0.0,27,1,0]
27.028
64

2002,4.07
MIRTGS : RIGHTBACK : INTERNAL 2
MIR : ON : INTERNAL 2
OPTKBR

0.200000
8
8.000000
FILLER
RATIO
SPECTRUM
UNLOCKED 256

DOUBLE
64
COMBINED
1
0
0

0.002000
RATIO

1
0
TRUE
51149
0
LEFT NOT FITTED RIGHT NOT FITTED 0
NONE
NONE
15600
12
4.427000
51148
TRUE
1 0 8 72 0 0 0 0

15798

#HDR
-1
-1
#GR
µM
%T
2.38419e-05
0.0
2.000000
0.002000
12515
8
23.3199
-19.3054
#DATA
2.000000	 0.297307
2.084000	 0.197972
2.168000	 0.009870
2.252000	 0.890417
2.336000	 -0.040620
2.420000	 0.153223
2.504000	 -0.113911
2.588000	 -0.016754
2.672000	 0.119914
2.756000	 0.196466
2.840000	 0.147269
2.924000	 -0.052014
3.008000	 0.177667
3.092000	 0.009591
3.176000	 0.097889
3.260000	 0.224550
3.344000	 0.150975
3.428000	 0.012412
3.512000	 -0.051441
3.596000	 0.122302
3.680000	 0.075961
3.764000	 0.031439
3.848000	 0.117755
3.932000	 -0.059336
4.016000	 0.146896
4.100000	 0.241814
4.184000	 0.001859
4.268000	 -0.084578
4.352000	 -0.001421
4.436000	 0.223263
4.520000	 0.459050
4.604000	 1.592333
4.688000	 3.473270
4.772000	 6.071783
4.856000	 8.969478
4.940000	 11.9266
5.024000	 14.559
5.108000	 16.6974
5.192000	 18.3869
5.276000	 19.6863
5.359999	 20.7081
5.444000	 21.5224
5.528000	 22.062
5.612000	 22.4433
5.696000	 22.7414
5.780000	 22.9257
5.864000	 22.9602
5.948000	 23.0854
6.032000	 23.1583
6.116000	 23.2712
6.200000	 23.2533
6.284000	 23.1803
6.368000	 23.2037
6.452000	 23.1966
6.536000	 23.2922
6.620000	 23.1274
6.704000	 23.1858
6.788000	 23.0531
6.872000	 23.0467
6.956000	 23.0788
7.040000	 23.0085
7.124000	 22.8622
7.208000	 22.7646
7.292000	 22.8741
7.376000	 22.5787
7.460000	 22.7523
7.544000	 22.6535
7.628000	 22.6359
7.712000	 22.6073
7.796000	 22.4221
7.880000	 22.3567
7.964000	 22.4405
8.048000	 22.3074
8.132000	 22.2255
8.216000	 22.1378
8.300000	 22.1283
8.384000	 22.0624
8.468000	 22.0561
8.552000	 21.9406
8.635999	 21.9192
8.719999	 21.8889
8.804000	 21.7192
8.888000	 21.55
8.972000	 21.5742
9.056000	 21.3778
9.140000	 21.2185
9.224000	 21.2758
9.308000	 21.4187
9.391999	 21.1742
9.475999	 21.0922
9.560000	 20.9284
9.644000	 20.9322
9.728000	 20.8623
9.812000	 20.8297
9.896000	 20.6887
9.980000	 20.7372
10.064	20.7529
10.148	20.6812
10.232	20.4805
10.316	20.2846
10.4	20.166
10.484	20.133
10.568	20.1553
10.652	19.7974
10.736	19.7178
10.82	19.7563
10.904	19.6729
10.988	19.4482
11.072	19.2184
11.156	19.1538
11.24	19.0856
11.324	19.1211
11.408	19.0476
11.492	18.8746
11.576	18.9042
11.66	18.8321
11.744	18.6064
11.828	18.5109
11.912	18.5651
11.996	18.5384
12.08	18.1968
12.164	17.7922
12.248	17.871
12.332	17.9106
12.416	17.8963
12.5	17.6864
12.584	17.5665
12.668	17.6064
12.752	17.4471
12.836	17.3742
12.92	17.387
13.004	17.164
13.088	16.9772
13.172	16.9435
13.256	16.9866
13.34	17.0828
13.424	16.8327
13.508	16.5076
13.592	16.3879
13.676	16.3891
13.76	16.4834
13.844	16.5547
13.928	16.5856
14.012	16.4839
14.096	16.2274
14.18	16.0618
14.264	16.1041
14.348	16.0318
14.432	15.8293
14.516	15.6235
14.6	15.4168
14.684	15.4418
14.768	15.5307
14.852	15.3357
14.936	15.0916
15.02	15.0728
15.104	15.1095
15.188	15.0264
15.272	14.9177
15.356	14.8533
15.44	14.7982
15.524	14.8144
15.608	14.8928
15.692	14.8234
15.776	14.5166
15.86	14.0977
15.944	13.7343
16.028	13.5674
16.112	13.6281
16.196	13.7758
16.28	13.8375
16.364	13.7638
16.448	13.6295
16.532	13.5626
16.616	13.6376
16.7	13.7556
16.784	13.7384
16.868	13.5782
16.952	13.4014
17.036	13.2418
17.12	13.0633
17.204	12.9062
17.288	12.8293
17.372	12.8341
17.456	12.9065
17.54	13.006
17.624	13.0407
17.708	12.9588
17.792	12.8123
17.876	12.6646
17.96	12.5249
18.044	12.3879
18.128	12.244
18.212	12.0747
18.296	11.8887
18.38	11.7347
18.464	11.6568
18.548	11.6597
18.632	11.7225
18.716	11.8006
18.8	11.8272
18.884	11.7787
18.968	11.713
19.052	11.6995
19.136	11.7231
19.22	11.7106
19.304	11.6374
19.388	11.5712
19.472	11.5849
19.556	11.6595
19.64	11.691
19.724	11.5884
19.808	11.3399
19.892	11.0126
19.976	10.7062
20.06	10.5194
20.144	10.5206
20.228	10.7118
20.312	11.0024
20.396	11.2443
20.48	11.3266
20.564	11.2381
20.648	11.0288
20.732	10.7372
20.816	10.3706
20.9	9.943578
20.984	9.527085
21.068	9.227056
21.152	9.127382
21.236	9.235897
21.32	9.481363
21.404	9.754806
21.488	9.959060
21.572	10.0422
21.656	10.0203
21.74	9.954118
21.824	9.899029
21.908	9.854005
21.992	9.751719
22.076	9.505747
22.16	9.080694
22.244	8.524360
22.328	7.953268
22.412	7.493535
22.496	7.225013
22.58	7.164897
22.664	7.280053
22.748	7.484771
22.832	7.657113
22.916	7.657142
23	7.396557
23.084	6.890215
23.168	6.272755
23.252	5.740656
23.336	5.495068
23.42	5.653813
23.504	6.225897
23.588	7.081794
23.672	7.998638
23.756	8.719649
23.84	9.048816
23.924	8.897005
24.008	8.307231
24.092	7.433110
24.176	6.459056
24.26	5.555869
24.344	4.870735
24.428	4.485682
24.512	4.404973
24.596	4.565826
24.68	4.889202
24.764	5.319792
24.848	5.793395
24.932	6.257809
25.016	6.684537
25.1	7.064974
25.184	7.405264
25.268	7.708156
25.352	7.957668
25.436	8.062024
25.52	7.802397
25.604	6.867316
25.688	5.033455
25.772	2.305008
25.856	-1.038313
25.94	-4.353711
26.024	-6.789163
26.108	-7.629051
26.192	-6.669569
26.276	-4.311760
26.36	-1.376391
26.444	0.936012
26.528	1.491627
26.612	-0.448712
26.696	-4.771961
26.78	-10.4207
26.864	-15.6799
26.948	-18.9035
27.028	-19.2744