File: Bakgrunnsmateriale/MATLAB/FTIR/ftir_data/LPE453/Mapping_121/LPE453_t48.asc
PE IR       SPECTRUM    SPECTRUM    ASCII       PEDS        1.60
  -1
LPE3A9~1.ASC
17/05/16
18:20:06.00
17/05/16
18:20:33.00
tln
$LPE453_t0048$<tbV0>[5.2,-2.6,8.0,0.0,27,1,0]
27.028
64

2002,4.07
MIRTGS : RIGHTBACK : INTERNAL 2
MIR : ON : INTERNAL 2
OPTKBR

0.200000
8
8.000000
FILLER
RATIO
SPECTRUM
UNLOCKED 256

DOUBLE
64
COMBINED
1
0
0

0.002000
RATIO

1
0
TRUE
51149
0
LEFT NOT FITTED RIGHT NOT FITTED 0
NONE
NONE
15600
12
4.427000
51148
TRUE
1 0 8 72 0 0 0 0

15798

#HDR
-1
-1
#GR
µM
%T
2.38419e-05
0.0
2.000000
0.002000
12515
8
24.9339
-18.4242
#DATA
2.000000	 0.189781
2.084000	 0.207900
2.168000	 0.145814
2.252000	 -0.310000
2.336000	 0.247100
2.420000	 0.109471
2.504000	 0.068358
2.588000	 -0.055930
2.672000	 0.019098
2.756000	 0.131517
2.840000	 0.080132
2.924000	 -0.014444
3.008000	 0.020051
3.092000	 0.035081
3.176000	 -0.019845
3.260000	 -0.009726
3.344000	 -0.036271
3.428000	 -0.024068
3.512000	 -0.040636
3.596000	 0.041884
3.680000	 0.036526
3.764000	 -0.029769
3.848000	 0.098594
3.932000	 0.106018
4.016000	 0.065550
4.100000	 0.015210
4.184000	 0.031160
4.268000	 0.052196
4.352000	 0.069326
4.436000	 0.302907
4.520000	 0.623943
4.604000	 1.789934
4.688000	 3.736052
4.772000	 6.548729
4.856000	 9.935615
4.940000	 12.8632
5.024000	 15.4677
5.108000	 17.6634
5.192000	 19.3548
5.276000	 20.7004
5.359999	 21.6111
5.444000	 22.3477
5.528000	 22.9518
5.612000	 23.2772
5.696000	 23.4679
5.780000	 23.6579
5.864000	 23.878
5.948000	 23.831
6.032000	 23.849
6.116000	 23.9643
6.200000	 23.9129
6.284000	 23.9405
6.368000	 24.0053
6.452000	 23.911
6.536000	 23.7795
6.620000	 23.7379
6.704000	 23.646
6.788000	 23.5863
6.872000	 23.5826
6.956000	 23.497
7.040000	 23.542
7.124000	 23.4587
7.208000	 23.3051
7.292000	 23.2507
7.376000	 23.1825
7.460000	 23.0621
7.544000	 23.0327
7.628000	 23.0417
7.712000	 23.0225
7.796000	 22.9831
7.880000	 22.9253
7.964000	 22.8789
8.048000	 22.6055
8.132000	 22.5844
8.216000	 22.4699
8.300000	 22.5617
8.384000	 22.4019
8.468000	 22.3318
8.552000	 22.2218
8.635999	 22.0314
8.719999	 22.1824
8.804000	 22.0849
8.888000	 21.9073
8.972000	 21.8604
9.056000	 22.0261
9.140000	 22.0018
9.224000	 21.7163
9.308000	 21.4702
9.391999	 21.4713
9.475999	 21.2988
9.560000	 21.2071
9.644000	 21.1682
9.728000	 21.1856
9.812000	 21.0742
9.896000	 21.1107
9.980000	 20.9881
10.064	20.8958
10.148	20.7273
10.232	20.565
10.316	20.3972
10.4	20.2058
10.484	20.3261
10.568	20.2536
10.652	20.1075
10.736	19.8763
10.82	19.7443
10.904	19.9303
10.988	19.7633
11.072	19.5622
11.156	19.333
11.24	19.4023
11.324	19.3139
11.408	19.1645
11.492	19.083
11.576	18.969
11.66	18.9434
11.744	18.8461
11.828	18.7088
11.912	18.6668
11.996	18.5779
12.08	18.3314
12.164	18.0283
12.248	17.9253
12.332	17.9682
12.416	17.8821
12.5	17.8751
12.584	17.9692
12.668	17.8648
12.752	17.5202
12.836	17.1357
12.92	17.118
13.004	17.3598
13.088	17.2852
13.172	17.0599
13.256	17.0425
13.34	16.9086
13.424	16.6948
13.508	16.7199
13.592	16.5171
13.676	16.2023
13.76	16.2508
13.844	16.3666
13.928	16.3303
14.012	16.2634
14.096	16.2262
14.18	16.0635
14.264	15.8737
14.348	15.8966
14.432	15.8779
14.516	15.6702
14.6	15.5829
14.684	15.6028
14.768	15.5762
14.852	15.5304
14.936	15.3161
15.02	15.0105
15.104	14.8649
15.188	14.8634
15.272	14.9809
15.356	15.0737
15.44	14.9708
15.524	14.891
15.608	14.9733
15.692	14.9002
15.776	14.5059
15.86	14.1602
15.944	14.0942
16.028	14.084
16.112	14.0327
16.196	14.0902
16.28	14.28
16.364	14.4807
16.448	14.4956
16.532	14.2001
16.616	13.7721
16.7	13.5097
16.784	13.4419
16.868	13.3803
16.952	13.2172
17.036	13.0316
17.12	12.9708
17.204	13.0614
17.288	13.2003
17.372	13.2846
17.456	13.2861
17.54	13.2172
17.624	13.0721
17.708	12.8441
17.792	12.5871
17.876	12.4135
17.96	12.3854
18.044	12.4471
18.128	12.4946
18.212	12.4918
18.296	12.4631
18.38	12.411
18.464	12.305
18.548	12.1516
18.632	12.019
18.716	11.9671
18.8	11.9934
18.884	12.0471
18.968	12.0813
19.052	12.0704
19.136	12.0045
19.22	11.8985
19.304	11.8014
19.388	11.738
19.472	11.6486
19.556	11.431
19.64	11.0747
19.724	10.7189
19.808	10.538
19.892	10.5708
19.976	10.6828
20.06	10.6983
20.144	10.5524
20.228	10.3094
20.312	10.0772
20.396	9.926505
20.48	9.885174
20.564	9.965103
20.648	10.1617
20.732	10.4291
20.816	10.6736
20.9	10.8066
20.984	10.8106
21.068	10.7549
21.152	10.7331
21.236	10.7807
21.32	10.8433
21.404	10.8157
21.488	10.629
21.572	10.2989
21.656	9.919914
21.74	9.610254
21.824	9.456208
21.908	9.482130
21.992	9.644795
22.076	9.854855
22.16	10.0169
22.244	10.0618
22.328	9.976006
22.412	9.782358
22.496	9.526671
22.58	9.253518
22.664	8.992379
22.748	8.743010
22.832	8.469625
22.916	8.114466
23	7.651508
23.084	7.113062
23.168	6.624357
23.252	6.356735
23.336	6.460397
23.42	7.007323
23.504	7.959010
23.588	9.158090
23.672	10.4013
23.756	11.5139
23.84	12.3663
23.924	12.916
24.008	13.1757
24.092	13.162
24.176	12.8829
24.26	12.3796
24.344	11.707
24.428	10.9048
24.512	10.031
24.596	9.087359
24.68	7.996535
24.764	6.646583
24.848	5.002118
24.932	3.167096
25.016	1.414996
25.1	0.121733
25.184	-0.217005
25.268	0.813249
25.352	3.369003
25.436	7.294598
25.52	12.0943
25.604	17.0612
25.688	21.3568
25.772	24.1742
25.856	24.8793
25.94	23.0926
26.024	18.7255
26.108	12.0631
26.192	3.843810
26.276	-4.754797
26.36	-12.2143
26.444	-17.0741
26.528	-18.3787
26.612	-15.93
26.696	-10.4302
26.78	-3.378593
26.864	3.399614
26.948	8.237142
27.028	9.872722