File: Bakgrunnsmateriale/MATLAB/FTIR/ftir_data/LPE453/Mapping_121/LPE453_t42_cm-1.asc
PE IR       SPECTRUM    SPECTRUM    ASCII       PEDS        1.60
  -1
LP5950~1.ASC
17/05/16
17:45:30.00
17/05/16
17:45:30.00
tln
$LPE453_t0042$<tbV0>[-7.8,-5.2,8.0,0.0,27,1,0]
370
64

2002,4.07
MIRTGS : RIGHTBACK : INTERNAL 2
MIR : ON : INTERNAL 2
OPTKBR

0.200000
8
8.000000
FILLER
RATIO
SPECTRUM
UNLOCKED 256

DOUBLE
64
COMBINED
1
0
0

1.000000
RATIO

1
0
TRUE
51149
0
LEFT NOT FITTED RIGHT NOT FITTED 0
NONE
NONE
15600
12
4.427000
51148
TRUE
1 0 8 72 0 0 0 0

15798

#HDR
-1
-1
#GR
CM-1
%T
2.38419e-05
0.0
5000
-1.000000
4631
8
46.9136
-1.813125
#DATA
5000	0.288605
4984	0.312972
4968	-0.054597
4952	-0.114560
4936	0.229454
4920	0.551748
4904	0.231862
4888	0.105404
4872	0.606012
4856	0.356674
4840	0.205731
4824	0.204658
4808	0.160264
4792	0.271749
4776	-0.430011
4760	0.181794
4744	0.013113
4728	0.313210
4712	0.443530
4696	0.468492
4680	0.662183
4664	0.845456
4648	1.136541
4632	0.663971
4616	0.646257
4600	0.041770
4584	-0.338029
4568	-1.388907
4552	-0.568294
4536	-1.202201
4520	30.0636
4504	1.365256
4488	-1.523137
4472	-1.010656
4456	-0.945591
4440	-0.821208
4424	-0.574445
4408	0.153493
4392	0.382614
4376	0.522875
4360	-0.283098
4344	0.186514
4328	0.365948
4312	0.273728
4296	0.450348
4280	0.083971
4264	0.200152
4248	0.385665
4232	0.420212
4216	0.427865
4200	0.284290
4184	0.498509
4168	0.306940
4152	-0.077271
4136	-0.273370
4120	0.005006
4104	-0.252413
4088	0.100398
4072	0.053119
4056	0.271296
4040	0.246596
4024	0.213241
4008	0.055813
3992	0.002932
3976	-0.010323
3960	0.114655
3944	0.163125
3928	0.311136
3912	-0.027513
3896	0.213670
3880	-0.015616
3864	0.219225
3848	0.037097
3832	0.116610
3816	-0.010490
3800	0.015139
3784	0.147986
3768	-0.035786
3752	0.079274
3736	0.112032
3720	0.019741
3704	-0.018620
3688	0.206232
3672	0.049805
3656	-0.219821
3640	0.081729
3624	-0.017666
3608	-0.017476
3592	0.091266
3576	-0.010561
3560	0.030112
3544	-0.055670
3528	-0.064253
3512	0.105643
3496	0.001502
3480	0.133681
3464	-0.015497
3448	0.172853
3432	-0.020503
3416	0.063681
3400	0.073981
3384	-0.039434
3368	0.147724
3352	0.087070
3336	0.221300
3320	0.108623
3304	-0.055527
3288	0.057172
3272	0.150847
3256	-0.042462
3240	-0.032091
3224	0.024390
3208	-0.134921
3192	0.080418
3176	-0.082445
3160	0.084352
3144	-0.022006
3128	0.164318
3112	0.065851
3096	0.001835
3080	0.109529
3064	-0.013232
3048	-0.075554
3032	-0.034475
3016	-0.035452
3000	-0.061416
2984	0.188708
2968	0.020408
2952	0.168728
2936	0.079774
2920	0.071406
2904	0.009012
2888	-0.091862
2872	0.246453
2856	-0.127816
2840	0.049066
2824	0.102043
2808	0.018000
2792	0.116395
2776	0.017428
2760	0.024938
2744	-0.058412
2728	0.020098
2712	-0.025820
2696	-0.141286
2680	0.017762
2664	-0.052118
2648	0.043988
2632	0.091052
2616	-0.036573
2600	0.007677
2584	-0.047636
2568	0.066733
2552	-0.009131
2536	0.125575
2520	0.028824
2504	0.121712
2488	0.000071
2472	0.022482
2456	0.083065
2440	-0.010156
2424	0.100755
2408	0.251650
2392	-0.073194
2376	0.128078
2360	0.091910
2344	0.086331
2328	0.331568
2312	0.431823
2296	0.677609
2280	0.958800
2264	1.357436
2248	2.077484
2232	2.854895
2216	3.843903
2200	4.977989
2184	6.549048
2168	8.264803
2152	10.0034
2136	12.1978
2120	14.2592
2104	16.4418
2088	18.5264
2072	20.5887
2056	22.7369
2040	24.4001
2024	26.0731
2008	27.7261
1992	28.8937
1976	30.1377
1960	31.1465
1944	32.1358
1928	32.7965
1912	33.5101
1896	34.1618
1880	34.5193
1864	34.9562
1848	35.5543
1832	35.6642
1816	35.8787
1800	36.2032
1784	36.3053
1768	36.3612
1752	36.5097
1736	36.6837
1720	36.7207
1704	36.7111
1688	36.7665
1672	36.8605
1656	36.8704
1640	36.9084
1624	36.8576
1608	36.841
1592	36.7537
1576	36.8912
1560	36.805
1544	36.9333
1528	36.8286
1512	36.8002
1496	36.9473
1480	36.6897
1464	36.6326
1448	36.6955
1432	36.5665
1416	36.5354
1400	36.2966
1384	36.5014
1368	36.4659
1352	36.2501
1336	36.2814
1320	36.5165
1304	36.1851
1288	36.1751
1272	36.2104
1256	36.0543
1240	35.8284
1224	35.797
1208	35.9422
1192	35.8523
1176	35.6481
1160	35.7029
1144	35.9095
1128	35.3842
1112	35.3466
1096	35.4562
1080	35.3241
1064	35.0944
1048	34.8626
1032	35.1452
1016	34.936
1000	34.3585
984	 34.602
968	 34.8029
952	 34.4224
936	 33.9339
920	 34.058
904	 34.0973
888	 33.4377
872	 33.3134
856	 33.8202
840	 33.38
824	 32.3853
808	 32.667
792	 32.8374
776	 32.2427
760	 31.5682
744	 31.8137
728	 32.0829
712	 31.1252
696	 30.8264
680	 30.9984
664	 30.3233
648	 29.6052
632	 29.2923
616	 29.6804
600	 28.591
584	 27.668
568	 28.3972
552	 27.3818
536	 27.6562
520	 26.598
504	 27.0231
488	 25.6931
472	 25.3291
456	 25.4091
440	 22.7084
424	 25.108
408	 14.6004
392	 15.537
376	 38.669
370	 46.9136