File: Bakgrunnsmateriale/MATLAB/FTIR/ftir_data/LPE453/Mapping_121/LPE453_t80.asc
PE IR       SPECTRUM    SPECTRUM    ASCII       PEDS        1.60
  -1
LPC3B9~1.ASC
17/05/16
20:55:38.00
17/05/16
20:56:04.00
tln
$LPE453_t0080$<tbV0>[7.8,5.2,8.0,0.0,27,1,0]
27.028
64

2002,4.07
MIRTGS : RIGHTBACK : INTERNAL 2
MIR : ON : INTERNAL 2
OPTKBR

0.200000
8
8.000000
FILLER
RATIO
SPECTRUM
UNLOCKED 256

DOUBLE
64
COMBINED
1
0
0

0.002000
RATIO

1
0
TRUE
51149
0
LEFT NOT FITTED RIGHT NOT FITTED 0
NONE
NONE
15600
12
4.427000
51148
TRUE
1 0 8 72 0 0 0 0

15798

#HDR
-1
-1
#GR
µM
%T
2.38419e-05
0.0
2.000000
0.002000
12515
8
31.2417
-11.2108
#DATA
2.000000	 0.062441
2.084000	 -0.072306
2.168000	 0.211872
2.252000	 0.563897
2.336000	 0.199202
2.420000	 0.274889
2.504000	 0.229182
2.588000	 0.044474
2.672000	 -0.113911
2.756000	 0.158340
2.840000	 0.067705
2.924000	 -0.070072
3.008000	 0.129061
3.092000	 0.042332
3.176000	 0.119416
3.260000	 0.133419
3.344000	 -0.030746
3.428000	 0.003888
3.512000	 -0.041592
3.596000	 0.007582
3.680000	 0.148092
3.764000	 0.143610
3.848000	 0.069198
3.932000	 0.029954
4.016000	 0.173824
4.100000	 -0.058521
4.184000	 0.025854
4.268000	 0.132975
4.352000	 0.112744
4.436000	 0.570111
4.520000	 1.708944
4.604000	 4.041839
4.688000	 7.548731
4.772000	 11.5674
4.856000	 15.5308
4.940000	 19.2801
5.024000	 22.3236
5.108000	 24.6543
5.192000	 26.4208
5.276000	 27.833
5.359999	 28.7763
5.444000	 29.4972
5.528000	 29.9409
5.612000	 30.4018
5.696000	 30.579
5.780000	 30.6884
5.864000	 30.9507
5.948000	 30.9018
6.032000	 31.1436
6.116000	 31.043
6.200000	 31.2102
6.284000	 31.0918
6.368000	 31.0003
6.452000	 31.0709
6.536000	 30.9346
6.620000	 30.942
6.704000	 30.8861
6.788000	 30.8821
6.872000	 30.6272
6.956000	 30.7493
7.040000	 30.7826
7.124000	 30.63
7.208000	 30.6421
7.292000	 30.6179
7.376000	 30.3934
7.460000	 30.397
7.544000	 30.3455
7.628000	 30.2014
7.712000	 30.2828
7.796000	 30.2445
7.880000	 30.1173
7.964000	 30.0743
8.048000	 29.9759
8.132000	 29.9943
8.216000	 30.0225
8.300000	 29.7378
8.384000	 29.842
8.468000	 29.7982
8.552000	 29.5998
8.635999	 29.5522
8.719999	 29.4592
8.804000	 29.3539
8.888000	 29.297
8.972000	 29.3314
9.056000	 29.1851
9.140000	 29.2704
9.224000	 29.079
9.308000	 28.8654
9.391999	 28.8902
9.475999	 28.8841
9.560000	 28.9212
9.644000	 28.6769
9.728000	 28.5652
9.812000	 28.3284
9.896000	 28.4228
9.980000	 28.3683
10.064	28.3622
10.148	28.2582
10.232	28.0016
10.316	27.8565
10.4	28.0102
10.484	27.9083
10.568	27.7251
10.652	27.5516
10.736	27.4052
10.82	27.4244
10.904	27.3684
10.988	27.4659
11.072	27.2384
11.156	27.003
11.24	26.7188
11.324	26.7146
11.408	26.8365
11.492	26.5855
11.576	26.5839
11.66	26.6924
11.744	26.6167
11.828	26.4949
11.912	26.1999
11.996	25.9516
12.08	25.8973
12.164	26.0122
12.248	25.9057
12.332	25.5872
12.416	25.5945
12.5	25.6446
12.584	25.7049
12.668	25.5594
12.752	25.2928
12.836	25.1685
12.92	25.1649
13.004	25.1932
13.088	25.1301
13.172	25.0362
13.256	25.0749
13.34	24.9784
13.424	24.6276
13.508	24.3358
13.592	24.1897
13.676	24.143
13.76	24.118
13.844	24.1353
13.928	24.1824
14.012	24.1454
14.096	24.0175
14.18	23.8341
14.264	23.6635
14.348	23.4914
14.432	23.4106
14.516	23.5007
14.6	23.4853
14.684	23.3107
14.768	23.175
14.852	23.2068
14.936	23.4022
15.02	23.4819
15.104	23.3006
15.188	23.091
15.272	22.9498
15.356	22.8131
15.44	22.7047
15.524	22.5648
15.608	22.3766
15.692	22.2953
15.776	22.3287
15.86	22.2452
15.944	21.9707
16.028	21.7951
16.112	21.8618
16.196	21.8821
16.28	21.6544
16.364	21.3599
16.448	21.2478
16.532	21.3219
16.616	21.3769
16.7	21.2691
16.784	21.0919
16.868	21.0252
16.952	21.1018
17.036	21.1617
17.12	21.0113
17.204	20.6512
17.288	20.3123
17.372	20.223
17.456	20.3841
17.54	20.6049
17.624	20.7021
17.708	20.6267
17.792	20.4396
17.876	20.2134
17.96	19.9779
18.044	19.7429
18.128	19.5443
18.212	19.4487
18.296	19.4924
18.38	19.6095
18.464	19.6743
18.548	19.6269
18.632	19.5299
18.716	19.4713
18.8	19.4557
18.884	19.4289
18.968	19.3706
19.052	19.3161
19.136	19.3038
19.22	19.3381
19.304	19.3961
19.388	19.4476
19.472	19.4665
19.556	19.44
19.64	19.374
19.724	19.2748
19.808	19.1326
19.892	18.9277
19.976	18.658
20.06	18.3523
20.144	18.0642
20.228	17.8439
20.312	17.7085
20.396	17.6345
20.48	17.5855
20.564	17.5471
20.648	17.5334
20.732	17.5606
20.816	17.6182
20.9	17.6698
20.984	17.7013
21.068	17.7398
21.152	17.8296
21.236	17.9816
21.32	18.1426
21.404	18.2235
21.488	18.1596
21.572	17.9628
21.656	17.7272
21.74	17.5775
21.824	17.5964
21.908	17.7574
21.992	17.9222
22.076	17.9091
22.16	17.5944
22.244	17.0103
22.328	16.3329
22.412	15.7884
22.496	15.5342
22.58	15.5784
22.664	15.8083
22.748	16.0566
22.832	16.1966
22.916	16.1664
23	15.9643
23.084	15.6242
23.168	15.1897
23.252	14.702
23.336	14.2188
23.42	13.8074
23.504	13.5267
23.588	13.4134
23.672	13.4699
23.756	13.6581
23.84	13.93
23.924	14.2407
24.008	14.535
24.092	14.735
24.176	14.767
24.26	14.6131
24.344	14.3348
24.428	14.063
24.512	13.9968
24.596	14.2797
24.68	14.943
24.764	15.8821
24.848	16.8801
24.932	17.6508
25.016	17.9462
25.1	17.6119
25.184	16.6345
25.268	15.1838
25.352	13.5825
25.436	12.184
25.52	11.3175
25.604	11.2539
25.688	12.0379
25.772	13.4119
25.856	14.8922
25.94	15.9178
26.024	15.9991
26.108	14.8958
26.192	12.6293
26.276	9.447071
26.36	5.696127
26.444	1.922381
26.528	-1.309080
26.612	-3.587735
26.696	-4.920773
26.78	-5.799067
26.864	-6.978962
26.948	-8.933522
27.028	-11.2108