File: Bakgrunnsmateriale/MATLAB/FTIR/ftir_data/LPE453/Mapping_121/LPE453_t24_cm-1.asc
PE IR       SPECTRUM    SPECTRUM    ASCII       PEDS        1.60
  -1
LP685B~1.ASC
17/05/16
16:21:52.00
17/05/16
16:21:52.00
tln
$LPE453_t0024$<tbV0>[10.4,-7.8,8.0,0.0,27,1,0]
370
64

2002,4.07
MIRTGS : RIGHTBACK : INTERNAL 2
MIR : ON : INTERNAL 2
OPTKBR

0.200000
8
8.000000
FILLER
RATIO
SPECTRUM
UNLOCKED 256

DOUBLE
64
COMBINED
1
0
0

1.000000
RATIO

1
0
TRUE
51149
0
LEFT NOT FITTED RIGHT NOT FITTED 0
NONE
NONE
15600
12
4.427000
51148
TRUE
1 0 8 72 0 0 0 0

15798

#HDR
-1
-1
#GR
CM-1
%T
2.38419e-05
0.0
5000
-1.000000
4631
8
39.1796
-2.231478
#DATA
5000	-0.007224
4984	-0.046443
4968	-0.161051
4952	0.513744
4936	-0.026535
4920	-0.196003
4904	0.088882
4888	0.164008
4872	0.201296
4856	0.225067
4840	0.309038
4824	0.402450
4808	0.119948
4792	-0.052547
4776	0.044512
4760	0.034141
4744	-0.253081
4728	0.008273
4712	0.382256
4696	0.429606
4680	0.721645
4664	0.601911
4648	0.032734
4632	1.199555
4616	0.157046
4600	0.532269
4584	1.503586
4568	-0.311255
4552	-0.010514
4536	-0.858783
4520	3.004765
4504	5.399465
4488	-2.231478
4472	-0.190067
4456	0.037407
4440	-0.865769
4424	0.289964
4408	-0.149488
4392	0.538086
4376	-0.132369
4360	0.312805
4344	0.437092
4328	0.077629
4312	0.210356
4296	0.101351
4280	0.033521
4264	0.375342
4248	0.006103
4232	0.242447
4216	0.022172
4200	0.373864
4184	0.579500
4168	-0.630712
4152	0.227856
4136	0.266098
4120	0.292396
4104	0.165438
4088	0.087785
4072	-0.190711
4056	0.069284
4040	0.014472
4024	-0.102877
4008	0.185751
3992	0.041651
3976	0.131630
3960	0.132775
3944	0.111818
3928	0.104260
3912	0.026535
3896	-0.015306
3880	-0.024223
3864	0.113010
3848	-0.011181
3832	-0.083398
3816	0.273418
3800	0.075769
3784	0.218009
3768	-0.038504
3752	0.121927
3736	0.116515
3720	-0.181293
3704	0.094985
3688	0.083661
3672	0.078964
3656	0.091433
3640	0.069522
3624	-0.015974
3608	0.013136
3592	-0.148439
3576	0.033354
3560	0.239062
3544	0.301480
3528	0.099301
3512	0.279712
3496	0.010919
3480	0.095438
3464	0.150156
3448	-0.022363
3432	-0.098395
3416	0.006365
3400	-0.128293
3384	0.117707
3368	0.077533
3352	0.066184
3336	-0.067925
3320	0.187754
3304	0.082206
3288	0.051403
3272	0.028681
3256	0.083088
3240	0.078868
3224	0.047183
3208	0.087833
3192	0.163936
3176	0.015830
3160	-0.074577
3144	0.114989
3128	-0.007724
3112	-0.001978
3096	0.201392
3080	-0.005173
3064	0.046205
3048	0.016951
3032	0.045990
3016	0.038266
3000	0.017452
2984	0.069141
2968	0.065374
2952	0.003719
2936	0.105500
2920	0.167179
2904	-0.066852
2888	0.030088
2872	0.142955
2856	0.187683
2840	0.032496
2824	0.099396
2808	0.091576
2792	-0.074386
2776	0.054955
2760	0.033378
2744	-0.003361
2728	-0.106310
2712	0.073027
2696	0.075578
2680	-0.057244
2664	0.059580
2648	0.108528
2632	0.044894
2616	-0.013327
2600	-0.013685
2584	0.042819
2568	0.032305
2552	0.107192
2536	-0.011038
2520	0.209140
2504	0.272393
2488	0.136494
2472	0.065708
2456	0.002908
2440	-0.143051
2424	0.143718
2408	0.167107
2392	-0.073862
2376	-0.107431
2360	0.081872
2344	-0.151872
2328	0.032877
2312	0.147128
2296	0.149369
2280	0.090551
2264	0.274372
2248	0.531768
2232	0.833630
2216	1.223802
2200	1.650619
2184	2.506804
2168	3.153872
2152	4.401278
2136	5.460572
2120	6.999659
2104	8.522081
2088	10.3611
2072	11.7581
2056	13.2292
2040	14.9928
2024	16.3882
2008	17.9636
1992	19.2874
1976	20.5038
1960	21.4492
1944	22.4209
1928	23.3699
1912	24.0911
1896	24.8443
1880	25.358
1864	25.9539
1848	26.3886
1832	26.7394
1816	27.1996
1800	27.2055
1784	27.6064
1768	27.8485
1752	27.8433
1736	27.989
1720	28.2674
1704	28.4022
1688	28.3506
1672	28.3853
1656	28.4519
1640	28.5496
1624	28.56
1608	28.5792
1592	28.5083
1576	28.5593
1560	28.6111
1544	28.502
1528	28.5112
1512	28.4745
1496	28.4875
1480	28.3669
1464	28.5181
1448	28.3367
1432	28.3408
1416	28.3808
1400	28.2481
1384	28.2065
1368	28.2772
1352	28.1169
1336	28.1503
1320	28.179
1304	28.0706
1288	27.8768
1272	27.8764
1256	27.7954
1240	27.6937
1224	27.7617
1208	27.6396
1192	27.6071
1176	27.6674
1160	27.4832
1144	27.3902
1128	27.3216
1112	27.0943
1096	26.965
1080	26.7494
1064	26.666
1048	26.8796
1032	26.6718
1016	26.7043
1000	26.4245
984	 26.2642
968	 26.0014
952	 26.1037
936	 25.8215
920	 25.5222
904	 25.1887
888	 24.9888
872	 24.8955
856	 24.6293
840	 24.4742
824	 24.0455
808	 23.7419
792	 23.4738
776	 23.307
760	 23.4426
744	 23.3859
728	 22.731
712	 22.3402
696	 22.0074
680	 21.7523
664	 21.5371
648	 20.9484
632	 20.6317
616	 20.0257
600	 19.7765
584	 19.2105
568	 18.6337
552	 18.1499
536	 17.5105
520	 17.3486
504	 16.8711
488	 17.3453
472	 15.9621
456	 14.9061
440	 15.4049
424	 13.4009
408	 13.8433
392	 22.2921
376	 38.6319
370	 22.7205