File: Bakgrunnsmateriale/MATLAB/FTIR/ftir_data/LPE453/Mapping_121/LPE453_t83_cm-1.asc
PE IR       SPECTRUM    SPECTRUM    ASCII       PEDS        1.60
  -1
LP5BD5~1.ASC
17/05/16
21:09:28.00
17/05/16
21:09:28.00
tln
$LPE453_t0083$<tbV0>[0.0,5.2,8.0,0.0,27,1,0]
370
64

2002,4.07
MIRTGS : RIGHTBACK : INTERNAL 2
MIR : ON : INTERNAL 2
OPTKBR

0.200000
8
8.000000
FILLER
RATIO
SPECTRUM
UNLOCKED 256

DOUBLE
64
COMBINED
1
0
0

1.000000
RATIO

1
0
TRUE
51149
0
LEFT NOT FITTED RIGHT NOT FITTED 0
NONE
NONE
15600
12
4.427000
51148
TRUE
1 0 8 72 0 0 0 0

15798

#HDR
-1
-1
#GR
CM-1
%T
2.38419e-05
0.0
5000
-1.000000
4631
8
35.2099
-2.217388
#DATA
5000	0.232791
4984	0.300693
4968	0.391483
4952	0.193023
4936	0.429034
4920	0.222158
4904	-0.214076
4888	-0.000524
4872	0.222110
4856	0.226807
4840	0.161933
4824	0.762343
4808	0.486421
4792	0.274538
4776	0.479936
4760	0.290679
4744	0.199985
4728	0.571393
4712	0.132822
4696	0.413846
4680	-0.891447
4664	-1.330852
4648	0.001335
4632	0.498127
4616	-0.257492
4600	0.031280
4584	-0.514674
4568	-1.005005
4552	-0.249457
4536	-1.509189
4520	-0.423955
4504	4.259324
4488	17.87
4472	-0.649785
4456	-1.432728
4440	-0.744032
4424	-0.396394
4408	0.185871
4392	0.673913
4376	0.931620
4360	0.866746
4344	0.345826
4328	0.604557
4312	0.638628
4296	0.296831
4280	-0.192689
4264	0.076460
4248	0.081539
4232	0.240492
4216	0.461959
4200	0.135540
4184	0.023388
4168	0.615549
4152	0.207853
4136	0.283837
4120	0.231790
4104	-0.045442
4088	-0.051403
4072	0.174736
4056	0.200033
4040	0.110316
4024	-0.035214
4008	-0.018644
3992	-0.141787
3976	0.175476
3960	0.159287
3944	0.012993
3928	0.043797
3912	-0.016880
3896	-0.114059
3880	0.053596
3864	0.115513
3848	-0.026607
3832	0.145840
3816	0.025987
3800	-0.012016
3784	0.007820
3768	0.003743
3752	0.100421
3736	0.097131
3720	-0.017881
3704	0.112271
3688	0.212717
3672	0.057053
3656	0.022530
3640	-0.107312
3624	0.107455
3608	0.190973
3592	0.039482
3576	-0.100946
3560	0.159049
3544	0.132799
3528	0.050115
3512	0.190067
3496	0.183582
3480	-0.049614
3464	0.186729
3448	0.207710
3432	-0.150084
3416	0.085759
3400	0.132918
3384	0.066089
3368	0.093173
3352	0.026917
3336	0.141191
3320	0.027036
3304	0.039672
3288	0.113606
3272	-0.067234
3256	0.006985
3240	0.133752
3224	0.120282
3208	0.079178
3192	0.061678
3176	-0.043535
3160	0.260281
3144	0.165748
3128	-0.143575
3112	0.160551
3096	-0.042319
3080	0.068879
3064	-0.081562
3048	0.191521
3032	-0.039982
3016	0.005531
3000	-0.078248
2984	0.021934
2968	0.112652
2952	0.050187
2936	-0.101280
2920	-0.053358
2904	0.074982
2888	0.036597
2872	0.015330
2856	0.006604
2840	-0.014495
2824	0.058293
2808	-0.002908
2792	0.049209
2776	0.055813
2760	0.054216
2744	0.007200
2728	0.057411
2712	0.043964
2696	0.095438
2680	0.045895
2664	-0.035905
2648	0.032234
2632	-0.078773
2616	0.012826
2600	0.052952
2584	0.072479
2568	0.085425
2552	-0.094389
2536	0.073122
2520	0.095701
2504	0.002360
2488	0.051236
2472	0.047373
2456	-0.015664
2440	0.014829
2424	-0.076603
2408	-0.000190
2392	-0.013065
2376	0.050425
2360	0.154638
2344	0.186753
2328	0.255751
2312	0.550341
2296	0.608825
2280	0.897574
2264	1.311612
2248	1.871371
2232	2.532720
2216	3.562951
2200	4.610514
2184	6.082820
2168	7.620120
2152	9.401988
2136	11.4184
2120	13.3632
2104	15.5205
2088	17.4778
2072	19.4458
2056	21.278
2040	23.1176
2024	24.6467
2008	26.1437
1992	27.2478
1976	28.432
1960	29.6323
1944	30.2706
1928	30.9657
1912	31.9047
1896	32.3897
1880	32.5972
1864	33.2872
1848	33.6422
1832	33.5988
1816	34.0089
1800	34.5862
1784	34.3055
1768	34.4784
1752	34.8847
1736	34.6826
1720	34.6499
1704	35.0594
1688	35.0594
1672	34.6952
1656	34.9442
1640	35.1997
1624	34.8363
1608	34.6448
1592	35.0158
1576	34.9456
1560	34.6685
1544	34.8372
1528	34.9687
1512	34.6668
1496	34.5285
1480	34.9178
1464	34.7132
1448	34.1924
1432	34.7849
1416	34.8233
1400	34.2479
1384	34.3421
1368	34.7063
1352	34.2231
1336	33.8666
1320	34.4038
1304	34.3579
1288	33.785
1272	33.9523
1256	34.3949
1240	33.772
1224	33.4339
1208	33.9636
1192	33.8645
1176	33.1561
1160	33.5213
1144	33.7022
1128	33.1369
1112	32.9093
1096	33.4093
1080	33.191
1064	32.5637
1048	32.732
1032	32.9207
1016	32.4506
1000	32.0628
984	 32.6029
968	 32.1855
952	 31.4305
936	 31.6939
920	 32.0038
904	 31.1393
888	 30.5733
872	 31.2305
856	 31.099
840	 30.2159
824	 30.3548
808	 30.4049
792	 29.4717
776	 28.9752
760	 29.4764
744	 29.1955
728	 28.0813
712	 28.1993
696	 28.0755
680	 27.5413
664	 27.0945
648	 27.1132
632	 27.0443
616	 25.5879
600	 25.4913
584	 25.8301
568	 24.1382
552	 24.1855
536	 24.4116
520	 23.808
504	 22.4364
488	 22.2236
472	 22.6237
456	 19.7926
440	 19.8679
424	 23.3381
408	 19.7964
392	 18.7733
376	 1.967668
370	 9.101724