File: Bakgrunnsmateriale/MATLAB/FTIR/ftir_data/LPE453/Mapping_121/LPE453_t57_cm-1.asc
PE IR       SPECTRUM    SPECTRUM    ASCII       PEDS        1.60
  -1
LPE9DA~1.ASC
17/05/16
19:02:14.00
17/05/16
19:02:14.00
tln
$LPE453_t0057$<tbV0>[10.4,0.0,8.0,0.0,27,1,0]
370
64

2002,4.07
MIRTGS : RIGHTBACK : INTERNAL 2
MIR : ON : INTERNAL 2
OPTKBR

0.200000
8
8.000000
FILLER
RATIO
SPECTRUM
UNLOCKED 256

DOUBLE
64
COMBINED
1
0
0

1.000000
RATIO

1
0
TRUE
51149
0
LEFT NOT FITTED RIGHT NOT FITTED 0
NONE
NONE
15600
12
4.427000
51148
TRUE
1 0 8 72 0 0 0 0

15798

#HDR
-1
-1
#GR
CM-1
%T
2.38419e-05
0.0
5000
-1.000000
4631
8
23.3198
-19.2744
#DATA
5000	0.297307
4984	-0.026798
4968	0.162601
4952	0.024032
4936	0.252056
4920	-0.151944
4904	0.205874
4888	0.219345
4872	-0.034999
4856	-0.020146
4840	0.221586
4824	-0.075888
4808	0.306224
4792	-0.066232
4776	-0.268507
4760	0.298285
4744	0.742411
4728	0.563549
4712	-0.064802
4696	-0.162076
4680	-1.430153
4664	2.181601
4648	-0.136590
4632	1.010322
4616	0.357198
4600	-0.122880
4584	1.013851
4568	-0.142908
4552	0.544476
4536	-0.678825
4520	-0.192379
4504	0.048375
4488	1.319265
4472	-1.958179
4456	0.245118
4440	0.888705
4424	0.175261
4408	-0.035142
4392	-0.245571
4376	0.182151
4360	0.267577
4344	-0.148606
4328	-0.239658
4312	0.167894
4296	-0.082373
4280	-0.052785
4264	0.199246
4248	-0.159716
4232	0.067973
4216	0.525999
4200	0.288176
4184	-0.084114
4168	0.031685
4152	-0.261282
4136	0.139689
4120	0.096440
4104	0.118160
4088	0.077867
4072	-0.025320
4056	0.060987
4040	0.157403
4024	0.194144
4008	0.104212
3992	-0.133132
3976	-0.191688
3960	-0.037264
3944	0.200867
3928	-0.048732
3912	0.030326
3896	-0.063109
3880	0.028538
3864	-0.016975
3848	0.147461
3832	0.087714
3816	0.141811
3800	-0.019264
3784	0.059938
3768	0.026226
3752	0.012731
3736	0.197076
3720	-0.121188
3704	0.034618
3688	0.144767
3672	-0.037574
3656	0.165820
3640	0.011610
3624	0.004768
3608	0.141906
3592	-0.001907
3576	0.008964
3560	0.183510
3544	0.006866
3528	0.070786
3512	0.025773
3496	0.057625
3480	0.065422
3464	-0.045442
3448	0.067877
3432	0.116610
3416	-0.030589
3400	0.144243
3384	-0.136017
3368	0.037074
3352	-0.024175
3336	0.044989
3320	0.133681
3304	0.096464
3288	0.004076
3272	0.005793
3256	0.055646
3240	0.071525
3224	0.086641
3208	-0.057721
3192	0.185918
3176	0.044131
3160	0.003576
3144	0.099897
3128	0.262355
3112	0.117826
3096	0.078439
3080	0.059461
3064	0.174379
3048	-0.047183
3032	0.195002
3016	0.033116
3000	0.053858
2984	0.073814
2968	0.034785
2952	0.001621
2936	-0.031113
2920	0.018024
2904	0.050997
2888	0.125074
2872	0.050640
2856	0.048589
2840	0.073051
2824	0.102376
2808	0.106167
2792	0.068855
2776	0.061583
2760	-0.066566
2744	-0.074148
2728	0.015616
2712	0.068306
2696	-0.021791
2680	0.040841
2664	0.094676
2648	0.006413
2632	0.144529
2616	0.096750
2600	0.116252
2584	-0.011944
2568	-0.022721
2552	0.195026
2536	-0.104475
2520	-0.036931
2504	-0.070643
2488	0.060987
2472	-0.070834
2456	0.026679
2440	0.217533
2424	0.071907
2408	0.082135
2392	-0.011563
2376	-0.016999
2360	0.024032
2344	-0.072050
2328	-0.048518
2312	0.073599
2296	-0.001573
2280	0.101256
2264	0.161290
2248	0.184512
2232	0.301146
2216	0.407361
2200	0.837182
2184	1.153254
2168	1.682114
2152	2.390384
2136	3.314900
2120	4.225707
2104	5.427002
2088	6.600093
2072	7.779288
2056	9.288811
2040	10.601
2024	11.9506
2008	13.2787
1992	14.4459
1976	15.47
1960	16.5414
1944	17.5278
1928	18.2944
1912	19.1062
1896	19.6579
1880	20.3335
1864	20.7751
1848	21.2402
1832	21.6302
1816	21.8301
1800	22.1699
1784	22.4427
1768	22.6728
1752	22.7726
1736	22.8834
1720	23.0501
1704	22.9381
1688	23.0774
1672	23.2103
1656	23.161
1640	23.1903
1624	23.1955
1608	23.3082
1592	23.1843
1576	23.1977
1560	23.1478
1544	23.2492
1528	23.2738
1512	23.1122
1496	23.1531
1480	23.1652
1464	23.0606
1448	23.0286
1432	22.911
1416	23.0248
1400	22.8791
1384	22.7989
1368	22.7998
1352	22.6175
1336	22.7257
1320	22.6175
1304	22.5408
1288	22.5041
1272	22.3363
1256	22.4411
1240	22.2638
1224	22.1891
1208	22.1023
1192	22.0673
1176	21.9779
1160	21.9249
1144	21.8193
1128	21.6181
1112	21.5361
1096	21.251
1080	21.3242
1064	21.1757
1048	20.9213
1032	20.9284
1016	20.8134
1000	20.7315
984	 20.6599
968	 20.2613
952	 20.1457
936	 19.7026
920	 19.714
904	 19.2379
888	 19.0823
872	 18.9188
856	 18.7675
840	 18.5601
824	 17.8706
808	 17.9176
792	 17.5979
776	 17.4021
760	 16.9465
744	 16.754
728	 16.4557
712	 16.3937
696	 15.9863
680	 15.4791
664	 15.101
648	 14.8019
632	 14.286
616	 13.8207
600	 13.7166
584	 13.0563
568	 13.043
552	 12.2658
536	 11.7467
520	 11.704
504	 11.2143
488	 11.3238
472	 9.149360
456	 9.836649
440	 7.431864
424	 7.048177
408	 4.403781
392	 7.863616
376	 0.131392
370	 -19.2744