File: Bakgrunnsmateriale/MATLAB/FTIR/ftir_data/LPE453/Mapping_121/LPE453_t16_cm-1.asc
PE IR       SPECTRUM    SPECTRUM    ASCII       PEDS        1.60
  -1
LPE75A~1.ASC
17/05/16
15:37:50.00
17/05/16
15:37:50.00
tln
$LPE453_t0016$<tbV0>[2.6,-10.4,8.0,0.0,27,1,0]
370
64

2002,4.07
MIRTGS : RIGHTBACK : INTERNAL 2
MIR : ON : INTERNAL 2
OPTKBR

0.200000
8
8.000000
FILLER
RATIO
SPECTRUM
UNLOCKED 256

DOUBLE
64
COMBINED
1
0
0

1.000000
RATIO

1
0
TRUE
51149
0
LEFT NOT FITTED RIGHT NOT FITTED 0
NONE
NONE
15600
12
4.427000
51148
TRUE
1 0 8 72 0 0 0 0

15798

#HDR
-1
-1
#GR
CM-1
%T
2.38419e-05
0.0
5000
-1.000000
4631
8
30.7436
-24.5569
#DATA
5000	0.021910
4984	0.117945
4968	-0.295209
4952	0.090575
4936	-0.049757
4920	0.446081
4904	0.596213
4888	0.734090
4872	-0.118827
4856	0.224804
4840	0.691938
4824	-0.005888
4808	0.331091
4792	0.181031
4776	0.018596
4760	0.145339
4744	0.069928
4728	0.029420
4712	-0.278735
4696	0.420784
4680	0.671362
4664	-0.080418
4648	0.316333
4632	0.002121
4616	0.656580
4600	-0.105977
4584	0.352263
4568	0.182080
4552	-1.007747
4536	-0.296926
4520	-1.307940
4504	3.254961
4488	0.209188
4472	0.548291
4456	-0.035142
4440	0.471401
4424	0.332021
4408	0.644755
4392	0.299143
4376	0.522732
4360	0.314235
4344	0.306272
4328	0.229072
4312	-0.100541
4296	0.077867
4280	0.189113
4264	-0.080037
4248	0.316286
4232	0.114035
4216	0.241661
4200	0.333547
4184	0.606441
4168	-0.266170
4152	0.043058
4136	-0.146889
4120	0.042700
4104	0.371623
4088	0.039887
4072	0.066852
4056	0.185227
4040	0.119256
4024	-0.012612
4008	0.289463
3992	0.108170
3976	0.054407
3960	0.203943
3944	0.294947
3928	0.087976
3912	-0.021100
3896	-0.008702
3880	0.160241
3864	0.083565
3848	0.192642
3832	0.040245
3816	0.030016
3800	0.134491
3784	0.039482
3768	0.062465
3752	0.127696
3736	0.119781
3720	0.265669
3704	0.078129
3688	-0.050354
3672	0.159311
3656	-0.089359
3640	0.022768
3624	0.141716
3608	-0.243115
3592	0.076866
3576	-0.085091
3560	-0.018310
3544	0.189781
3528	-0.017142
3512	0.128412
3496	0.255942
3480	0.155234
3464	-0.171017
3448	0.025224
3432	0.041413
3416	0.061893
3400	0.103044
3384	0.068140
3368	-0.000023
3352	0.175213
3336	0.252008
3320	0.147151
3304	0.051069
3288	0.054955
3272	0.000834
3256	0.070285
3240	-0.061130
3224	0.130248
3208	-0.089502
3192	-0.074481
3176	0.091624
3160	0.039672
3144	-0.001811
3128	0.169086
3112	0.107884
3096	-0.011467
3080	0.155639
3064	-0.005292
3048	0.177121
3032	0.006937
3016	0.079751
3000	0.111722
2984	0.194382
2968	0.022029
2952	0.106716
2936	-0.057840
2920	0.173354
2904	0.127100
2888	0.051450
2872	-0.002813
2856	0.071763
2840	-0.001335
2824	0.038242
2808	-0.018501
2792	0.053858
2776	0.034594
2760	0.040173
2744	-0.052404
2728	0.012159
2712	-0.024867
2696	0.057578
2680	0.062203
2664	0.016713
2648	0.016331
2632	-0.020027
2616	0.002574
2600	0.060606
2584	0.044131
2568	0.024890
2552	0.072216
2536	-0.017261
2520	0.055217
2504	0.056242
2488	0.000667
2472	0.145244
2456	0.002384
2440	0.091886
2424	-0.134396
2408	0.014424
2392	0.022625
2376	-0.009703
2360	0.105500
2344	0.048470
2328	-0.075459
2312	0.022840
2296	0.117754
2280	0.193214
2264	0.361609
2248	0.529122
2232	0.811052
2216	1.271939
2200	1.988315
2184	2.773666
2168	3.759050
2152	4.978442
2136	6.671047
2120	8.109521
2104	9.791016
2088	11.5804
2072	13.3172
2056	15.2912
2040	16.7764
2024	18.5545
2008	19.8954
1992	21.3813
1976	22.5884
1960	23.6854
1944	24.8097
1928	25.567
1912	26.4073
1896	27.0063
1880	27.5779
1864	28.0777
1848	28.5744
1832	28.8549
1816	29.1522
1800	29.5521
1784	29.6798
1768	29.8753
1752	30.1
1736	30.1279
1720	30.1874
1704	30.4098
1688	30.5078
1672	30.4149
1656	30.6772
1640	30.5931
1624	30.4785
1608	30.3308
1592	30.1984
1576	30.506
1560	30.6299
1544	30.6132
1528	30.4137
1512	30.4703
1496	30.3333
1480	30.1261
1464	30.3487
1448	29.875
1432	29.9609
1416	29.9613
1400	30.0056
1384	30.0069
1368	29.9182
1352	29.8209
1336	29.7085
1320	29.6684
1304	29.6618
1288	29.4974
1272	29.4754
1256	29.3872
1240	29.3583
1224	29.3255
1208	29.2078
1192	29.1095
1176	29.1776
1160	28.8801
1144	28.7996
1128	28.9078
1112	28.7688
1096	28.5246
1080	28.3884
1064	28.4333
1048	28.3951
1032	28.0674
1016	28.3208
1000	27.7866
984	 27.5712
968	 27.7097
952	 27.2357
936	 27.1247
920	 26.9845
904	 27.0106
888	 26.4729
872	 26.3236
856	 26.0625
840	 25.9089
824	 25.7167
808	 25.5134
792	 25.1336
776	 25.0126
760	 24.3265
744	 24.7832
728	 24.2268
712	 23.3749
696	 22.953
680	 23.153
664	 22.5754
648	 22.3732
632	 22.6229
616	 21.3583
600	 21.3822
584	 20.9774
568	 19.5315
552	 20.2301
536	 19.5128
520	 18.6048
504	 18.677
488	 18.8745
472	 17.2143
456	 16.7106
440	 17.31
424	 10.3391
408	 18.2103
392	 13.9079
376	 -17.0977
370	 27.2699