File: Bakgrunnsmateriale/MATLAB/FTIR/ftir_data/LPE453/Mapping_121/LPE453_t07_cm-1.asc
PE IR       SPECTRUM    SPECTRUM    ASCII       PEDS        1.60
  -1
LP67DA~1.ASC
17/05/16
14:55:42.00
17/05/16
14:55:42.00
tln
$LPE453_t0007$<tbV0>[-2.6,-13.0,8.0,0.0,27,1,0]
370
64

2002,4.07
MIRTGS : RIGHTBACK : INTERNAL 2
MIR : ON : INTERNAL 2
OPTKBR

0.200000
8
8.000000
FILLER
RATIO
SPECTRUM
UNLOCKED 256

DOUBLE
64
COMBINED
1
0
0

1.000000
RATIO

1
0
TRUE
51149
0
LEFT NOT FITTED RIGHT NOT FITTED 0
NONE
NONE
15600
12
4.427000
51148
TRUE
1 0 8 72 0 0 0 0

15798

#HDR
-1
-1
#GR
CM-1
%T
2.38419e-05
0.0
5000
-1.000000
4631
8
36.6264
-4.437541
#DATA
5000	0.276041
4984	-0.087928
4968	0.232315
4952	0.268363
4936	-0.373792
4920	0.109720
4904	0.013208
4888	0.415086
4872	-0.270915
4856	0.115323
4840	0.415420
4824	0.314760
4808	0.062179
4792	0.487875
4776	-0.305032
4760	0.069832
4744	-0.033164
4728	0.071620
4712	0.357127
4696	0.404143
4680	0.377416
4664	0.144839
4648	-0.313043
4632	0.360083
4616	0.556278
4600	0.293684
4584	0.726532
4568	0.456118
4552	0.178718
4536	-0.065040
4520	2.590632
4504	3.758811
4488	0.713825
4472	0.373840
4456	0.184607
4440	0.151133
4424	0.247502
4408	0.012111
4392	0.495505
4376	0.225663
4360	-0.086593
4344	0.159716
4328	0.058460
4312	-0.047826
4296	0.101304
4280	0.232744
4264	0.131130
4248	0.301408
4232	0.073075
4216	0.074481
4200	-0.171732
4184	0.432896
4168	0.067377
4152	0.088024
4136	0.294566
4120	0.454783
4104	0.067567
4088	-0.080108
4072	0.017905
4056	0.019168
4040	-0.029659
4024	0.071263
4008	0.253868
3992	0.156974
3976	0.157380
3960	-0.159049
3944	0.099849
3928	-0.003027
3912	0.002288
3896	-0.144982
3880	0.296568
3864	-0.177550
3848	0.157141
3832	0.231957
3816	-0.002694
3800	0.091028
3784	-0.008726
3768	0.095009
3752	0.113582
3736	0.286316
3720	0.090003
3704	-0.050616
3688	0.207066
3672	0.037384
3656	-0.077533
3640	0.082612
3624	-0.098466
3608	-0.017595
3592	-0.134611
3576	0.058436
3560	-0.071740
3544	0.072002
3528	0.118350
3512	0.086259
3496	0.046849
3480	0.180220
3464	0.041079
3448	-0.012254
3432	-0.010180
3416	0.116491
3400	-0.001811
3384	0.003314
3368	-0.085091
3352	-0.039982
3336	0.086259
3320	0.016093
3304	-0.033712
3288	0.009179
3272	0.129890
3256	0.196146
3240	-0.011086
3224	-0.054740
3208	0.047111
3192	0.047469
3176	-0.113058
3160	0.117063
3144	0.168657
3128	0.003314
3112	-0.015997
3096	0.227737
3080	-0.092816
3064	-0.014305
3048	0.114321
3032	0.160622
3016	0.006914
3000	0.088572
2984	-0.081110
2968	0.207233
2952	0.037598
2936	-0.098276
2920	0.080633
2904	0.054550
2888	0.067830
2872	-0.013566
2856	0.202035
2840	0.101995
2824	0.029468
2808	0.041842
2792	-0.070095
2776	0.099635
2760	0.002527
2744	-0.002145
2728	0.060510
2712	-0.092172
2696	0.005841
2680	-0.039267
2664	-0.009489
2648	-0.002217
2632	0.087952
2616	0.096821
2600	0.048089
2584	0.042319
2568	-0.070762
2552	0.248384
2536	0.023698
2520	0.036406
2504	-0.053071
2488	0.123786
2472	0.048327
2456	0.140333
2440	0.041651
2424	-0.003695
2408	0.086832
2392	0.026702
2376	0.156807
2360	0.085616
2344	0.251054
2328	0.353908
2312	0.393080
2296	0.601506
2280	0.961565
2264	1.238036
2248	1.743078
2232	2.555513
2216	3.422355
2200	4.598379
2184	5.943202
2168	7.450294
2152	9.344005
2136	11.2566
2120	13.2629
2104	15.2847
2088	17.3201
2072	19.2905
2056	21.7161
2040	23.2341
2024	24.879
2008	26.3462
1992	27.9402
1976	29.1473
1960	30.0519
1944	31.1569
1928	32.1292
1912	32.6555
1896	33.099
1880	33.9696
1864	34.3217
1848	34.446
1832	34.8428
1816	35.3954
1800	35.3475
1784	35.3128
1768	35.9885
1752	35.9686
1736	35.8321
1720	35.9908
1704	36.4562
1688	36.3002
1672	36.0601
1656	36.3791
1640	36.4477
1624	35.9632
1608	35.8985
1592	36.2723
1576	36.2035
1560	35.9813
1544	36.2385
1528	36.2487
1512	36.1886
1496	35.6298
1480	35.9763
1464	36.1969
1448	35.5902
1432	35.4059
1416	35.8979
1400	35.7373
1384	35.3004
1368	35.4569
1352	35.7068
1336	35.4423
1320	34.9226
1304	35.3035
1288	35.6313
1272	34.981
1256	34.6366
1240	35.1897
1224	35.5209
1208	34.7847
1192	34.6828
1176	35.1564
1160	35.1004
1144	34.3813
1128	34.602
1112	35.1599
1096	34.7973
1080	33.9796
1064	34.5757
1048	34.9481
1032	34.1832
1016	33.9088
1000	34.4607
984	 34.5506
968	 33.7805
952	 33.4755
936	 34.1621
920	 33.9793
904	 32.863
888	 33.2498
872	 33.5198
856	 33.1587
840	 32.1912
824	 32.6568
808	 33.0362
792	 32.4094
776	 31.6122
760	 32.483
744	 31.7374
728	 31.2887
712	 30.8244
696	 31.3164
680	 31.2639
664	 30.0789
648	 29.8817
632	 30.5381
616	 30.077
600	 29.1062
584	 28.6096
568	 29.1757
552	 28.4697
536	 28.1193
520	 28.0531
504	 27.1218
488	 26.5598
472	 26.7301
456	 26.5918
440	 24.8885
424	 22.6655
408	 29.033
392	 16.0661
376	 12.8827
370	 10.9938