File: Bakgrunnsmateriale/MATLAB/FTIR/ftir_data/LPE453/Mapping_121/LPE453_t18_cm-1.asc
PE IR       SPECTRUM    SPECTRUM    ASCII       PEDS        1.60
  -1
LPE759~1.ASC
17/05/16
15:47:04.00
17/05/16
15:47:04.00
tln
$LPE453_t0018$<tbV0>[-2.6,-10.4,8.0,0.0,27,1,0]
370
64

2002,4.07
MIRTGS : RIGHTBACK : INTERNAL 2
MIR : ON : INTERNAL 2
OPTKBR

0.200000
8
8.000000
FILLER
RATIO
SPECTRUM
UNLOCKED 256

DOUBLE
64
COMBINED
1
0
0

1.000000
RATIO

1
0
TRUE
51149
0
LEFT NOT FITTED RIGHT NOT FITTED 0
NONE
NONE
15600
12
4.427000
51148
TRUE
1 0 8 72 0 0 0 0

15798

#HDR
-1
-1
#GR
CM-1
%T
2.38419e-05
0.0
5000
-1.000000
4631
8
42.5348
-8.097982
#DATA
5000	0.158143
4984	-0.059914
4968	0.089979
4952	0.575780
4936	-0.036072
4920	-0.004553
4904	-0.350522
4888	0.310921
4872	0.229740
4856	0.206232
4840	-0.039887
4824	-0.137662
4808	0.300240
4792	0.122427
4776	0.059175
4760	-0.245690
4744	0.020861
4728	0.280809
4712	0.272345
4696	0.396823
4680	0.721311
4664	0.551867
4648	0.706124
4632	0.197315
4616	0.747609
4600	1.117992
4584	1.315474
4568	0.315070
4552	0.595140
4536	-0.326776
4520	-2.858352
4504	0.412869
4488	1.053166
4472	1.039576
4456	0.735473
4440	1.163172
4424	0.636935
4408	0.546693
4392	-0.082087
4376	0.535678
4360	0.205206
4344	0.263142
4328	-0.049948
4312	-0.079417
4296	-0.068569
4280	0.193953
4264	0.434446
4248	-0.173187
4232	0.189542
4216	0.251054
4200	-0.108528
4184	-0.003457
4168	-0.104665
4152	0.070452
4136	0.321793
4120	0.189590
4104	0.252580
4088	0.101113
4072	0.021505
4056	-0.167584
4040	0.034093
4024	-0.158333
4008	-0.013566
3992	0.172519
3976	0.052022
3960	0.050282
3944	0.018310
3928	0.060534
3912	0.082826
3896	0.046992
3880	0.104093
3864	-0.030922
3848	0.147318
3832	0.010323
3816	0.046849
3800	0.155687
3784	0.093269
3768	0.007247
3752	-0.081110
3736	0.186038
3720	0.012278
3704	0.049853
3688	0.009584
3672	0.260663
3656	-0.034570
3640	0.145363
3624	0.212788
3608	0.119161
3592	0.006818
3576	0.050091
3560	0.069093
3544	0.054574
3528	0.111889
3512	0.170063
3496	0.034761
3480	0.260853
3464	0.032114
3448	0.107097
3432	0.042152
3416	-0.055003
3400	0.259113
3384	0.005078
3368	0.179648
3352	0.002503
3336	0.204682
3320	0.098395
3304	0.077462
3288	0.063490
3272	0.079369
3256	-0.115919
3240	0.145101
3224	-0.064730
3208	-0.069904
3192	0.105357
3176	0.043272
3160	0.053644
3144	0.008749
3128	0.093483
3112	-0.077581
3096	0.112462
3080	-0.101423
3064	0.018191
3048	0.003314
3032	-0.058317
3016	0.058364
3000	-0.023317
2984	0.011897
2968	0.065445
2952	0.061106
2936	0.019073
2920	-0.020837
2904	0.107121
2888	-0.032925
2872	-0.041151
2856	0.128650
2840	0.083971
2824	-0.048542
2808	0.077748
2792	0.076532
2776	0.042629
2760	-0.102186
2744	0.045728
2728	-0.010347
2712	0.012063
2696	0.087666
2680	0.069737
2664	0.059509
2648	0.127983
2632	-0.070810
2616	0.105190
2600	0.084543
2584	0.072145
2568	-0.005960
2552	0.105381
2536	-0.031423
2520	-0.078058
2504	-0.110983
2488	0.142621
2472	0.063419
2456	0.108575
2440	-0.209403
2424	-0.058436
2408	0.131368
2392	0.031948
2376	0.175595
2360	0.003576
2344	0.212264
2328	0.218892
2312	0.374770
2296	0.583195
2280	0.820660
2264	1.122784
2248	1.715540
2232	2.474927
2216	3.343987
2200	4.334950
2184	5.711889
2168	7.297134
2152	9.142518
2136	10.8204
2120	12.938
2104	15.0791
2088	17.2313
2072	19.1109
2056	21.1455
2040	22.9342
2024	24.5408
2008	25.9815
1992	27.5013
1976	28.5518
1960	29.7865
1944	30.5799
1928	31.3945
1912	32.0646
1896	32.5639
1880	33.1654
1864	33.6359
1848	34.1099
1832	34.2821
1816	34.4918
1800	34.6672
1784	34.9174
1768	35.2393
1752	35.3145
1736	35.5536
1720	35.6678
1704	35.6965
1688	35.7966
1672	35.7003
1656	35.9924
1640	35.8367
1624	35.8015
1608	35.807
1592	35.7258
1576	35.9711
1560	36.2931
1544	36.2526
1528	35.8727
1512	35.9623
1496	36.002
1480	35.8295
1464	35.8876
1448	35.7734
1432	35.898
1416	35.7582
1400	35.7347
1384	35.911
1368	35.8034
1352	35.6405
1336	35.7428
1320	35.7544
1304	35.5584
1288	35.3738
1272	35.6351
1256	35.4764
1240	35.4481
1224	35.2894
1208	35.6673
1192	35.4191
1176	35.1977
1160	35.4898
1144	35.6036
1128	35.2724
1112	34.8182
1096	35.0953
1080	35.3937
1064	34.6811
1048	34.7965
1032	35.2733
1016	35.1285
1000	34.4468
984	 34.493
968	 34.9511
952	 34.1635
936	 33.9776
920	 34.3378
904	 34.3143
888	 33.6353
872	 33.1705
856	 33.9535
840	 33.4994
824	 32.8707
808	 33.07
792	 33.4534
776	 32.8337
760	 31.96
744	 32.2024
728	 32.0415
712	 31.5058
696	 31.035
680	 31.6051
664	 31.2752
648	 30.2113
632	 30.4925
616	 30.2138
600	 29.478
584	 28.2774
568	 28.6225
552	 29.167
536	 27.9201
520	 26.9267
504	 27.1868
488	 26.373
472	 26.6234
456	 24.4644
440	 25.0218
424	 23.5667
408	 22.0577
392	 26.965
376	 -1.540064
370	 -6.927180