File: Bakgrunnsmateriale/MATLAB/FTIR/ftir_data/LPE453/Mapping_121/LPE453_t120.asc
PE IR       SPECTRUM    SPECTRUM    ASCII       PEDS        1.60
  -1
LP9372~1.ASC
17/05/17
00:27:50.00
17/05/17
00:28:16.00
tln
$LPE453_t0120$<tbV0>[-10.4,13.0,8.0,0.0,27,1,0]
27.028
64

2002,4.07
MIRTGS : RIGHTBACK : INTERNAL 2
MIR : ON : INTERNAL 2
OPTKBR

0.200000
8
8.000000
FILLER
RATIO
SPECTRUM
UNLOCKED 256

DOUBLE
64
COMBINED
1
0
0

0.002000
RATIO

1
0
TRUE
51149
0
LEFT NOT FITTED RIGHT NOT FITTED 0
NONE
NONE
15600
12
4.427000
51148
TRUE
1 0 8 72 0 0 0 0

15798

#HDR
-1
-1
#GR
µM
%T
2.38419e-05
0.0
2.000000
0.002000
12515
8
35.4148
-27.5637
#DATA
2.000000	 0.173974
2.084000	 0.617058
2.168000	 0.921486
2.252000	 -0.537748
2.336000	 -0.042554
2.420000	 0.141390
2.504000	 0.075787
2.588000	 0.097685
2.672000	 0.100494
2.756000	 0.037483
2.840000	 -0.007217
2.924000	 -0.084999
3.008000	 -0.085435
3.092000	 -0.027264
3.176000	 0.109374
3.260000	 0.113200
3.344000	 0.013788
3.428000	 -0.023218
3.512000	 0.145426
3.596000	 -0.004431
3.680000	 -0.053589
3.764000	 0.027775
3.848000	 -0.101749
3.932000	 0.007051
4.016000	 -0.011716
4.100000	 0.103759
4.184000	 0.099971
4.268000	 0.230518
4.352000	 0.589116
4.436000	 1.427970
4.520000	 3.483676
4.604000	 6.408845
4.688000	 10.5551
4.772000	 14.7653
4.856000	 18.8006
4.940000	 22.4045
5.024000	 25.1904
5.108000	 27.4345
5.192000	 28.9803
5.276000	 30.4283
5.359999	 31.3066
5.444000	 32.0677
5.528000	 32.7263
5.612000	 33.2452
5.696000	 33.5116
5.780000	 33.7391
5.864000	 34.1619
5.948000	 34.2496
6.032000	 34.6733
6.116000	 34.6845
6.200000	 34.7586
6.284000	 34.979
6.368000	 34.9171
6.452000	 35.0092
6.536000	 35.2673
6.620000	 35.2176
6.704000	 35.1117
6.788000	 35.3456
6.872000	 34.9915
6.956000	 35.1328
7.040000	 35.2752
7.124000	 35.1797
7.208000	 34.9572
7.292000	 35.2828
7.376000	 35.4147
7.460000	 35.0092
7.544000	 34.7661
7.628000	 34.9574
7.712000	 34.9979
7.796000	 34.75
7.880000	 34.6881
7.964000	 34.63
8.048000	 34.8804
8.132000	 34.6962
8.216000	 34.3624
8.300000	 34.2817
8.384000	 34.5041
8.468000	 34.3953
8.552000	 34.3209
8.635999	 34.0254
8.719999	 33.8551
8.804000	 33.9349
8.888000	 33.992
8.972000	 34.0207
9.056000	 33.9241
9.140000	 33.3724
9.224000	 33.1389
9.308000	 33.3287
9.391999	 33.385
9.475999	 33.553
9.560000	 33.097
9.644000	 32.9506
9.728000	 32.7328
9.812000	 32.5117
9.896000	 32.4332
9.980000	 32.7446
10.064	32.7889
10.148	32.6182
10.232	32.5676
10.316	32.147
10.4	32.0169
10.484	31.9459
10.568	32.1125
10.652	32.0633
10.736	32.016
10.82	31.9348
10.904	31.5837
10.988	31.2998
11.072	31.1928
11.156	31.3047
11.24	31.2958
11.324	31.1774
11.408	31.1135
11.492	31.0515
11.576	30.9916
11.66	30.7371
11.744	30.4909
11.828	30.466
11.912	30.2699
11.996	30.2011
12.08	30.1115
12.164	30.1054
12.248	30.2689
12.332	30.1371
12.416	30.0192
12.5	29.8796
12.584	29.652
12.668	29.4857
12.752	29.3425
12.836	29.3041
12.92	29.3145
13.004	29.275
13.088	29.3812
13.172	29.5344
13.256	29.5407
13.34	29.3932
13.424	29.2719
13.508	29.1333
13.592	28.9387
13.676	28.7134
13.76	28.6456
13.844	28.5256
13.928	28.2825
14.012	28.1269
14.096	28.0158
14.18	28.1287
14.264	28.3137
14.348	28.325
14.432	28.3261
14.516	28.3075
14.6	28.2696
14.684	28.1755
14.768	27.8963
14.852	27.6465
14.936	27.5177
15.02	27.3068
15.104	27.1347
15.188	27.1658
15.272	27.119
15.356	26.8954
15.44	26.7795
15.524	26.8247
15.608	26.8832
15.692	26.9594
15.776	27.0402
15.86	26.9881
15.944	26.812
16.028	26.69
16.112	26.6594
16.196	26.5984
16.28	26.4524
16.364	26.2564
16.448	26.0967
16.532	26.0851
16.616	26.1927
16.7	26.2176
16.784	26.0388
16.868	25.7558
16.952	25.5658
17.036	25.5823
17.12	25.7505
17.204	25.9184
17.288	26.0017
17.372	26.0341
17.456	26.0727
17.54	26.1096
17.624	26.0692
17.708	25.9147
17.792	25.741
17.876	25.678
17.96	25.6995
18.044	25.6545
18.128	25.4852
18.212	25.2843
18.296	25.1214
18.38	24.9545
18.464	24.7418
18.548	24.5407
18.632	24.4416
18.716	24.4523
18.8	24.4993
18.884	24.5122
18.968	24.4729
19.052	24.3955
19.136	24.2986
19.22	24.2116
19.304	24.1847
19.388	24.2422
19.472	24.3302
19.556	24.355
19.64	24.283
19.724	24.1826
19.808	24.1507
19.892	24.2152
19.976	24.3118
20.06	24.3519
20.144	24.2959
20.228	24.1667
20.312	24.0115
20.396	23.8581
20.48	23.6894
20.564	23.4641
20.648	23.1614
20.732	22.8106
20.816	22.4811
20.9	22.245
20.984	22.1447
21.068	22.1856
21.152	22.3398
21.236	22.5487
21.32	22.7346
21.404	22.8272
21.488	22.8041
21.572	22.7065
21.656	22.6077
21.74	22.5557
21.824	22.5463
21.908	22.5428
21.992	22.5303
22.076	22.5455
22.16	22.6476
22.244	22.8527
22.328	23.0969
22.412	23.2568
22.496	23.2311
22.58	23.0215
22.664	22.726
22.748	22.4847
22.832	22.3738
22.916	22.353
23	22.2769
23.084	21.9997
23.168	21.4444
23.252	20.6543
23.336	19.7754
23.42	18.9708
23.504	18.3705
23.588	18.0395
23.672	17.9926
23.756	18.2205
23.84	18.6865
23.924	19.3082
24.008	19.9456
24.092	20.4074
24.176	20.5052
24.26	20.1477
24.344	19.387
24.428	18.4274
24.512	17.6357
24.596	17.3284
24.68	17.6876
24.764	18.7121
24.848	20.1578
24.932	21.6704
25.016	22.9655
25.1	23.9239
25.184	24.5818
25.268	25.0722
25.352	25.527
25.436	26.0412
25.52	26.6492
25.604	27.3381
25.688	27.9982
25.772	28.4537
25.856	28.5172
25.94	28.0611
26.024	27.0134
26.108	25.3438
26.192	22.8683
26.276	19.2495
26.36	14.1122
26.444	7.335441
26.528	-0.739506
26.612	-9.242034
26.696	-17.0207
26.78	-23.0059
26.864	-26.5492
26.948	-27.5603
27.028	-26.5445