File: Bakgrunnsmateriale/MATLAB/FTIR/ftir_data/LPE453/Mapping_121/LPE453_t50.asc
PE IR       SPECTRUM    SPECTRUM    ASCII       PEDS        1.60
  -1
LPC7A9~1.ASC
17/05/16
18:29:20.00
17/05/16
18:29:46.00
tln
$LPE453_t0050$<tbV0>[0.0,-2.6,8.0,0.0,27,1,0]
27.028
64

2002,4.07
MIRTGS : RIGHTBACK : INTERNAL 2
MIR : ON : INTERNAL 2
OPTKBR

0.200000
8
8.000000
FILLER
RATIO
SPECTRUM
UNLOCKED 256

DOUBLE
64
COMBINED
1
0
0

0.002000
RATIO

1
0
TRUE
51149
0
LEFT NOT FITTED RIGHT NOT FITTED 0
NONE
NONE
15600
12
4.427000
51148
TRUE
1 0 8 72 0 0 0 0

15798

#HDR
-1
-1
#GR
µM
%T
2.38419e-05
0.0
2.000000
0.002000
12515
8
28.3565
-14.6397
#DATA
2.000000	 -0.219249
2.084000	 -0.157274
2.168000	 0.617140
2.252000	 -0.249367
2.336000	 -0.371933
2.420000	 -0.005017
2.504000	 -0.111605
2.588000	 0.035299
2.672000	 0.110968
2.756000	 0.005929
2.840000	 -0.156206
2.924000	 0.140756
3.008000	 -0.041779
3.092000	 -0.022494
3.176000	 0.002024
3.260000	 0.094679
3.344000	 -0.064731
3.428000	 0.126449
3.512000	 0.016859
3.596000	 0.005852
3.680000	 0.040922
3.764000	 0.041199
3.848000	 0.034751
3.932000	 0.025454
4.016000	 -0.131664
4.100000	 -0.003502
4.184000	 0.126016
4.268000	 -0.000270
4.352000	 0.084533
4.436000	 0.382948
4.520000	 1.157899
4.604000	 2.957946
4.688000	 6.065561
4.772000	 9.489246
4.856000	 13.2935
4.940000	 16.8198
5.024000	 19.7463
5.108000	 21.9157
5.192000	 23.7048
5.276000	 25.0446
5.359999	 26.0036
5.444000	 26.6291
5.528000	 27.1878
5.612000	 27.5195
5.696000	 27.7867
5.780000	 27.9924
5.864000	 28.0686
5.948000	 28.0731
6.032000	 28.1553
6.116000	 28.2748
6.200000	 28.3169
6.284000	 28.3047
6.368000	 28.2154
6.452000	 28.2741
6.536000	 28.1768
6.620000	 28.0952
6.704000	 27.9928
6.788000	 28.0203
6.872000	 27.8795
6.956000	 27.852
7.040000	 27.7749
7.124000	 27.6932
7.208000	 27.5822
7.292000	 27.4496
7.376000	 27.5313
7.460000	 27.4061
7.544000	 27.3578
7.628000	 27.3351
7.712000	 27.2652
7.796000	 27.2368
7.880000	 27.1731
7.964000	 27.2355
8.048000	 27.0283
8.132000	 26.977
8.216000	 26.9454
8.300000	 26.8245
8.384000	 26.9176
8.468000	 26.6631
8.552000	 26.7719
8.635999	 26.5919
8.719999	 26.4578
8.804000	 26.5487
8.888000	 26.4575
8.972000	 26.2362
9.056000	 26.3834
9.140000	 26.3941
9.224000	 26.2372
9.308000	 26.124
9.391999	 25.7386
9.475999	 25.8235
9.560000	 25.9251
9.644000	 25.6664
9.728000	 25.567
9.812000	 25.4349
9.896000	 25.3574
9.980000	 25.1756
10.064	25.3692
10.148	25.3316
10.232	25.2756
10.316	24.9222
10.4	24.9347
10.484	24.8986
10.568	24.6917
10.652	24.4904
10.736	24.3785
10.82	24.4812
10.904	24.4674
10.988	24.1052
11.072	24.0196
11.156	23.83
11.24	23.8149
11.324	23.6306
11.408	23.5065
11.492	23.618
11.576	23.6892
11.66	23.4395
11.744	23.2093
11.828	23.0732
11.912	23.0741
11.996	22.8111
12.08	22.706
12.164	22.6659
12.248	22.5813
12.332	22.681
12.416	22.5763
12.5	22.4102
12.584	22.2982
12.668	22.1498
12.752	22.1136
12.836	22.1077
12.92	22.0546
13.004	21.7127
13.088	21.4145
13.172	21.3967
13.256	21.3005
13.34	21.3296
13.424	21.5024
13.508	21.5638
13.592	21.3849
13.676	21.0806
13.76	20.9695
13.844	21.0111
13.928	20.9129
14.012	20.8011
14.096	20.8032
14.18	20.7682
14.264	20.5912
14.348	20.3844
14.432	20.3687
14.516	20.4211
14.6	20.3128
14.684	20.103
14.768	19.8893
14.852	19.7012
14.936	19.5754
15.02	19.4564
15.104	19.2815
15.188	19.1749
15.272	19.2964
15.356	19.4852
15.44	19.4831
15.524	19.3059
15.608	19.0474
15.692	18.7815
15.776	18.6356
15.86	18.6515
15.944	18.7193
16.028	18.7138
16.112	18.6139
16.196	18.5033
16.28	18.463
16.364	18.4621
16.448	18.3868
16.532	18.1825
16.616	17.9111
16.7	17.6853
16.784	17.5826
16.868	17.5833
16.952	17.5878
17.036	17.5117
17.12	17.3805
17.204	17.3002
17.288	17.3112
17.372	17.3448
17.456	17.3353
17.54	17.2809
17.624	17.1828
17.708	17.0408
17.792	16.8997
17.876	16.7936
17.96	16.69
18.044	16.5563
18.128	16.4322
18.212	16.3796
18.296	16.3908
18.38	16.3804
18.464	16.265
18.548	16.0512
18.632	15.8499
18.716	15.7665
18.8	15.7889
18.884	15.8184
18.968	15.7989
19.052	15.7673
19.136	15.7839
19.22	15.8573
19.304	15.9509
19.388	16.0232
19.472	16.0396
19.556	15.9723
19.64	15.8221
19.724	15.6356
19.808	15.483
19.892	15.414
19.976	15.4228
20.06	15.4491
20.144	15.4232
20.228	15.3062
20.312	15.1095
20.396	14.8882
20.48	14.7162
20.564	14.6495
20.648	14.6872
20.732	14.7597
20.816	14.7706
20.9	14.6722
20.984	14.5275
21.068	14.4701
21.152	14.5884
21.236	14.8349
21.32	15.0517
21.404	15.0821
21.488	14.8927
21.572	14.5859
21.656	14.3201
21.74	14.2094
21.824	14.2571
21.908	14.3672
21.992	14.4114
22.076	14.2946
22.16	14.0093
22.244	13.6373
22.328	13.2898
22.412	13.0433
22.496	12.8735
22.58	12.6771
22.664	12.3449
22.748	11.8416
22.832	11.2413
22.916	10.6949
23	10.3529
23.084	10.2861
23.168	10.4915
23.252	10.9249
23.336	11.521
23.42	12.239
23.504	13.0011
23.588	13.6723
23.672	14.0793
23.756	14.0384
23.84	13.4413
23.924	12.3582
24.008	11.0207
24.092	9.755665
24.176	8.914126
24.26	8.696705
24.344	9.094767
24.428	9.890582
24.512	10.7004
24.596	11.1295
24.68	10.8611
24.764	9.740916
24.848	7.768420
24.932	5.094709
25.016	1.982576
25.1	-1.294464
25.184	-4.423824
25.268	-7.092523
25.352	-9.029675
25.436	-9.849110
25.52	-9.171680
25.604	-6.806719
25.688	-2.800525
25.772	2.391096
25.856	7.946884
25.94	13.0477
26.024	17.0206
26.108	19.4829
26.192	20.3278
26.276	19.6553
26.36	17.7857
26.444	15.0092
26.528	11.5003
26.612	7.342966
26.696	2.640022
26.78	-2.360251
26.864	-7.160405
26.948	-11.2921
27.028	-14.6397