File: Bakgrunnsmateriale/MATLAB/FTIR/ftir_data/LPE453/Mapping_121/LPE453_t51.asc
PE IR       SPECTRUM    SPECTRUM    ASCII       PEDS        1.60
  -1
LPC7AD~1.ASC
17/05/16
18:33:56.00
17/05/16
18:34:22.00
tln
$LPE453_t0051$<tbV0>[-2.6,-2.6,8.0,0.0,27,1,0]
27.028
64

2002,4.07
MIRTGS : RIGHTBACK : INTERNAL 2
MIR : ON : INTERNAL 2
OPTKBR

0.200000
8
8.000000
FILLER
RATIO
SPECTRUM
UNLOCKED 256

DOUBLE
64
COMBINED
1
0
0

0.002000
RATIO

1
0
TRUE
51149
0
LEFT NOT FITTED RIGHT NOT FITTED 0
NONE
NONE
15600
12
4.427000
51148
TRUE
1 0 8 72 0 0 0 0

15798

#HDR
-1
-1
#GR
µM
%T
2.38419e-05
0.0
2.000000
0.002000
12515
8
57.885
-11.3994
#DATA
2.000000	 -0.253653
2.084000	 0.159977
2.168000	 0.974573
2.252000	 -0.555984
2.336000	 0.260562
2.420000	 0.253958
2.504000	 0.240842
2.588000	 0.068345
2.672000	 0.112186
2.756000	 0.084859
2.840000	 0.058131
2.924000	 0.118930
3.008000	 -0.071882
3.092000	 0.028183
3.176000	 0.072236
3.260000	 0.146317
3.344000	 -0.012068
3.428000	 0.070676
3.512000	 -0.042873
3.596000	 -0.018935
3.680000	 0.081029
3.764000	 0.037689
3.848000	 -0.006416
3.932000	 0.056289
4.016000	 0.096219
4.100000	 -0.012464
4.184000	 0.070924
4.268000	 0.130032
4.352000	 0.225142
4.436000	 0.654841
4.520000	 1.888231
4.604000	 4.251280
4.688000	 7.826348
4.772000	 11.7867
4.856000	 15.858
4.940000	 19.7593
5.024000	 22.7636
5.108000	 25.0505
5.192000	 26.6502
5.276000	 28.1097
5.359999	 29.044
5.444000	 29.6451
5.528000	 30.2022
5.612000	 30.5544
5.696000	 30.8105
5.780000	 30.8913
5.864000	 31.0689
5.948000	 31.183
6.032000	 31.1263
6.116000	 31.3312
6.200000	 31.2632
6.284000	 31.2967
6.368000	 31.2871
6.452000	 31.1493
6.536000	 31.2915
6.620000	 31.0165
6.704000	 31.129
6.788000	 31.0991
6.872000	 30.8424
6.956000	 31.1768
7.040000	 30.7619
7.124000	 30.8855
7.208000	 30.9594
7.292000	 30.6531
7.376000	 30.5717
7.460000	 30.6851
7.544000	 30.4851
7.628000	 30.3975
7.712000	 30.4924
7.796000	 30.3809
7.880000	 30.2313
7.964000	 30.2418
8.048000	 30.2619
8.132000	 30.1296
8.216000	 30.0504
8.300000	 30.0481
8.384000	 29.9806
8.468000	 29.8147
8.552000	 29.5832
8.635999	 29.7505
8.719999	 29.8507
8.804000	 29.5084
8.888000	 29.4413
8.972000	 29.5326
9.056000	 29.3936
9.140000	 29.5097
9.224000	 29.2054
9.308000	 28.9545
9.391999	 29.0635
9.475999	 29.0324
9.560000	 29.0248
9.644000	 28.933
9.728000	 28.8378
9.812000	 28.7611
9.896000	 28.6248
9.980000	 28.6891
10.064	28.6219
10.148	28.2447
10.232	28.2342
10.316	28.1889
10.4	28.2259
10.484	28.2756
10.568	28.0392
10.652	27.8891
10.736	27.4695
10.82	27.4768
10.904	27.5112
10.988	27.6344
11.072	27.6198
11.156	27.6209
11.24	27.2465
11.324	26.922
11.408	26.9325
11.492	27.0915
11.576	27.1781
11.66	27.0825
11.744	26.9684
11.828	26.5149
11.912	26.2201
11.996	26.0808
12.08	25.9501
12.164	26.0809
12.248	26.1808
12.332	26.2946
12.416	26.3315
12.5	26.005
12.584	25.6959
12.668	25.502
12.752	25.4387
12.836	25.2444
12.92	25.0105
13.004	25.1098
13.088	25.3543
13.172	25.3832
13.256	25.1443
13.34	24.8086
13.424	24.8218
13.508	24.9566
13.592	24.816
13.676	24.4971
13.76	24.2532
13.844	24.1802
13.928	24.2234
14.012	24.3621
14.096	24.3981
14.18	24.1891
14.264	23.8266
14.348	23.5861
14.432	23.5378
14.516	23.4763
14.6	23.343
14.684	23.2435
14.768	23.1555
14.852	23.1207
14.936	23.2622
15.02	23.3829
15.104	23.2736
15.188	23.1218
15.272	23.0507
15.356	22.8772
15.44	22.5449
15.524	22.2454
15.608	22.0952
15.692	22.0257
15.776	21.9302
15.86	21.8259
15.944	21.8222
16.028	21.9073
16.112	21.9228
16.196	21.8273
16.28	21.7926
16.364	21.957
16.448	22.2203
16.532	22.3149
16.616	22.092
16.7	21.7208
16.784	21.47
16.868	21.3583
16.952	21.2316
17.036	21.0417
17.12	20.8427
17.204	20.6514
17.288	20.4784
17.372	20.3745
17.456	20.3466
17.54	20.3336
17.624	20.3066
17.708	20.3289
17.792	20.4563
17.876	20.6177
17.96	20.6751
18.044	20.57
18.128	20.3416
18.212	20.0467
18.296	19.7431
18.38	19.5219
18.464	19.4657
18.548	19.5578
18.632	19.6841
18.716	19.7235
18.8	19.6275
18.884	19.443
18.968	19.2563
19.052	19.1162
19.136	19.0096
19.22	18.9154
19.304	18.863
19.388	18.9022
19.472	19.0224
19.556	19.1483
19.64	19.201
19.724	19.1389
19.808	18.9587
19.892	18.6981
19.976	18.435
20.06	18.2495
20.144	18.1638
20.228	18.1397
20.312	18.1484
20.396	18.212
20.48	18.3402
20.564	18.4536
20.648	18.4283
20.732	18.2177
20.816	17.9224
20.9	17.7041
20.984	17.6472
21.068	17.6977
21.152	17.7464
21.236	17.7498
21.32	17.7682
21.404	17.8938
21.488	18.1494
21.572	18.4566
21.656	18.6855
21.74	18.729
21.824	18.5499
21.908	18.1832
21.992	17.7014
22.076	17.1824
22.16	16.6947
22.244	16.2927
22.328	16.0112
22.412	15.8604
22.496	15.8284
22.58	15.884
22.664	15.9795
22.748	16.0554
22.832	16.0536
22.916	15.9225
23	15.6614
23.084	15.3152
23.168	14.9763
23.252	14.7326
23.336	14.6178
23.42	14.6043
23.504	14.6192
23.588	14.5852
23.672	14.4718
23.756	14.3311
23.84	14.2707
23.924	14.4122
24.008	14.7898
24.092	15.2928
24.176	15.7289
24.26	15.8754
24.344	15.5708
24.428	14.7914
24.512	13.5985
24.596	12.1366
24.68	10.539
24.764	8.864890
24.848	7.166056
24.932	5.575397
25.016	4.309430
25.1	3.568833
25.184	3.483040
25.268	4.009447
25.352	4.910990
25.436	5.970005
25.52	7.130417
25.604	8.515951
25.688	10.3685
25.772	12.8712
25.856	16.0167
25.94	19.5524
26.024	23.1289
26.108	26.5128
26.192	29.7288
26.276	33.0297
26.36	36.755
26.444	41.1607
26.528	46.1572
26.612	51.2496
26.696	55.4856
26.78	57.7491
26.864	57.0046
26.948	52.7295
27.028	45.7673