File: Bakgrunnsmateriale/MATLAB/FTIR/ftir_data/LPE453/Mapping_121/LPE453_t66.asc
PE IR       SPECTRUM    SPECTRUM    ASCII       PEDS        1.60
  -1
LPDBA1~1.ASC
17/05/16
19:43:44.00
17/05/16
19:44:10.00
tln
$LPE453_t0066$<tbV0>[-13.0,0.0,8.0,0.0,27,1,0]
27.028
64

2002,4.07
MIRTGS : RIGHTBACK : INTERNAL 2
MIR : ON : INTERNAL 2
OPTKBR

0.200000
8
8.000000
FILLER
RATIO
SPECTRUM
UNLOCKED 256

DOUBLE
64
COMBINED
1
0
0

0.002000
RATIO

1
0
TRUE
51149
0
LEFT NOT FITTED RIGHT NOT FITTED 0
NONE
NONE
15600
12
4.427000
51148
TRUE
1 0 8 72 0 0 0 0

15798

#HDR
-1
-1
#GR
µM
%T
2.38419e-05
0.0
2.000000
0.002000
12515
8
40.0426
-3.688245
#DATA
2.000000	 0.444149
2.084000	 0.005437
2.168000	 0.088161
2.252000	 -0.077196
2.336000	 0.055363
2.420000	 0.041491
2.504000	 0.051529
2.588000	 -0.163911
2.672000	 0.126897
2.756000	 -0.035986
2.840000	 -0.066986
2.924000	 0.052782
3.008000	 0.093530
3.092000	 0.060374
3.176000	 0.174083
3.260000	 -0.013103
3.344000	 0.041208
3.428000	 0.132827
3.512000	 -0.034508
3.596000	 -0.002472
3.680000	 0.027854
3.764000	 0.018625
3.848000	 -0.079571
3.932000	 0.066712
4.016000	 0.014384
4.100000	 0.185616
4.184000	 0.050450
4.268000	 -0.133735
4.352000	 0.056233
4.436000	 0.495195
4.520000	 1.486013
4.604000	 3.326498
4.688000	 6.123423
4.772000	 9.661075
4.856000	 13.2371
4.940000	 16.6798
5.024000	 19.2838
5.108000	 21.571
5.192000	 23.4217
5.276000	 24.7835
5.359999	 25.737
5.444000	 26.6571
5.528000	 27.2778
5.612000	 27.8362
5.696000	 28.3447
5.780000	 28.2675
5.864000	 28.9791
5.948000	 28.8748
6.032000	 29.3822
6.116000	 29.1061
6.200000	 29.4953
6.284000	 29.3254
6.368000	 29.5806
6.452000	 29.635
6.536000	 29.519
6.620000	 29.7296
6.704000	 29.4865
6.788000	 29.8509
6.872000	 29.7076
6.956000	 29.5539
7.040000	 29.7594
7.124000	 29.4707
7.208000	 29.5009
7.292000	 29.5901
7.376000	 29.3126
7.460000	 29.3328
7.544000	 29.4645
7.628000	 29.2631
7.712000	 28.9979
7.796000	 29.3856
7.880000	 29.1563
7.964000	 28.932
8.048000	 29.0623
8.132000	 29.1584
8.216000	 28.8227
8.300000	 28.575
8.384000	 28.8358
8.468000	 28.9418
8.552000	 28.5302
8.635999	 28.054
8.719999	 28.3815
8.804000	 28.459
8.888000	 28.3447
8.972000	 27.9438
9.056000	 27.8428
9.140000	 28.0225
9.224000	 28.1275
9.308000	 27.7478
9.391999	 27.3549
9.475999	 27.4068
9.560000	 27.5882
9.644000	 27.6338
9.728000	 27.4232
9.812000	 26.9883
9.896000	 26.8595
9.980000	 27.0117
10.064	27.0791
10.148	26.9082
10.232	26.5647
10.316	26.2063
10.4	26.2024
10.484	26.2798
10.568	26.4629
10.652	26.5524
10.736	26.0598
10.82	25.7813
10.904	25.3071
10.988	25.4145
11.072	25.6125
11.156	25.7372
11.24	25.6306
11.324	25.1415
11.408	24.8476
11.492	24.8639
11.576	24.8599
11.66	24.8348
11.744	24.7937
11.828	24.7919
11.912	24.7235
11.996	24.4907
12.08	24.0282
12.164	23.9299
12.248	23.945
12.332	23.8617
12.416	24.0374
12.5	24.059
12.584	23.9943
12.668	23.8828
12.752	23.6013
12.836	23.4211
12.92	23.1396
13.004	23.0078
13.088	23.2648
13.172	23.3064
13.256	23.1701
13.34	23.298
13.424	23.237
13.508	22.7135
13.592	22.2296
13.676	22.3408
13.76	22.5093
13.844	22.3753
13.928	22.2366
14.012	22.2012
14.096	22.3156
14.18	22.4123
14.264	22.3397
14.348	22.196
14.432	21.9136
14.516	21.5778
14.6	21.4649
14.684	21.4613
14.768	21.3868
14.852	21.3791
14.936	21.4528
15.02	21.3571
15.104	21.1978
15.188	21.3252
15.272	21.5945
15.356	21.5935
15.44	21.2444
15.524	20.7988
15.608	20.501
15.692	20.367
15.776	20.2822
15.86	20.2306
15.944	20.2354
16.028	20.1915
16.112	20.1006
16.196	20.1354
16.28	20.2599
16.364	20.28
16.448	20.2109
16.532	20.1478
16.616	20.0785
16.7	20.0025
16.784	19.9432
16.868	19.8808
16.952	19.8012
17.036	19.7105
17.12	19.5945
17.204	19.4308
17.288	19.2039
17.372	18.944
17.456	18.7591
17.54	18.7409
17.624	18.8489
17.708	18.9648
17.792	19.0246
17.876	19.0441
17.96	19.0773
18.044	19.1499
18.128	19.1847
18.212	19.0666
18.296	18.8038
18.38	18.5493
18.464	18.426
18.548	18.4112
18.632	18.4252
18.716	18.4485
18.8	18.4946
18.884	18.5349
18.968	18.4907
19.052	18.2956
19.136	17.9686
19.22	17.6288
19.304	17.4341
19.388	17.4718
19.472	17.6936
19.556	17.9501
19.64	18.0958
19.724	18.0769
19.808	17.9337
19.892	17.7449
19.976	17.5703
20.06	17.4246
20.144	17.3044
20.228	17.2212
20.312	17.2055
20.396	17.2773
20.48	17.4067
20.564	17.5094
20.648	17.4987
20.732	17.3457
20.816	17.1142
20.9	16.9263
20.984	16.8832
21.068	16.991
21.152	17.1509
21.236	17.225
21.32	17.1433
21.404	16.9578
21.488	16.8021
21.572	16.7725
21.656	16.8423
21.74	16.8779
21.824	16.7351
21.908	16.3833
21.992	15.9427
22.076	15.6035
22.16	15.504
22.244	15.6151
22.328	15.7742
22.412	15.7952
22.496	15.5752
22.58	15.1415
22.664	14.5885
22.748	14.0173
22.832	13.507
22.916	13.119
23	12.9173
23.084	12.9715
23.168	13.3224
23.252	13.9462
23.336	14.759
23.42	15.6386
23.504	16.4626
23.588	17.1265
23.672	17.5455
23.756	17.6511
23.84	17.3977
23.924	16.7866
24.008	15.8479
24.092	14.6296
24.176	13.2367
24.26	11.7977
24.344	10.504
24.428	9.585714
24.512	9.281203
24.596	9.713095
24.68	10.8743
24.764	12.6255
24.848	14.6832
24.932	16.6601
25.016	18.1864
25.1	19.0058
25.184	19.0156
25.268	18.3114
25.352	17.1415
25.436	15.8956
25.52	15.0108
25.604	14.8719
25.688	15.7857
25.772	17.9147
25.856	21.2343
25.94	25.5241
26.024	30.3099
26.108	34.8913
26.192	38.4141
26.276	40.0135
26.36	38.9951
26.444	35.1666
26.528	28.9897
26.612	21.5408
26.696	14.2267
26.78	8.402318
26.864	4.989291
26.948	4.247177
27.028	5.628299