File: Bakgrunnsmateriale/MATLAB/FTIR/ftir_data/LPE453/Mapping_121/LPE453_e122_cm-1.asc
PE IR       SPECTRUM    SPECTRUM    ASCII       PEDS        1.60
  -1
LPE453~1.ASC
17/05/16
14:22:06.00
17/05/16
14:22:06.00
tln
$LPE453_e0122$<ebV0>[-23.3,12.1,10.0,0.0,27,1,0]
370
64

2002,4.07
MIRTGS : RIGHTBACK : INTERNAL 2
MIR : ON : INTERNAL 2
OPTKBR

0.200000
8
8.000000
FILLER
SINGLE
SPECTRUM
UNLOCKED 256

DOUBLE

COMBINED
1
0
0

1.000000
BACKG

1
0
TRUE
51149
0
LEFT NOT FITTED RIGHT NOT FITTED 0
NONE
NONE
15600
12
4.427000
51148
TRUE
1 0 8 72 0 0 0 0

15798

#HDR
-1
-1
#GR
CM-1
EGY
2.38419e-05
0.0
5000
-1.000000
4631
8
2.391576
0.011110
#DATA
5000	0.749111
4984	0.754094
4968	0.762820
4952	0.766229
4936	0.764298
4920	0.767207
4904	0.787210
4888	0.807261
4872	0.795912
4856	0.808191
4840	0.815391
4824	0.822734
4808	0.836610
4792	0.848555
4776	0.859546
4760	0.867128
4744	0.872445
4728	0.874352
4712	0.882005
4696	0.883746
4680	0.888037
4664	0.884914
4648	0.888991
4632	0.894737
4616	0.897717
4600	0.906014
4584	0.915622
4568	0.923824
4552	0.935125
4536	0.941944
4520	0.951886
4504	0.963139
4488	0.975298
4472	0.968217
4456	1.095533
4440	1.043343
4424	0.978589
4408	0.982546
4392	0.987410
4376	0.999283
4360	1.008057
4344	1.028490
4328	1.043844
4312	1.067256
4296	1.083898
4280	1.105403
4264	1.121735
4248	1.132297
4232	1.149129
4216	1.156353
4200	1.166963
4184	1.174592
4168	1.181268
4152	1.189851
4136	1.202034
4120	1.213955
4104	1.228427
4088	1.246714
4072	1.268982
4056	1.289057
4040	1.310229
4024	1.327371
4008	1.343226
3992	1.354765
3976	1.367259
3960	1.375031
3944	1.383996
3928	1.383948
3912	1.390337
3896	1.391792
3880	1.397204
3864	1.407027
3848	1.418614
3832	1.434063
3816	1.447200
3800	1.466202
3784	1.495194
3768	1.506471
3752	1.489162
3736	1.506590
3720	1.530170
3704	1.533794
3688	1.522302
3672	1.511788
3656	1.528620
3640	1.539421
3624	1.536369
3608	1.541113
3592	1.548337
3576	1.563048
3560	1.568245
3544	1.576805
3528	1.577687
3512	1.582837
3496	1.575970
3480	1.567697
3464	1.561999
3448	1.547765
3432	1.544928
3416	1.546859
3400	1.552295
3384	1.561713
3368	1.578307
3352	1.600790
3336	1.622056
3320	1.643896
3304	1.669740
3288	1.688408
3272	1.706075
3256	1.723146
3240	1.733255
3224	1.737904
3208	1.742315
3192	1.744723
3176	1.749110
3160	1.754403
3144	1.768803
3128	1.782536
3112	1.803636
3096	1.836085
3080	1.861190
3064	1.881670
3048	1.908564
3032	1.922798
3016	1.910066
3000	1.970195
2984	1.973700
2968	1.908826
2952	1.873660
2936	1.770758
2920	1.757001
2904	1.899242
2888	1.947021
2872	1.934218
2856	1.875615
2840	2.015590
2824	2.073192
2808	2.110815
2792	2.139639
2776	2.167344
2760	2.186155
2744	2.196407
2728	2.201533
2712	2.199411
2696	2.191066
2680	2.181839
2664	2.172470
2648	2.166628
2632	2.163982
2616	2.167773
2600	2.169561
2584	2.184200
2568	2.206730
2552	2.224898
2536	2.247548
2520	2.260065
2504	2.264881
2488	2.270817
2472	2.263665
2456	2.252006
2440	2.237844
2424	2.218675
2408	2.205944
2392	2.194523
2376	2.186131
2360	2.174067
2344	2.205038
2328	2.223181
2312	2.258825
2296	2.284431
2280	2.304196
2264	2.315449
2248	2.320504
2232	2.321290
2216	2.311682
2200	2.299261
2184	2.286791
2168	2.277946
2152	2.275085
2136	2.277731
2120	2.274203
2104	2.278923
2088	2.278137
2072	2.293515
2056	2.326011
2040	2.357387
2024	2.377939
2008	2.390456
1992	2.389812
1976	2.383017
1960	2.367043
1944	2.353906
1928	2.342343
1912	2.322816
1896	2.308487
1880	2.310228
1864	2.316808
1848	2.322697
1832	2.338385
1816	2.357292
1800	2.360320
1784	2.358055
1768	2.338695
1752	2.315044
1736	2.251315
1720	2.238821
1704	2.198362
1688	2.176570
1672	2.157354
1656	2.101707
1640	2.088546
1624	2.042269
1608	1.917934
1592	1.960229
1576	1.919150
1560	1.855254
1544	1.887583
1528	2.040553
1512	2.022051
1496	1.651644
1480	1.905679
1464	1.881003
1448	1.736664
1432	1.820898
1416	1.792359
1400	1.684212
1384	1.737856
1368	1.765871
1352	1.769185
1336	1.777172
1320	1.804709
1304	1.806640
1288	1.806855
1272	1.762938
1256	1.715421
1240	1.790189
1224	1.770067
1208	1.707983
1192	1.702642
1176	1.663184
1160	1.593661
1144	1.563119
1128	1.507115
1112	1.426315
1096	1.391816
1080	1.396512
1064	1.405739
1048	1.277852
1032	1.347684
1016	1.333856
1000	1.367712
984	 1.351904
968	 1.311683
952	 1.255607
936	 1.223087
920	 1.188659
904	 1.134777
888	 1.095414
872	 1.013851
856	 1.067185
840	 1.037049
824	 0.826740
808	 0.928235
792	 0.937533
776	 0.956606
760	 0.942158
744	 0.921797
728	 0.883221
712	 0.836706
696	 0.774359
680	 0.716614
664	 0.688409
648	 0.649404
632	 0.607466
616	 0.562024
600	 0.509023
584	 0.496530
568	 0.482559
552	 0.452971
536	 0.427412
520	 0.390720
504	 0.351381
488	 0.299549
472	 0.242209
456	 0.188517
440	 0.149202
424	 0.102496
408	 0.053930
392	 0.027012
376	 0.012016
370	 0.011110