File: Bakgrunnsmateriale/MATLAB/FTIR/ftir_data/LPE453/Mapping_121/LPE453_t52_cm-1.asc
PE IR       SPECTRUM    SPECTRUM    ASCII       PEDS        1.60
  -1
LPD950~1.ASC
17/05/16
18:38:33.00
17/05/16
18:38:33.00
tln
$LPE453_t0052$<tbV0>[-5.2,-2.6,8.0,0.0,27,1,0]
370
64

2002,4.07
MIRTGS : RIGHTBACK : INTERNAL 2
MIR : ON : INTERNAL 2
OPTKBR

0.200000
8
8.000000
FILLER
RATIO
SPECTRUM
UNLOCKED 256

DOUBLE
64
COMBINED
1
0
0

1.000000
RATIO

1
0
TRUE
51149
0
LEFT NOT FITTED RIGHT NOT FITTED 0
NONE
NONE
15600
12
4.427000
51148
TRUE
1 0 8 72 0 0 0 0

15798

#HDR
-1
-1
#GR
CM-1
%T
2.38419e-05
0.0
5000
-1.000000
4631
8
36.2821
-2.422165
#DATA
5000	0.098371
4984	0.136971
4968	-0.078773
4952	0.588274
4936	-0.091052
4920	0.233602
4904	0.248122
4888	0.441622
4872	0.212192
4856	0.531744
4840	0.227475
4824	0.329756
4808	0.213694
4792	-0.250458
4776	-0.151038
4760	0.250577
4744	-0.312924
4728	0.069880
4712	0.040960
4696	0.383591
4680	0.689840
4664	0.552678
4648	0.228881
4632	1.551103
4616	0.088500
4600	-0.756001
4584	0.569343
4568	-0.148344
4552	-0.654864
4536	0.614166
4520	-1.150512
4504	9.851813
4488	2.006673
4472	-1.937508
4456	-0.800061
4440	-0.491142
4424	-0.466084
4408	-0.145626
4392	0.439143
4376	-0.023651
4360	0.061154
4344	0.388002
4328	0.283074
4312	0.173616
4296	-0.353956
4280	0.088238
4264	0.116777
4248	-0.034499
4232	0.163578
4216	0.355768
4200	0.318551
4184	-0.376868
4168	0.007295
4152	0.072598
4136	0.240921
4120	0.173020
4104	-0.066995
4088	-0.146365
4072	-0.097322
4056	0.319314
4040	0.014305
4024	-0.109291
4008	-0.009346
3992	0.116658
3976	0.133037
3960	0.063753
3944	0.164246
3928	0.172805
3912	0.216460
3896	0.006055
3880	-0.053524
3864	-0.054478
3848	0.162935
3832	0.166749
3816	-0.134491
3800	0.000214
3784	0.098919
3768	0.084948
3752	0.032567
3736	-0.028085
3720	-0.026130
3704	-0.066828
3688	0.069046
3672	0.146579
3656	0.071263
3640	0.026392
3624	0.076937
3608	0.037670
3592	0.198936
3576	-0.054216
3560	0.267386
3544	0.034260
3528	0.112867
3512	0.144290
3496	0.025057
3480	0.084495
3464	0.049686
3448	-0.108647
3432	0.053334
3416	0.102639
3400	0.103425
3384	-0.012063
3368	0.114130
3352	0.037264
3336	0.002408
3320	0.072407
3304	-0.007057
3288	0.128674
3272	0.094151
3256	0.014591
3240	0.133347
3224	0.004720
3208	0.118279
3192	0.032401
3176	0.073051
3160	-0.062346
3144	0.009226
3128	0.109434
3112	0.077772
3096	-0.018644
3080	-0.066542
3064	0.016283
3048	-0.000929
3032	0.040221
3016	-0.027155
3000	0.034856
2984	0.092792
2968	0.182294
2952	0.122237
2936	0.090885
2920	-0.021028
2904	0.071501
2888	0.057578
2872	0.087404
2856	0.025534
2840	0.054216
2824	0.011110
2808	-0.018596
2792	-0.040006
2776	0.057268
2760	-0.094890
2744	0.010919
2728	0.196719
2712	0.050926
2696	0.042700
2680	0.046706
2664	0.139021
2648	0.067639
2632	0.029921
2616	0.088047
2600	-0.017189
2584	0.041270
2568	0.172376
2552	0.110483
2536	0.093436
2520	-0.072455
2504	0.091266
2488	-0.094699
2472	-0.061821
2456	0.017547
2440	0.117015
2424	0.074601
2408	0.155448
2392	0.038647
2376	0.129842
2360	0.101351
2344	0.044608
2328	0.114059
2312	0.214624
2296	0.250411
2280	0.425481
2264	0.688338
2248	0.960230
2232	1.446127
2216	2.069568
2200	2.943515
2184	3.902435
2168	5.212950
2152	6.646776
2136	8.370351
2120	10.1861
2104	12.0844
2088	14.0102
2072	15.9474
2056	17.8139
2040	19.5646
2024	21.2777
2008	22.811
1992	24.1754
1976	25.3664
1960	26.4523
1944	27.5155
1928	28.3492
1912	29.0463
1896	29.5402
1880	30.2179
1864	30.7074
1848	30.936
1832	31.3547
1816	31.6053
1800	31.9129
1784	32.2132
1768	32.2098
1752	32.3055
1736	32.4786
1720	32.8305
1704	32.6828
1688	32.8572
1672	32.7718
1656	32.6524
1640	32.8322
1624	32.8764
1608	32.6762
1592	32.9065
1576	32.7415
1560	32.5999
1544	32.9937
1528	32.7451
1512	32.507
1496	32.653
1480	32.616
1464	32.3999
1448	32.5506
1432	32.6277
1416	32.1869
1400	32.4421
1384	32.4917
1368	32.0632
1352	32.3128
1336	32.3704
1320	32.062
1304	32.0797
1288	32.2015
1272	31.8887
1256	31.8723
1240	32.0694
1224	31.6709
1208	31.6036
1192	31.7722
1176	31.5667
1160	31.1992
1144	31.6041
1128	31.4691
1112	30.7698
1096	31.2805
1080	31.0372
1064	30.679
1048	30.9813
1032	30.827
1016	30.2668
1000	30.3778
984	 30.5411
968	 29.7073
952	 29.851
936	 29.9904
920	 29.5579
904	 29.0522
888	 29.4273
872	 28.6556
856	 28.343
840	 28.8014
824	 28.1092
808	 27.5611
792	 27.9079
776	 27.3318
760	 26.5026
744	 26.8969
728	 26.7121
712	 25.9361
696	 25.901
680	 25.9369
664	 24.396
648	 24.668
632	 24.5913
616	 23.586
600	 23.5797
584	 23.5573
568	 22.5378
552	 21.6733
536	 21.4739
520	 20.7663
504	 20.7541
488	 21.1274
472	 20.3304
456	 17.8487
440	 17.6081
424	 18.866
408	 17.4287
392	 12.9679
376	 34.7547
370	 24.2181