File: Bakgrunnsmateriale/MATLAB/FTIR/ftir_data/LPE453/Mapping_121/LPE453_t53_cm-1.asc
PE IR       SPECTRUM    SPECTRUM    ASCII       PEDS        1.60
  -1
LPD9D0~1.ASC
17/05/16
18:43:10.00
17/05/16
18:43:10.00
tln
$LPE453_t0053$<tbV0>[-7.8,-2.6,8.0,0.0,27,1,0]
370
64

2002,4.07
MIRTGS : RIGHTBACK : INTERNAL 2
MIR : ON : INTERNAL 2
OPTKBR

0.200000
8
8.000000
FILLER
RATIO
SPECTRUM
UNLOCKED 256

DOUBLE
64
COMBINED
1
0
0

1.000000
RATIO

1
0
TRUE
51149
0
LEFT NOT FITTED RIGHT NOT FITTED 0
NONE
NONE
15600
12
4.427000
51148
TRUE
1 0 8 72 0 0 0 0

15798

#HDR
-1
-1
#GR
CM-1
%T
2.38419e-05
0.0
5000
-1.000000
4631
8
37.9348
-10.5479
#DATA
5000	-0.433468
4984	0.382399
4968	0.104498
4952	0.267863
4936	0.413942
4920	-0.104880
4904	0.662636
4888	-0.231337
4872	0.389289
4856	-0.085020
4840	-0.559926
4824	0.332808
4808	0.046300
4792	0.071668
4776	0.183010
4760	-0.155639
4744	0.333547
4728	-0.205564
4712	0.776314
4696	0.447678
4680	-0.503969
4664	1.432108
4648	1.724219
4632	0.701093
4616	-0.582027
4600	-0.122618
4584	-0.432348
4568	0.987935
4552	-0.190639
4536	-1.107978
4520	1.345586
4504	0.660300
4488	16.9047
4472	0.707030
4456	-0.042104
4440	-0.034403
4424	-0.635290
4408	-0.193834
4392	-0.291848
4376	0.001692
4360	0.123834
4344	-0.071835
4328	0.264883
4312	-0.071835
4296	0.195455
4280	0.330853
4264	-0.059604
4248	0.252127
4232	0.304293
4216	-0.323295
4200	-0.090813
4184	0.077223
4168	-0.163936
4152	0.018954
4136	-0.090312
4120	0.128316
4104	-0.001502
4088	0.019764
4072	0.114798
4056	-0.076460
4040	0.086450
4024	0.017070
4008	-0.062513
3992	0.009679
3976	-0.008988
3960	0.064969
3944	-0.028085
3928	0.115275
3912	-0.043463
3896	0.037002
3880	0.108933
3864	0.019240
3848	0.352025
3832	-0.037217
3816	-0.004506
3800	-0.032615
3784	0.037550
3768	0.144314
3752	-0.053215
3736	0.189375
3720	0.147128
3704	0.002002
3688	0.024795
3672	0.067520
3656	0.080800
3640	-0.029349
3624	0.021100
3608	0.079512
3592	0.126481
3576	-0.012660
3560	-0.058746
3544	0.034785
3528	0.076866
3512	0.062561
3496	-0.064826
3480	0.062632
3464	0.156641
3448	0.005602
3432	0.047969
3416	0.065350
3400	0.128793
3384	0.109672
3368	-0.097203
3352	-0.024104
3336	-0.003957
3320	0.219988
3304	-0.034213
3288	0.093650
3272	0.045251
3256	-0.026893
3240	0.191831
3224	-0.039219
3208	-0.017189
3192	0.046443
3176	-0.183701
3160	0.216865
3144	-0.054240
3128	0.183510
3112	0.094413
3096	-0.201845
3080	-0.018429
3064	-0.007891
3048	0.045824
3032	-0.030136
3016	0.083804
3000	0.057697
2984	0.059509
2968	0.044631
2952	0.187635
2936	-0.049781
2920	-0.021672
2904	0.087141
2888	-0.000071
2872	0.097775
2856	0.150752
2840	0.101447
2824	0.044035
2808	0.065302
2792	0.032639
2776	0.055742
2760	-0.009083
2744	0.015425
2728	-0.031352
2712	-0.006294
2696	0.047302
2680	0.111317
2664	0.005316
2648	0.000715
2632	-0.006484
2616	0.141739
2600	0.092506
2584	0.070261
2568	0.158715
2552	-0.000858
2536	-0.063204
2520	-0.025343
2504	0.141596
2488	0.171470
2472	0.003194
2456	0.061035
2440	-0.028085
2424	0.004386
2408	0.083160
2392	-0.017809
2376	0.028705
2360	0.000000
2344	0.158214
2328	0.100493
2312	0.153708
2296	0.330209
2280	0.441241
2264	0.757718
2248	1.102709
2232	1.635813
2216	2.286195
2200	3.287553
2184	4.356026
2168	5.643725
2152	7.233452
2136	8.940196
2120	10.8304
2104	12.7031
2088	14.9061
2072	16.7143
2056	18.5991
2040	20.4857
2024	22.1392
2008	23.6518
1992	25.0665
1976	26.2034
1960	27.3383
1944	28.3815
1928	29.0962
1912	29.841
1896	30.6692
1880	31.0324
1864	31.286
1848	31.9796
1832	32.2013
1816	32.2997
1800	32.7953
1784	32.9581
1768	32.9072
1752	33.2447
1736	33.2243
1720	33.1985
1704	33.4189
1688	33.546
1672	33.2773
1656	33.5163
1640	33.684
1624	33.308
1608	33.4393
1592	33.6461
1576	33.2962
1560	33.3584
1544	33.6594
1528	33.4479
1512	33.1464
1496	33.5162
1480	33.312
1464	32.9757
1448	33.3179
1432	33.4068
1416	32.8764
1400	33.0144
1384	33.2033
1368	32.7098
1352	32.8704
1336	33.1414
1320	32.7739
1304	32.5289
1288	33.0747
1272	32.7334
1256	32.3841
1240	32.622
1224	32.6393
1208	32.0391
1192	32.426
1176	32.6934
1160	31.9423
1144	31.9318
1128	32.4541
1112	31.8007
1096	31.5779
1080	32.2376
1064	31.6707
1048	31.1141
1032	31.5711
1016	31.4259
1000	30.8742
984	 30.735
968	 31.1367
952	 30.4956
936	 30.1804
920	 30.7206
904	 30.0114
888	 29.4845
872	 29.9793
856	 29.8542
840	 28.6442
824	 29.1245
808	 28.9646
792	 28.0074
776	 28.203
760	 28.3166
744	 27.4353
728	 27.0413
712	 27.4487
696	 27.3102
680	 25.8332
664	 26.3927
648	 26.1788
632	 25.2305
616	 25.0223
600	 25.2201
584	 24.2489
568	 23.4935
552	 23.7974
536	 22.5321
520	 22.3191
504	 22.4461
488	 21.4761
472	 20.6228
456	 18.7891
440	 21.3663
424	 20.5366
408	 16.0692
392	 13.2276
376	 20.1952
370	 37.9348