File: Bakgrunnsmateriale/MATLAB/FTIR/ftir_data/LPE453/Mapping_121/LPE453_t63_cm-1.asc
PE IR       SPECTRUM    SPECTRUM    ASCII       PEDS        1.60
  -1
LP5AD0~1.ASC
17/05/16
19:29:54.00
17/05/16
19:29:54.00
tln
$LPE453_t0063$<tbV0>[-5.2,0.0,8.0,0.0,27,1,0]
370
64

2002,4.07
MIRTGS : RIGHTBACK : INTERNAL 2
MIR : ON : INTERNAL 2
OPTKBR

0.200000
8
8.000000
FILLER
RATIO
SPECTRUM
UNLOCKED 256

DOUBLE
64
COMBINED
1
0
0

1.000000
RATIO

1
0
TRUE
51149
0
LEFT NOT FITTED RIGHT NOT FITTED 0
NONE
NONE
15600
12
4.427000
51148
TRUE
1 0 8 72 0 0 0 0

15798

#HDR
-1
-1
#GR
CM-1
%T
2.38419e-05
0.0
5000
-1.000000
4631
8
49.0439
-1.534128
#DATA
5000	-0.086164
4984	-0.057578
4968	0.042510
4952	0.114035
4936	-0.079083
4920	0.273060
4904	0.211524
4888	0.547671
4872	-0.219345
4856	0.002217
4840	0.392818
4824	0.182557
4808	0.070548
4792	0.509381
4776	-0.079774
4760	0.059628
4744	0.728988
4728	-1.081013
4712	2.271080
4696	-0.685071
4680	-1.233935
4664	0.519061
4648	0.130248
4632	0.700688
4616	0.508069
4600	0.134181
4584	-0.808310
4568	-0.426959
4552	-0.282073
4536	-0.722169
4520	-0.219917
4504	-0.002670
4488	5.033087
4472	1.535654
4456	-0.244283
4440	-1.277995
4424	-0.084018
4408	-0.746703
4392	-0.259280
4376	-0.300073
4360	-0.230956
4344	-0.113272
4328	0.513339
4312	0.103402
4296	0.492238
4280	0.165104
4264	0.175952
4248	-0.035429
4232	0.367784
4216	0.030612
4200	-0.048851
4184	-0.063180
4168	0.072073
4152	0.026774
4136	0.106453
4120	0.261592
4104	0.270962
4088	0.156927
4072	0.015258
4056	-0.110960
4040	0.163197
4024	-0.032567
4008	-0.012922
3992	0.013875
3976	0.293874
3960	-0.037550
3944	0.041842
3928	-0.199174
3912	-0.102448
3896	0.100922
3880	-0.052309
3864	-0.016045
3848	-0.006723
3832	0.051689
3816	0.144314
3800	-0.033473
3784	0.087404
3768	-0.010323
3752	0.198221
3736	0.060415
3720	-0.023484
3704	0.201106
3688	0.080013
3672	-0.080871
3656	0.025606
3640	0.129532
3624	-0.075531
3608	0.019288
3592	0.108051
3576	-0.014209
3560	0.152897
3544	0.083971
3528	0.081419
3512	-0.078153
3496	-0.062608
3480	0.188851
3464	0.327086
3448	0.096678
3432	0.125050
3416	0.076389
3400	-0.093412
3384	-0.005984
3368	-0.031042
3352	0.156521
3336	0.010442
3320	0.127339
3304	0.040245
3288	0.063419
3272	-0.127863
3256	0.048708
3240	0.065112
3224	0.284552
3208	0.081586
3192	0.077915
3176	-0.072264
3160	-0.092244
3144	0.009799
3128	0.188398
3112	-0.028944
3096	0.071811
3080	0.048232
3064	0.046753
3048	0.126290
3032	0.040054
3016	0.064206
3000	-0.000476
2984	-0.020098
2968	-0.030469
2952	0.008916
2936	0.012254
2920	0.108814
2904	0.137066
2888	-0.055503
2872	-0.019979
2856	-0.023698
2840	0.119662
2824	0.134038
2808	-0.064301
2792	-0.007700
2776	-0.051259
2760	0.023579
2744	0.132393
2728	0.120234
2712	-0.048708
2696	-0.096273
2680	-0.033903
2664	0.171732
2648	0.095248
2632	0.046730
2616	-0.024127
2600	0.072193
2584	0.017237
2568	0.090408
2552	-0.005602
2536	-0.005435
2520	0.146460
2504	0.093126
2488	0.020694
2472	-0.095462
2456	0.001692
2440	0.065302
2424	0.061440
2408	-0.121450
2392	0.024342
2376	0.142979
2360	-0.071692
2344	0.034141
2328	0.114607
2312	0.130581
2296	0.299882
2280	0.580716
2264	0.742459
2248	1.206445
2232	1.774215
2216	2.392911
2200	3.288793
2184	4.433107
2168	5.772876
2152	7.196760
2136	9.108424
2120	11.0134
2104	12.9616
2088	14.8145
2072	16.8681
2056	18.5947
2040	20.4064
2024	22.2165
2008	23.6962
1992	24.9241
1976	26.1106
1960	27.35
1944	28.1142
1928	28.9492
1912	29.7678
1896	30.2773
1880	30.8275
1864	31.3956
1848	31.6207
1832	32.0359
1816	32.2993
1800	32.4145
1784	32.6578
1768	32.9625
1752	32.7947
1736	32.9802
1720	33.3148
1704	33.1048
1688	33.1515
1672	33.4291
1656	33.1289
1640	33.1567
1624	33.5458
1608	33.2357
1592	33.0983
1576	33.2905
1560	33.3688
1544	33.1256
1528	33.3334
1512	33.2609
1496	33.0727
1480	33.1478
1464	33.1861
1448	32.542
1432	33.141
1416	33.2676
1400	32.6565
1384	32.7008
1368	33.0432
1352	32.5169
1336	32.5282
1320	32.7217
1304	32.3572
1288	32.1488
1272	32.5903
1256	32.2227
1240	31.8993
1224	32.4035
1208	32.1935
1192	31.6188
1176	32.0611
1160	32.2907
1144	31.4736
1128	31.7322
1112	32.0699
1096	31.1392
1080	31.3633
1064	31.6755
1048	31.0492
1032	30.7991
1016	31.1101
1000	31.0884
984	 30.0783
968	 30.5321
952	 30.4347
936	 29.8838
920	 29.8546
904	 29.6866
888	 29.2829
872	 28.8697
856	 29.5175
840	 28.8254
824	 27.9167
808	 28.4741
792	 28.1579
776	 27.4785
760	 27.5369
744	 27.7297
728	 26.6015
712	 26.5667
696	 26.4037
680	 25.5
664	 25.7376
648	 25.565
632	 24.66
616	 24.011
600	 24.6308
584	 23.7643
568	 22.6089
552	 22.2602
536	 22.1054
520	 21.5647
504	 20.8583
488	 21.5578
472	 20.2019
456	 19.4054
440	 19.3466
424	 17.5587
408	 25.7978
392	 4.668831
376	 46.8762
370	 38.3532