File: Bakgrunnsmateriale/MATLAB/FTIR/ftir_data/LPE453/Mapping_121/LPE453_t113.asc
PE IR       SPECTRUM    SPECTRUM    ASCII       PEDS        1.60
  -1
LP9F78~1.ASC
17/05/16
23:41:05.00
17/05/16
23:41:31.00
tln
$LPE453_t0113$<tbV0>[7.8,13.0,8.0,0.0,27,1,0]
27.028
64

2002,4.07
MIRTGS : RIGHTBACK : INTERNAL 2
MIR : ON : INTERNAL 2
OPTKBR

0.200000
8
8.000000
FILLER
RATIO
SPECTRUM
UNLOCKED 256

DOUBLE
64
COMBINED
1
0
0

0.002000
RATIO

1
0
TRUE
51149
0
LEFT NOT FITTED RIGHT NOT FITTED 0
NONE
NONE
15600
12
4.427000
51148
TRUE
1 0 8 72 0 0 0 0

15798

#HDR
-1
-1
#GR
µM
%T
2.38419e-05
0.0
2.000000
0.002000
12515
8
52.3434
-2.292995
#DATA
2.000000	 0.052547
2.084000	 0.237013
2.168000	 0.806502
2.252000	 -0.182391
2.336000	 0.235242
2.420000	 0.043745
2.504000	 0.056882
2.588000	 -0.111554
2.672000	 0.132352
2.756000	 0.123396
2.840000	 0.174742
2.924000	 -0.017525
3.008000	 0.111914
3.092000	 0.009625
3.176000	 -0.011929
3.260000	 0.105103
3.344000	 0.071423
3.428000	 -0.014744
3.512000	 -0.075945
3.596000	 0.019290
3.680000	 -0.097038
3.764000	 -0.038659
3.848000	 0.015924
3.932000	 -0.015888
4.016000	 -0.017016
4.100000	 0.084612
4.184000	 0.096181
4.268000	 0.366777
4.352000	 0.764677
4.436000	 1.997984
4.520000	 4.212340
4.604000	 7.538118
4.688000	 11.3791
4.772000	 15.5149
4.856000	 19.1134
4.940000	 22.1359
5.024000	 24.5701
5.108000	 26.2643
5.192000	 27.8193
5.276000	 28.794
5.359999	 29.7169
5.444000	 30.1881
5.528000	 30.7545
5.612000	 31.0229
5.696000	 31.3453
5.780000	 31.7123
5.864000	 31.9039
5.948000	 31.9948
6.032000	 32.1173
6.116000	 32.3396
6.200000	 32.5474
6.284000	 32.6507
6.368000	 32.6138
6.452000	 32.7702
6.536000	 33.0327
6.620000	 32.9119
6.704000	 32.7637
6.788000	 32.9459
6.872000	 32.9715
6.956000	 32.9958
7.040000	 33.2462
7.124000	 33.3056
7.208000	 33.1559
7.292000	 33.2748
7.376000	 33.2784
7.460000	 33.3637
7.544000	 33.3593
7.628000	 33.104
7.712000	 33.3337
7.796000	 33.364
7.880000	 33.2408
7.964000	 33.3101
8.048000	 33.2553
8.132000	 33.503
8.216000	 33.3251
8.300000	 33.3163
8.384000	 33.1181
8.468000	 33.1839
8.552000	 33.3042
8.635999	 33.324
8.719999	 33.413
8.804000	 33.392
8.888000	 33.4376
8.972000	 33.3372
9.056000	 33.4071
9.140000	 33.2648
9.224000	 33.4985
9.308000	 32.9689
9.391999	 33.0243
9.475999	 33.247
9.560000	 33.167
9.644000	 33.1333
9.728000	 33.1017
9.812000	 33.3172
9.896000	 33.1557
9.980000	 32.9371
10.064	32.8605
10.148	32.8532
10.232	32.9037
10.316	32.9949
10.4	32.9733
10.484	32.9205
10.568	32.9331
10.652	32.8809
10.736	32.8679
10.82	32.5849
10.904	32.3816
10.988	32.4615
11.072	32.5233
11.156	32.5859
11.24	32.5727
11.324	32.4701
11.408	32.4829
11.492	32.1989
11.576	32.0744
11.66	32.2436
11.744	32.3519
11.828	32.3501
11.912	32.1842
11.996	32.1598
12.08	32.0429
12.164	31.9658
12.248	32.0096
12.332	31.9408
12.416	31.7179
12.5	31.6535
12.584	31.6417
12.668	31.5712
12.752	31.7057
12.836	31.6809
12.92	31.3317
13.004	31.3327
13.088	31.4421
13.172	31.3404
13.256	31.3376
13.34	31.3027
13.424	31.2315
13.508	31.1234
13.592	31.0684
13.676	30.9023
13.76	30.6875
13.844	30.6958
13.928	30.7616
14.012	30.6034
14.096	30.4275
14.18	30.4818
14.264	30.5605
14.348	30.5666
14.432	30.5674
14.516	30.5901
14.6	30.5827
14.684	30.5005
14.768	30.3967
14.852	30.3252
14.936	30.2843
15.02	30.2453
15.104	30.2127
15.188	30.2008
15.272	30.1313
15.356	29.947
15.44	29.7538
15.524	29.637
15.608	29.5639
15.692	29.5111
15.776	29.4813
15.86	29.5095
15.944	29.6144
16.028	29.742
16.112	29.8772
16.196	30.0386
16.28	30.1221
16.364	29.9913
16.448	29.6814
16.532	29.3409
16.616	29.0805
16.7	28.9243
16.784	28.8093
16.868	28.6832
16.952	28.6088
17.036	28.6387
17.12	28.6532
17.204	28.5018
17.288	28.2385
17.372	28.0627
17.456	28.0905
17.54	28.2595
17.624	28.4137
17.708	28.4382
17.792	28.3478
17.876	28.2711
17.96	28.3013
18.044	28.4049
18.128	28.5086
18.212	28.6082
18.296	28.7138
18.38	28.7607
18.464	28.6754
18.548	28.4949
18.632	28.3319
18.716	28.2454
18.8	28.2019
18.884	28.1418
18.968	28.0364
19.052	27.8861
19.136	27.7087
19.22	27.5321
19.304	27.3809
19.388	27.2675
19.472	27.212
19.556	27.2468
19.64	27.3842
19.724	27.5774
19.808	27.7439
19.892	27.8293
19.976	27.8481
20.06	27.8503
20.144	27.8571
20.228	27.8362
20.312	27.7309
20.396	27.5057
20.48	27.1724
20.564	26.7929
20.648	26.4644
20.732	26.2867
20.816	26.3123
20.9	26.5087
20.984	26.7715
21.068	26.9782
21.152	27.0612
21.236	27.0263
21.32	26.9194
21.404	26.779
21.488	26.6156
21.572	26.4324
21.656	26.2435
21.74	26.0789
21.824	25.9799
21.908	25.9776
21.992	26.0677
22.076	26.2015
22.16	26.2903
22.244	26.2429
22.328	26.0215
22.412	25.6633
22.496	25.2771
22.58	24.983
22.664	24.8623
22.748	24.9287
22.832	25.143
22.916	25.4408
23	25.7376
23.084	25.9544
23.168	26.0025
23.252	25.8157
23.336	25.3926
23.42	24.8128
23.504	24.2244
23.588	23.8094
23.672	23.7072
23.756	23.9454
23.84	24.4551
23.924	25.0764
24.008	25.6332
24.092	26.0014
24.176	26.1337
24.26	26.0751
24.344	25.95
24.428	25.9204
24.512	26.1637
24.596	26.8482
24.68	28.0569
24.764	29.7025
24.848	31.5875
24.932	33.3779
25.016	34.6862
25.1	35.1802
25.184	34.6514
25.268	33.1066
25.352	30.7456
25.436	27.9231
25.52	25.0298
25.604	22.3717
25.688	20.2158
25.772	18.7075
25.856	17.8415
25.94	17.47
26.024	17.3995
26.108	17.5179
26.192	17.9853
26.276	19.2363
26.36	21.8447
26.444	26.1564
26.528	32.006
26.612	38.6697
26.696	45.0084
26.78	49.7981
26.864	52.1576
26.948	51.8088
27.028	49.3341