File: Bakgrunnsmateriale/MATLAB/FTIR/ftir_data/LPE453/Mapping_121/LPE453_e124_cm-1.asc
PE IR       SPECTRUM    SPECTRUM    ASCII       PEDS        1.60
  -1
LP07BB~1.ASC
17/05/16
18:00:33.00
17/05/16
18:00:33.00
tln
$LPE453_e0124$<ebV0>[-23.3,12.1,10.0,0.0,27,1,0]
370
64

2002,4.07
MIRTGS : RIGHTBACK : INTERNAL 2
MIR : ON : INTERNAL 2
OPTKBR

0.200000
8
8.000000
FILLER
SINGLE
SPECTRUM
UNLOCKED 256

DOUBLE

COMBINED
1
0
0

1.000000
BACKG

1
0
TRUE
51149
0
LEFT NOT FITTED RIGHT NOT FITTED 0
NONE
NONE
15600
12
4.427000
51148
TRUE
1 0 8 72 0 0 0 0

15798

#HDR
-1
-1
#GR
CM-1
EGY
2.38419e-05
0.0
5000
-1.000000
4631
8
2.420949
0.008201
#DATA
5000	0.763392
4984	0.773787
4968	0.781106
4952	0.788950
4936	0.792741
4920	0.802040
4904	0.807833
4888	0.813317
4872	0.819444
4856	0.828003
4840	0.838565
4824	0.848007
4808	0.858116
4792	0.865149
4776	0.876975
4760	0.884199
4744	0.888323
4728	0.898814
4712	0.900483
4696	0.901818
4680	0.900268
4664	0.906324
4648	0.908350
4632	0.913906
4616	0.925445
4600	0.930809
4584	0.936222
4568	0.950336
4552	0.963306
4536	0.960969
4520	0.937438
4504	0.966119
4488	1.001954
4472	0.999069
4456	1.004767
4440	1.009082
4424	1.007485
4408	1.015186
4392	1.021528
4376	1.028251
4360	1.040077
4344	1.058506
4328	1.076006
4312	1.093339
4296	1.111602
4280	1.133704
4264	1.145911
4248	1.159954
4232	1.170921
4216	1.180195
4200	1.186156
4184	1.196527
4168	1.204991
4152	1.214623
4136	1.223587
4120	1.237535
4104	1.250410
4088	1.271152
4072	1.293444
4056	1.311087
4040	1.333689
4024	1.352524
4008	1.372742
3992	1.385760
3976	1.396751
3960	1.405501
3944	1.410794
3928	1.417303
3912	1.421880
3896	1.424217
3880	1.434803
3864	1.442909
3848	1.454377
3832	1.469373
3816	1.483821
3800	1.499986
3784	1.527357
3768	1.536631
3752	1.531386
3736	1.548147
3720	1.564836
3704	1.565003
3688	1.557588
3672	1.555109
3656	1.562690
3640	1.569271
3624	1.568269
3608	1.576066
3592	1.582908
3576	1.593661
3560	1.600933
3544	1.608228
3528	1.608729
3512	1.610493
3496	1.604413
3480	1.598429
3464	1.589274
3448	1.579141
3432	1.570868
3416	1.572418
3400	1.583123
3384	1.592803
3368	1.604270
3352	1.627588
3336	1.651144
3320	1.674342
3304	1.693820
3288	1.713681
3272	1.733899
3256	1.746797
3240	1.758193
3224	1.767635
3208	1.769375
3192	1.773977
3176	1.776456
3160	1.783585
3144	1.796269
3128	1.811552
3112	1.835107
3096	1.862239
3080	1.894593
3064	1.910805
3048	1.938748
3032	1.954150
3016	1.939892
3000	2.001214
2984	2.002930
2968	1.935935
2952	1.898503
2936	1.796817
2920	1.784825
2904	1.927375
2888	1.975798
2872	1.961874
2856	1.903295
2840	2.043867
2824	2.103328
2808	2.141380
2792	2.169084
2776	2.200961
2760	2.215838
2744	2.229118
2728	2.232336
2712	2.231431
2696	2.221322
2680	2.213907
2664	2.206468
2648	2.199435
2632	2.197933
2616	2.200627
2600	2.201366
2584	2.213883
2568	2.237963
2552	2.259063
2536	2.277493
2520	2.291464
2504	2.298402
2488	2.296352
2472	2.291941
2456	2.280569
2440	2.263569
2424	2.251172
2408	2.236461
2392	2.227663
2376	2.217936
2360	2.209925
2344	2.237200
2328	2.256584
2312	2.289199
2296	2.314567
2280	2.332544
2264	2.344918
2248	2.346801
2232	2.347207
2216	2.338743
2200	2.327847
2184	2.314019
2168	2.306938
2152	2.300763
2136	2.302336
2120	2.300620
2104	2.305817
2088	2.304768
2072	2.324509
2056	2.353310
2040	2.385306
2024	2.401757
2008	2.414250
1992	2.417778
1976	2.410960
1960	2.393960
1944	2.379775
1928	2.367067
1912	2.348256
1896	2.332496
1880	2.336621
1864	2.344179
1848	2.353644
1832	2.366328
1816	2.385139
1800	2.389454
1784	2.390813
1768	2.371883
1752	2.348828
1736	2.291393
1720	2.271771
1704	2.237248
1688	2.213406
1672	2.192664
1656	2.144122
1640	2.121138
1624	2.069950
1608	1.941418
1592	1.980900
1576	1.949858
1560	1.895928
1544	1.921534
1528	2.072429
1512	2.055597
1496	1.673793
1480	1.928877
1464	1.904940
1448	1.757812
1432	1.840257
1416	1.812934
1400	1.704525
1384	1.759839
1368	1.788663
1352	1.786899
1336	1.797652
1320	1.823258
1304	1.824426
1288	1.826548
1272	1.776099
1256	1.727151
1240	1.807665
1224	1.788568
1208	1.723647
1192	1.715135
1176	1.674103
1160	1.606774
1144	1.573610
1128	1.517701
1112	1.437020
1096	1.404380
1080	1.404500
1064	1.416707
1048	1.287508
1032	1.356911
1016	1.344895
1000	1.377177
984	 1.360535
968	 1.324129
952	 1.266217
936	 1.232409
920	 1.196932
904	 1.145982
888	 1.103806
872	 1.021552
856	 1.076507
840	 1.045393
824	 0.835299
808	 0.935435
792	 0.945925
776	 0.965785
760	 0.950384
744	 0.928854
728	 0.888156
712	 0.841712
696	 0.777673
680	 0.722503
664	 0.696301
648	 0.653886
632	 0.614023
616	 0.566196
600	 0.515079
584	 0.498843
568	 0.486207
552	 0.458717
536	 0.429797
520	 0.393843
504	 0.353360
488	 0.300741
472	 0.247645
456	 0.193476
440	 0.147581
424	 0.097537
408	 0.054359
392	 0.026798
376	 0.011229
370	 0.008201