File: Bakgrunnsmateriale/MATLAB/FTIR/ftir_data/LPE453/Mapping_121/LPE453_t28.asc
PE IR       SPECTRUM    SPECTRUM    ASCII       PEDS        1.60
  -1
LPEB99~1.ASC
17/05/16
16:40:19.00
17/05/16
16:40:45.00
tln
$LPE453_t0028$<tbV0>[0.0,-7.8,8.0,0.0,27,1,0]
27.028
64

2002,4.07
MIRTGS : RIGHTBACK : INTERNAL 2
MIR : ON : INTERNAL 2
OPTKBR

0.200000
8
8.000000
FILLER
RATIO
SPECTRUM
UNLOCKED 256

DOUBLE
64
COMBINED
1
0
0

0.002000
RATIO

1
0
TRUE
51149
0
LEFT NOT FITTED RIGHT NOT FITTED 0
NONE
NONE
15600
12
4.427000
51148
TRUE
1 0 8 72 0 0 0 0

15798

#HDR
-1
-1
#GR
µM
%T
2.38419e-05
0.0
2.000000
0.002000
12515
8
54.7985
-13.2571
#DATA
2.000000	 -0.045609
2.084000	 0.237260
2.168000	 -0.061695
2.252000	 -0.368159
2.336000	 0.062194
2.420000	 -0.098008
2.504000	 0.114154
2.588000	 0.043958
2.672000	 -0.131756
2.756000	 -0.002051
2.840000	 0.020220
2.924000	 0.086945
3.008000	 0.053203
3.092000	 0.169576
3.176000	 0.004075
3.260000	 -0.016747
3.344000	 -0.093338
3.428000	 0.050809
3.512000	 -0.076416
3.596000	 0.067430
3.680000	 -0.075289
3.764000	 0.052615
3.848000	 -0.039001
3.932000	 -0.072325
4.016000	 0.110891
4.100000	 0.072710
4.184000	 -0.018238
4.268000	 0.093823
4.352000	 0.216750
4.436000	 0.628326
4.520000	 2.015298
4.604000	 4.248486
4.688000	 7.747767
4.772000	 11.8354
4.856000	 16.1375
4.940000	 19.7072
5.024000	 22.6181
5.108000	 24.8749
5.192000	 26.4183
5.276000	 27.8371
5.359999	 28.7338
5.444000	 29.3409
5.528000	 29.9172
5.612000	 30.2633
5.696000	 30.6256
5.780000	 30.7697
5.864000	 30.8416
5.948000	 30.9223
6.032000	 31.1411
6.116000	 31.068
6.200000	 31.0694
6.284000	 30.9776
6.368000	 30.9928
6.452000	 31.095
6.536000	 30.9476
6.620000	 31.124
6.704000	 31.0034
6.788000	 30.9355
6.872000	 31.1274
6.956000	 30.7872
7.040000	 30.9098
7.124000	 30.7981
7.208000	 30.8219
7.292000	 30.7756
7.376000	 30.7483
7.460000	 30.6502
7.544000	 30.6461
7.628000	 30.7184
7.712000	 30.6504
7.796000	 30.4776
7.880000	 30.4597
7.964000	 30.3862
8.048000	 30.4152
8.132000	 30.367
8.216000	 30.2239
8.300000	 30.3189
8.384000	 30.1085
8.468000	 30.1577
8.552000	 30.2329
8.635999	 29.9525
8.719999	 30.0331
8.804000	 30.0644
8.888000	 29.9851
8.972000	 29.8923
9.056000	 29.8686
9.140000	 30.0051
9.224000	 29.8491
9.308000	 29.7557
9.391999	 29.442
9.475999	 29.6036
9.560000	 29.5246
9.644000	 29.3673
9.728000	 29.3076
9.812000	 29.23
9.896000	 29.0294
9.980000	 29.1819
10.064	28.9512
10.148	29.092
10.232	29.0983
10.316	28.9114
10.4	28.6539
10.484	28.5655
10.568	28.4948
10.652	28.3938
10.736	28.4258
10.82	28.4394
10.904	28.3487
10.988	28.2596
11.072	28.0664
11.156	28.0392
11.24	28.0202
11.324	27.9006
11.408	27.8853
11.492	27.7799
11.576	27.464
11.66	27.4411
11.744	27.3492
11.828	27.1568
11.912	27.2055
11.996	27.3229
12.08	27.3373
12.164	27.3
12.248	27.1662
12.332	26.7385
12.416	26.5839
12.5	26.6115
12.584	26.599
12.668	26.5082
12.752	26.3664
12.836	26.4938
12.92	26.4836
13.004	26.2847
13.088	26.1954
13.172	26.0184
13.256	26.1853
13.34	26.4675
13.424	26.2472
13.508	25.8093
13.592	25.4711
13.676	25.42
13.76	25.6392
13.844	25.7396
13.928	25.4816
14.012	25.1503
14.096	24.9434
14.18	24.8366
14.264	24.731
14.348	24.6567
14.432	24.6864
14.516	24.7653
14.6	24.8968
14.684	24.9294
14.768	24.7494
14.852	24.5661
14.936	24.411
15.02	24.2575
15.104	24.2353
15.188	24.1927
15.272	24.0078
15.356	23.8642
15.44	23.7542
15.524	23.5371
15.608	23.3231
15.692	23.3532
15.776	23.6484
15.86	23.9978
15.944	24.1577
16.028	24.0381
16.112	23.728
16.196	23.3205
16.28	22.9044
16.364	22.6854
16.448	22.7735
16.532	22.9825
16.616	23.052
16.7	22.9167
16.784	22.7112
16.868	22.5918
16.952	22.5046
17.036	22.292
17.12	21.9949
17.204	21.7989
17.288	21.801
17.372	21.974
17.456	22.2226
17.54	22.4051
17.624	22.4231
17.708	22.2875
17.792	22.0613
17.876	21.8014
17.96	21.5359
18.044	21.2667
18.128	21.0168
18.212	20.8456
18.296	20.77
18.38	20.7172
18.464	20.6302
18.548	20.5729
18.632	20.6475
18.716	20.861
18.8	21.1278
18.884	21.3526
18.968	21.4736
19.052	21.4463
19.136	21.2368
19.22	20.8522
19.304	20.3798
19.388	19.9811
19.472	19.82
19.556	19.9465
19.64	20.2481
19.724	20.5412
19.808	20.7108
19.892	20.7535
19.976	20.7049
20.06	20.5638
20.144	20.2995
20.228	19.914
20.312	19.4745
20.396	19.0805
20.48	18.8189
20.564	18.7416
20.648	18.8538
20.732	19.1034
20.816	19.3873
20.9	19.5891
20.984	19.6476
21.068	19.5968
21.152	19.5439
21.236	19.5829
21.32	19.7122
21.404	19.8287
21.488	19.8135
21.572	19.6267
21.656	19.3329
21.74	19.0481
21.824	18.8482
21.908	18.7224
21.992	18.6133
22.076	18.4797
22.16	18.3358
22.244	18.235
22.328	18.2094
22.412	18.2535
22.496	18.3169
22.58	18.3269
22.664	18.2202
22.748	17.9659
22.832	17.5803
22.916	17.1444
23	16.7804
23.084	16.6065
23.168	16.701
23.252	17.0464
23.336	17.5196
23.42	17.9827
23.504	18.2693
23.588	18.2648
23.672	17.9432
23.756	17.3442
23.84	16.5578
23.924	15.7524
24.008	15.1237
24.092	14.8502
24.176	15.0922
24.26	15.8838
24.344	17.1144
24.428	18.5727
24.512	19.9804
24.596	21.1038
24.68	21.6621
24.764	21.2801
24.848	19.6317
24.932	16.4536
25.016	11.7298
25.1	5.812869
25.184	-0.584410
25.268	-6.517729
25.352	-11.0101
25.436	-13.1603
25.52	-12.4598
25.604	-8.920901
25.688	-2.993352
25.772	4.472338
25.856	12.4061
25.94	19.5657
26.024	24.7887
26.108	27.3812
26.192	27.4835
26.276	26.0248
26.36	24.5383
26.444	24.4069
26.528	26.3531
26.612	30.0667
26.696	34.7632
26.78	39.7349
26.864	44.6979
26.948	49.7609
27.028	54.7985