File: Bakgrunnsmateriale/MATLAB/FTIR/ftir_data/LPE453/Mapping_121/LPE453_t78.asc
PE IR       SPECTRUM    SPECTRUM    ASCII       PEDS        1.60
  -1
LPEFA9~1.ASC
17/05/16
20:46:24.00
17/05/16
20:46:50.00
tln
$LPE453_t0078$<tbV0>[13.0,5.2,8.0,0.0,27,1,0]
27.028
64

2002,4.07
MIRTGS : RIGHTBACK : INTERNAL 2
MIR : ON : INTERNAL 2
OPTKBR

0.200000
8
8.000000
FILLER
RATIO
SPECTRUM
UNLOCKED 256

DOUBLE
64
COMBINED
1
0
0

0.002000
RATIO

1
0
TRUE
51149
0
LEFT NOT FITTED RIGHT NOT FITTED 0
NONE
NONE
15600
12
4.427000
51148
TRUE
1 0 8 72 0 0 0 0

15798

#HDR
-1
-1
#GR
µM
%T
2.38419e-05
0.0
2.000000
0.002000
12515
8
39.8222
-11.9202
#DATA
2.000000	 0.310158
2.084000	 0.321144
2.168000	 0.282675
2.252000	 -0.068844
2.336000	 0.044439
2.420000	 0.219674
2.504000	 0.227513
2.588000	 0.245295
2.672000	 -0.023290
2.756000	 0.098077
2.840000	 0.136989
2.924000	 0.199488
3.008000	 0.033748
3.092000	 0.180036
3.176000	 0.156189
3.260000	 0.122458
3.344000	 0.086447
3.428000	 0.029888
3.512000	 0.108213
3.596000	 0.060474
3.680000	 0.017816
3.764000	 0.004486
3.848000	 -0.048843
3.932000	 -0.006099
4.016000	 0.131342
4.100000	 0.008181
4.184000	 -0.031819
4.268000	 0.097647
4.352000	 0.054183
4.436000	 0.093898
4.520000	 0.504516
4.604000	 1.462082
4.688000	 2.979337
4.772000	 4.989554
4.856000	 7.115630
4.940000	 9.257455
5.024000	 11.0752
5.108000	 12.5009
5.192000	 13.6089
5.276000	 14.5711
5.359999	 15.3175
5.444000	 15.8563
5.528000	 16.3331
5.612000	 16.751
5.696000	 17.0532
5.780000	 17.2737
5.864000	 17.694
5.948000	 17.7219
6.032000	 17.8797
6.116000	 18.0823
6.200000	 18.1037
6.284000	 18.2577
6.368000	 18.3478
6.452000	 18.5231
6.536000	 18.5303
6.620000	 18.6434
6.704000	 18.707
6.788000	 18.6787
6.872000	 18.804
6.956000	 18.8536
7.040000	 19.0021
7.124000	 18.9751
7.208000	 19.0445
7.292000	 19.1301
7.376000	 19.1459
7.460000	 19.1295
7.544000	 19.218
7.628000	 19.1764
7.712000	 19.2524
7.796000	 19.3397
7.880000	 19.4527
7.964000	 19.4431
8.048000	 19.4248
8.132000	 19.446
8.216000	 19.4434
8.300000	 19.4657
8.384000	 19.5943
8.468000	 19.6262
8.552000	 19.5909
8.635999	 19.5399
8.719999	 19.5632
8.804000	 19.4913
8.888000	 19.5127
8.972000	 19.643
9.056000	 19.5303
9.140000	 19.6976
9.224000	 19.4282
9.308000	 19.4955
9.391999	 19.4739
9.475999	 19.5057
9.560000	 19.3293
9.644000	 19.2759
9.728000	 19.3726
9.812000	 19.243
9.896000	 19.2587
9.980000	 19.2686
10.064	19.2288
10.148	19.3924
10.232	19.3277
10.316	19.1037
10.4	19.2289
10.484	19.3085
10.568	19.2611
10.652	18.9085
10.736	18.8851
10.82	18.8761
10.904	18.9382
10.988	18.9995
11.072	18.8815
11.156	18.5983
11.24	18.5749
11.324	18.6358
11.408	18.795
11.492	18.8764
11.576	18.7331
11.66	18.4216
11.744	18.405
11.828	18.2837
11.912	18.4176
11.996	18.3609
12.08	18.1267
12.164	18.0297
12.248	18.1613
12.332	18.063
12.416	17.9686
12.5	18.036
12.584	17.9941
12.668	17.7577
12.752	17.7275
12.836	17.7476
12.92	17.6688
13.004	17.5116
13.088	17.3832
13.172	17.2914
13.256	17.3953
13.34	17.3527
13.424	17.2331
13.508	17.2631
13.592	17.2727
13.676	17.1489
13.76	16.9724
13.844	16.7708
13.928	16.6484
14.012	16.7288
14.096	16.7831
14.18	16.6832
14.264	16.6538
14.348	16.8645
14.432	16.9133
14.516	16.6861
14.6	16.4229
14.684	16.2621
14.768	16.182
14.852	16.1049
14.936	16.1158
15.02	16.2167
15.104	16.302
15.188	16.3337
15.272	16.2608
15.356	16.0672
15.44	15.8721
15.524	15.7505
15.608	15.5809
15.692	15.3501
15.776	15.267
15.86	15.3453
15.944	15.3839
16.028	15.3221
16.112	15.267
16.196	15.2722
16.28	15.2484
16.364	15.1392
16.448	15.0728
16.532	15.1373
16.616	15.195
16.7	15.1165
16.784	14.9855
16.868	14.9417
16.952	14.9847
17.036	15.0022
17.12	14.9292
17.204	14.8277
17.288	14.7711
17.372	14.7231
17.456	14.6311
17.54	14.5495
17.624	14.536
17.708	14.5277
17.792	14.4352
17.876	14.2697
17.96	14.0977
18.044	13.9487
18.128	13.8201
18.212	13.6998
18.296	13.5853
18.38	13.5347
18.464	13.6278
18.548	13.83
18.632	13.9618
18.716	13.8832
18.8	13.6496
18.884	13.4254
18.968	13.3064
19.052	13.2764
19.136	13.2753
19.22	13.255
19.304	13.2064
19.388	13.1601
19.472	13.1495
19.556	13.1626
19.64	13.1397
19.724	13.04
19.808	12.8912
19.892	12.7598
19.976	12.68
20.06	12.6354
20.144	12.5989
20.228	12.5702
20.312	12.578
20.396	12.6437
20.48	12.7528
20.564	12.8626
20.648	12.9288
20.732	12.928
20.816	12.853
20.9	12.7095
20.984	12.5218
21.068	12.3307
21.152	12.1683
21.236	12.0263
21.32	11.8444
21.404	11.5497
21.488	11.1251
21.572	10.6447
21.656	10.2477
21.74	10.0646
21.824	10.1508
21.908	10.458
21.992	10.8625
22.076	11.2202
22.16	11.4213
22.244	11.4423
22.328	11.3316
22.412	11.1748
22.496	11.0469
22.58	10.981
22.664	10.9757
22.748	11.0017
22.832	11.018
22.916	10.9929
23	10.9159
23.084	10.8086
23.168	10.7137
23.252	10.6579
23.336	10.6302
23.42	10.5907
23.504	10.4666
23.588	10.1837
23.672	9.705545
23.756	9.056820
23.84	8.312068
23.924	7.578426
24.008	6.973248
24.092	6.602733
24.176	6.525646
24.26	6.724192
24.344	7.151512
24.428	7.760328
24.512	8.449011
24.596	9.126649
24.68	9.657913
24.764	9.834367
24.848	9.448439
24.932	8.354001
25.016	6.594421
25.1	4.450433
25.184	2.448973
25.268	1.135428
25.352	0.818364
25.436	1.474412
25.52	2.692618
25.604	3.851300
25.688	4.300079
25.772	3.724457
25.856	2.366660
25.94	1.052128
26.024	0.947246
26.108	3.035041
26.192	7.666892
26.276	14.4152
26.36	22.1293
26.444	29.4018
26.528	35.0606
26.612	38.5144
26.696	39.7876
26.78	39.4454
26.864	38.1695
26.948	36.3409
27.028	33.952