File: Bakgrunnsmateriale/MATLAB/FTIR/ftir_data/LPE453/Mapping_121/LPE453_t118_cm-1.asc
PE IR       SPECTRUM    SPECTRUM    ASCII       PEDS        1.60
  -1
LP0BFC~1.ASC
17/05/17
00:18:36.00
17/05/17
00:18:36.00
tln
$LPE453_t0118$<tbV0>[-5.2,13.0,8.0,0.0,27,1,0]
370
64

2002,4.07
MIRTGS : RIGHTBACK : INTERNAL 2
MIR : ON : INTERNAL 2
OPTKBR

0.200000
8
8.000000
FILLER
RATIO
SPECTRUM
UNLOCKED 256

DOUBLE
64
COMBINED
1
0
0

1.000000
RATIO

1
0
TRUE
51149
0
LEFT NOT FITTED RIGHT NOT FITTED 0
NONE
NONE
15600
12
4.427000
51148
TRUE
1 0 8 72 0 0 0 0

15798

#HDR
-1
-1
#GR
CM-1
%T
2.38419e-05
0.0
5000
-1.000000
4631
8
35.4883
-1.961374
#DATA
5000	0.307250
4984	0.162577
4968	0.312757
4952	0.040817
4936	-0.252819
4920	0.114750
4904	0.206995
4888	0.160527
4872	0.084471
4856	0.199651
4840	0.038552
4824	0.344944
4808	0.216269
4792	-0.214314
4776	0.209450
4760	0.281739
4744	-0.292253
4728	-0.213861
4712	0.837898
4696	-0.001597
4680	0.736236
4664	-1.298093
4648	0.818109
4632	0.264549
4616	-0.033187
4600	0.342202
4584	0.001430
4568	-0.857019
4552	1.019048
4536	-0.244975
4520	0.274133
4504	3.448796
4488	7.229208
4472	0.425815
4456	0.697040
4440	-0.313258
4424	0.448274
4408	-0.558972
4392	-0.162577
4376	-0.495028
4360	0.378918
4344	0.364017
4328	-0.351500
4312	0.355529
4296	0.014233
4280	0.161457
4264	0.096249
4248	0.335192
4232	0.085163
4216	-0.001525
4200	0.273132
4184	-0.070118
4168	0.165820
4152	-0.060701
4136	0.026297
4120	-0.101280
4104	-0.031185
4088	0.015616
4072	0.209331
4056	-0.044727
4040	-0.074386
4024	0.106525
4008	0.005483
3992	0.164103
3976	-0.035738
3960	-0.192523
3944	-0.009822
3928	-0.015521
3912	0.157785
3896	0.145888
3880	0.052690
3864	0.117874
3848	0.079727
3832	0.173449
3816	0.042867
3800	0.038909
3784	0.074005
3768	0.063729
3752	-0.029850
3736	0.146365
3720	0.028109
3704	-0.052928
3688	0.193715
3672	0.045228
3656	0.131607
3640	-0.022697
3624	0.040578
3608	0.093173
3592	-0.012087
3576	0.111317
3560	0.162887
3544	-0.064587
3528	0.224208
3512	0.005149
3496	0.077033
3480	0.106883
3464	0.127601
3448	0.203943
3432	-0.070786
3416	0.047183
3400	0.116395
3384	0.027966
3368	-0.047755
3352	-0.010967
3336	0.052356
3320	0.110673
3304	0.040125
3288	0.101447
3272	0.020480
3256	-0.002479
3240	0.259804
3224	0.014996
3208	0.003123
3192	-0.020861
3176	0.072050
3160	0.177931
3144	0.227332
3128	-0.008130
3112	0.166678
3096	-0.143337
3080	-0.021028
3064	0.087475
3048	0.116515
3032	0.121521
3016	0.208735
3000	-0.050401
2984	-0.030016
2968	0.082778
2952	0.081038
2936	-0.036764
2920	0.081539
2904	0.030589
2888	0.135850
2872	0.082516
2856	0.106287
2840	0.024986
2824	-0.010776
2808	-0.012636
2792	0.052475
2776	-0.048422
2760	0.053381
2744	0.070500
2728	0.104999
2712	-0.047445
2696	-0.039815
2680	-0.047278
2664	0.025653
2648	0.020742
2632	0.054550
2616	-0.143456
2600	0.078129
2584	-0.032234
2568	0.054574
2552	0.025296
2536	0.014662
2520	0.071668
2504	0.077843
2488	-0.067305
2472	-0.020074
2456	-0.053644
2440	-0.041317
2424	-0.081491
2408	0.056505
2392	0.052428
2376	0.130057
2360	0.203371
2344	0.187611
2328	0.316953
2312	0.577759
2296	0.698018
2280	1.023912
2264	1.386022
2248	1.864647
2232	2.599716
2216	3.484916
2200	4.518508
2184	5.751991
2168	7.277321
2152	8.822345
2136	10.7085
2120	12.5967
2104	14.349
2088	16.3181
2072	18.1187
2056	19.8089
2040	21.5304
2024	23.0886
2008	24.5791
1992	25.7363
1976	26.8202
1960	28.0045
1944	28.745
1928	29.49
1912	30.4184
1896	31.0144
1880	31.4498
1864	32.0356
1848	32.5945
1832	32.8346
1816	33.0327
1800	33.5655
1784	33.8507
1768	33.778
1752	34.0735
1736	34.4871
1720	34.5429
1704	34.4465
1688	34.7062
1672	34.8708
1656	34.8345
1640	34.9549
1624	35.1543
1608	35.2662
1592	34.9826
1576	34.9816
1560	35.4883
1544	35.2643
1528	34.998
1512	35.0401
1496	35.313
1480	35.1805
1464	34.7878
1448	35.1049
1432	35.3577
1416	34.9722
1400	34.7132
1384	34.8737
1368	35.0491
1352	34.6699
1336	34.442
1320	34.8339
1304	34.6181
1288	34.2353
1272	34.3723
1256	34.6074
1240	34.279
1224	33.8861
1208	33.925
1192	34.2589
1176	33.8047
1160	33.539
1144	33.7303
1128	33.8268
1112	33.429
1096	33.073
1080	33.3228
1064	33.3429
1048	32.686
1032	32.6374
1016	32.8651
1000	32.8613
984	 32.1357
968	 32.08
952	 32.4781
936	 32.3001
920	 31.5751
904	 31.5121
888	 31.998
872	 31.3497
856	 30.7575
840	 30.8312
824	 30.8724
808	 30.6252
792	 29.8878
776	 30.0464
760	 30.3046
744	 29.4977
728	 29.0435
712	 29.2264
696	 29.1288
680	 28.6028
664	 27.9842
648	 28.1965
632	 27.528
616	 27.1138
600	 26.6367
584	 27.0475
568	 26.9292
552	 25.6933
536	 25.6472
520	 25.8002
504	 24.4682
488	 23.3251
472	 24.4362
456	 23.8131
440	 22.3851
424	 20.2041
408	 21.6721
392	 9.979557
376	 32.5599
370	 15.0027