File: Bakgrunnsmateriale/MATLAB/FTIR/ftir_data/LPE453/Mapping_121/LPE453_t67_cm-1.asc
PE IR       SPECTRUM    SPECTRUM    ASCII       PEDS        1.60
  -1
LP6ADA~1.ASC
17/05/16
19:55:04.00
17/05/16
19:55:04.00
tln
$LPE453_t0067$<tbV0>[13.0,2.6,8.0,0.0,27,1,0]
370
64

2002,4.07
MIRTGS : RIGHTBACK : INTERNAL 2
MIR : ON : INTERNAL 2
OPTKBR

0.200000
8
8.000000
FILLER
RATIO
SPECTRUM
UNLOCKED 256

DOUBLE
64
COMBINED
1
0
0

1.000000
RATIO

1
0
TRUE
51149
0
LEFT NOT FITTED RIGHT NOT FITTED 0
NONE
NONE
15600
12
4.427000
51148
TRUE
1 0 8 72 0 0 0 0

15798

#HDR
-1
-1
#GR
CM-1
%T
2.38419e-05
0.0
5000
-1.000000
4631
8
45.3596
-1.670265
#DATA
5000	0.182485
4984	0.784420
4968	0.144243
4952	-0.296211
4936	0.352787
4920	-0.385713
4904	-0.053787
4888	0.617265
4872	0.376772
4856	0.227165
4840	0.015687
4824	0.096654
4808	0.313520
4792	0.231385
4776	-0.156021
4760	0.228238
4744	-0.082921
4728	0.072193
4712	0.243258
4696	-0.119900
4680	-0.811314
4664	1.329588
4648	-0.027775
4632	1.367092
4616	0.747442
4600	0.435137
4584	-0.037670
4568	-0.094795
4552	0.416302
4536	-0.473976
4520	-0.278210
4504	0.930905
4488	12.9292
4472	-0.573778
4456	-0.036358
4440	0.110244
4424	0.176215
4408	-0.607275
4392	0.354599
4376	0.353455
4360	0.429987
4344	0.302052
4328	0.286817
4312	-0.031256
4296	0.111484
4280	-0.264191
4264	0.014400
4248	0.219702
4232	0.236487
4216	0.169658
4200	0.385832
4184	0.883793
4168	-0.163507
4152	0.304007
4136	-0.059485
4120	0.151205
4104	-0.132107
4088	0.155377
4072	0.215244
4056	0.053977
4040	0.043630
4024	0.119829
4008	0.071072
3992	-0.145196
3976	0.079774
3960	-0.184559
3944	0.090885
3928	0.239539
3912	0.021791
3896	-0.113058
3880	0.136661
3864	0.052022
3848	0.106787
3832	0.124788
3816	0.058364
3800	0.071811
3784	-0.038266
3768	0.126457
3752	0.125718
3736	-0.092434
3720	0.048232
3704	-0.139689
3688	0.059247
3672	0.128555
3656	0.005507
3640	-0.097441
3624	0.055432
3608	0.105810
3592	0.090289
3576	0.043439
3560	0.158691
3544	0.034236
3528	0.051760
3512	0.134205
3496	-0.069928
3480	0.162959
3464	0.096106
3448	-0.025343
3432	-0.025129
3416	0.002574
3400	0.124073
3384	0.099635
3368	0.039839
3352	0.089502
3336	0.113630
3320	0.049400
3304	0.031352
3288	0.117421
3272	0.129866
3256	0.174307
3240	-0.077676
3224	-0.046825
3208	0.266170
3192	-0.058221
3176	-0.055623
3160	0.140786
3144	0.114083
3128	0.076770
3112	0.140500
3096	0.050306
3080	0.289630
3064	0.048995
3048	0.222826
3032	0.022745
3016	0.086927
3000	0.072240
2984	0.084185
2968	0.023174
2952	0.028634
2936	0.056314
2920	0.021147
2904	0.110101
2888	0.082492
2872	0.175547
2856	-0.053787
2840	0.125765
2824	0.015974
2808	0.110626
2792	0.150108
2776	0.114774
2760	0.003695
2744	-0.042223
2728	-0.066852
2712	0.031709
2696	-0.004076
2680	0.010824
2664	0.091409
2648	0.079846
2632	0.178360
2616	0.104355
2600	-0.044250
2584	0.048065
2568	-0.015425
2552	-0.060582
2536	0.003147
2520	0.066447
2504	0.054526
2488	0.128340
2472	0.012373
2456	0.079059
2440	0.040864
2424	0.222277
2408	-0.103425
2392	-0.019860
2376	0.054073
2360	0.004935
2344	0.037646
2328	-0.024771
2312	-0.033450
2296	0.051712
2280	0.034976
2264	0.177359
2248	0.193119
2232	0.327229
2216	0.423407
2200	0.831079
2184	1.194334
2168	1.626896
2152	2.231717
2136	3.088784
2120	4.053211
2104	5.000352
2088	6.035351
2072	7.238888
2056	8.532547
2040	9.593558
2024	10.737
2008	11.7098
1992	12.8103
1976	13.6819
1960	14.5208
1944	15.3143
1928	16.0599
1912	16.6375
1896	17.1551
1880	17.8528
1864	18.0253
1848	18.6291
1832	18.8958
1816	19.2222
1800	19.3975
1784	19.5603
1768	20.0393
1752	19.9777
1736	20.2222
1720	20.2729
1704	20.327
1688	20.6176
1672	20.4727
1656	20.8598
1640	20.7248
1624	20.8097
1608	21.1211
1592	20.8289
1576	21.201
1560	21.0262
1544	20.9731
1528	21.3312
1512	21.0079
1496	21.0142
1480	20.9615
1464	21.0343
1448	20.942
1432	20.8348
1416	21.2061
1400	20.9295
1384	21.0181
1368	21.0792
1352	20.6876
1336	21.1033
1320	20.8825
1304	20.797
1288	20.9788
1272	20.6348
1256	20.8979
1240	20.6918
1224	20.6508
1208	20.7429
1192	20.2559
1176	20.6849
1160	20.4452
1144	20.1702
1128	20.5764
1112	19.9599
1096	20.3025
1080	20.0096
1064	19.7531
1048	19.8892
1032	19.3937
1016	19.5215
1000	19.6759
984	 18.8743
968	 19.339
952	 19.0262
936	 19.1266
920	 18.9111
904	 18.5278
888	 18.6556
872	 18.0704
856	 17.9427
840	 18.2121
824	 17.3142
808	 17.5472
792	 17.3336
776	 16.9298
760	 16.509
744	 16.5882
728	 16.5133
712	 15.8823
696	 15.3739
680	 15.3168
664	 14.8347
648	 14.6797
632	 14.2702
616	 13.565
600	 14.1855
584	 13.51
568	 12.9807
552	 12.6762
536	 11.9668
520	 12.1258
504	 11.6273
488	 11.778
472	 11.5088
456	 10.8353
440	 10.9053
424	 11.4289
408	 7.794570
392	 24.9435
376	 45.2301
370	 17.4229