File: Bakgrunnsmateriale/MATLAB/FTIR/ftir_data/LPE453/Mapping_121/LPE453_t22.asc
PE IR       SPECTRUM    SPECTRUM    ASCII       PEDS        1.60
  -1
LPCB91~1.ASC
17/05/16
16:05:31.00
17/05/16
16:05:57.00
tln
$LPE453_t0022$<tbV0>[-13.0,-10.4,8.0,0.0,27,1,0]
27.028
64

2002,4.07
MIRTGS : RIGHTBACK : INTERNAL 2
MIR : ON : INTERNAL 2
OPTKBR

0.200000
8
8.000000
FILLER
RATIO
SPECTRUM
UNLOCKED 256

DOUBLE
64
COMBINED
1
0
0

0.002000
RATIO

1
0
TRUE
51149
0
LEFT NOT FITTED RIGHT NOT FITTED 0
NONE
NONE
15600
12
4.427000
51148
TRUE
1 0 8 72 0 0 0 0

15798

#HDR
-1
-1
#GR
µM
%T
2.38419e-05
0.0
2.000000
0.002000
12515
8
35.6956
-3.278283
#DATA
2.000000	 0.190281
2.084000	 -0.173374
2.168000	 1.886903
2.252000	 0.792578
2.336000	 0.216581
2.420000	 0.323749
2.504000	 0.054300
2.588000	 0.163894
2.672000	 0.233381
2.756000	 0.026781
2.840000	 0.071468
2.924000	 0.089138
3.008000	 0.105603
3.092000	 0.018842
3.176000	 0.036911
3.260000	 0.110664
3.344000	 0.079765
3.428000	 -0.050636
3.512000	 0.066960
3.596000	 -0.010677
3.680000	 0.025520
3.764000	 0.084240
3.848000	 -0.040697
3.932000	 -0.009950
4.016000	 0.267446
4.100000	 0.026496
4.184000	 0.072910
4.268000	 0.117074
4.352000	 0.522830
4.436000	 1.387575
4.520000	 3.223381
4.604000	 6.309594
4.688000	 10.1032
4.772000	 14.1082
4.856000	 18.1762
4.940000	 21.6793
5.024000	 24.1196
5.108000	 26.452
5.192000	 28.0295
5.276000	 29.4509
5.359999	 30.3742
5.444000	 31.1494
5.528000	 31.8378
5.612000	 32.435
5.696000	 32.7979
5.780000	 33.2874
5.864000	 33.4632
5.948000	 34.1335
6.032000	 33.9078
6.116000	 34.255
6.200000	 34.3739
6.284000	 34.3586
6.368000	 34.9106
6.452000	 34.7103
6.536000	 34.7449
6.620000	 35.4304
6.704000	 35.1086
6.788000	 35.0417
6.872000	 35.6735
6.956000	 35.1791
7.040000	 34.9715
7.124000	 35.3865
7.208000	 35.5458
7.292000	 35.0397
7.376000	 34.8791
7.460000	 35.3258
7.544000	 35.4194
7.628000	 34.7876
7.712000	 34.7909
7.796000	 35.3057
7.880000	 35.203
7.964000	 34.7429
8.048000	 34.4686
8.132000	 34.7963
8.216000	 35.0224
8.300000	 34.7115
8.384000	 34.1535
8.468000	 34.0595
8.552000	 34.5426
8.635999	 34.8191
8.719999	 34.3096
8.804000	 33.7785
8.888000	 33.5867
8.972000	 33.6882
9.056000	 34.1791
9.140000	 33.9072
9.224000	 33.5706
9.308000	 33.1778
9.391999	 32.9815
9.475999	 33.1319
9.560000	 33.56
9.644000	 33.6436
9.728000	 32.9853
9.812000	 32.5793
9.896000	 32.3642
9.980000	 32.4201
10.064	32.6245
10.148	32.758
10.232	32.5722
10.316	32.3633
10.4	32.0657
10.484	31.7605
10.568	31.4755
10.652	31.6878
10.736	32.146
10.82	32.2866
10.904	32.1642
10.988	31.8433
11.072	31.462
11.156	31.1105
11.24	30.7335
11.324	30.7052
11.408	30.669
11.492	30.7925
11.576	31.0617
11.66	31.2054
11.744	30.9963
11.828	30.6523
11.912	30.3156
11.996	29.9534
12.08	29.9336
12.164	30.0198
12.248	30.1165
12.332	30.395
12.416	30.4392
12.5	30.2314
12.584	30.1759
12.668	29.951
12.752	29.5221
12.836	29.1037
12.92	28.7172
13.004	28.6948
13.088	28.7296
13.172	29.0231
13.256	29.3654
13.34	29.2354
13.424	29.3261
13.508	29.4248
13.592	29.3166
13.676	29.0883
13.76	28.6377
13.844	28.212
13.928	28.0946
14.012	28.0955
14.096	27.9855
14.18	27.8377
14.264	27.9144
14.348	28.1005
14.432	28.141
14.516	28.4017
14.6	28.7581
14.684	28.7418
14.768	28.5738
14.852	28.4412
14.936	28.2566
15.02	28.0715
15.104	27.8568
15.188	27.5219
15.272	27.2076
15.356	27.0368
15.44	26.9556
15.524	26.9088
15.608	26.9133
15.692	27.0059
15.776	27.181
15.86	27.4558
15.944	27.7113
16.028	27.6833
16.112	27.3956
16.196	27.0931
16.28	26.8041
16.364	26.5337
16.448	26.4684
16.532	26.5515
16.616	26.4722
16.7	26.2163
16.784	26.0289
16.868	25.9556
16.952	25.9079
17.036	25.9278
17.12	26.0662
17.204	26.2346
17.288	26.3276
17.372	26.3276
17.456	26.2474
17.54	26.1048
17.624	25.9774
17.708	25.9732
17.792	26.1222
17.876	26.3399
17.96	26.4964
18.044	26.4991
18.128	26.3149
18.212	25.9668
18.296	25.5247
18.38	25.09
18.464	24.7549
18.548	24.5489
18.632	24.4155
18.716	24.2934
18.8	24.2042
18.884	24.2145
18.968	24.3136
19.052	24.374
19.136	24.2675
19.22	24.0022
19.304	23.7458
19.388	23.7018
19.472	23.9548
19.556	24.4059
19.64	24.8411
19.724	25.093
19.808	25.1485
19.892	25.1128
19.976	25.085
20.06	25.0713
20.144	25.006
20.228	24.8506
20.312	24.6687
20.396	24.58
20.48	24.629
20.564	24.7235
20.648	24.7117
20.732	24.5321
20.816	24.2676
20.9	24.0496
20.984	23.9243
21.068	23.8256
21.152	23.6777
21.236	23.4924
21.32	23.3601
21.404	23.3362
21.488	23.3871
21.572	23.4296
21.656	23.4357
21.74	23.4672
21.824	23.6116
21.908	23.8798
21.992	24.1825
22.076	24.4027
22.16	24.4828
22.244	24.4772
22.328	24.4732
22.412	24.4884
22.496	24.43
22.58	24.154
22.664	23.564
22.748	22.6825
22.832	21.6305
22.916	20.5799
23	19.6964
23.084	19.097
23.168	18.8208
23.252	18.7956
23.336	18.8406
23.42	18.7526
23.504	18.3661
23.588	17.6729
23.672	16.834
23.756	16.115
23.84	15.788
23.924	15.9953
24.008	16.6841
24.092	17.6391
24.176	18.5888
24.26	19.3253
24.344	19.7771
24.428	20.012
24.512	20.1322
24.596	20.2173
24.68	20.2411
24.764	20.0496
24.848	19.4808
24.932	18.403
25.016	16.7817
25.1	14.6674
25.184	12.1911
25.268	9.521675
25.352	6.812485
25.436	4.211966
25.52	1.858904
25.604	-0.108284
25.688	-1.497986
25.772	-2.093238
25.856	-1.716448
25.94	-0.359858
26.024	1.812224
26.108	4.510830
26.192	7.521159
26.276	10.7483
26.36	14.1959
26.444	17.8071
26.528	21.3296
26.612	24.2678
26.696	26.0076
26.78	26.0636
26.864	24.2241
26.948	20.6646
27.028	16.2555