File: Bakgrunnsmateriale/MATLAB/FTIR/ftir_data/LPE453/Mapping_121/LPE453_t28_cm-1.asc
PE IR       SPECTRUM    SPECTRUM    ASCII       PEDS        1.60
  -1
LP6859~1.ASC
17/05/16
16:40:19.00
17/05/16
16:40:19.00
tln
$LPE453_t0028$<tbV0>[0.0,-7.8,8.0,0.0,27,1,0]
370
64

2002,4.07
MIRTGS : RIGHTBACK : INTERNAL 2
MIR : ON : INTERNAL 2
OPTKBR

0.200000
8
8.000000
FILLER
RATIO
SPECTRUM
UNLOCKED 256

DOUBLE
64
COMBINED
1
0
0

1.000000
RATIO

1
0
TRUE
51149
0
LEFT NOT FITTED RIGHT NOT FITTED 0
NONE
NONE
15600
12
4.427000
51148
TRUE
1 0 8 72 0 0 0 0

15798

#HDR
-1
-1
#GR
CM-1
%T
2.38419e-05
0.0
5000
-1.000000
4631
8
54.7985
-13.2264
#DATA
5000	-0.045609
4984	-0.184845
4968	0.379729
4952	0.368833
4936	-0.071001
4920	0.090909
4904	-0.091052
4888	0.274205
4872	0.955700
4856	0.084996
4840	0.732302
4824	0.320625
4808	0.217914
4792	0.162148
4776	0.398898
4760	0.265860
4744	0.098991
4728	0.385141
4712	0.078177
4696	0.066709
4680	0.245785
4664	0.344014
4648	-0.322198
4632	0.170111
4616	-0.201964
4600	-0.612735
4584	-0.233936
4568	-0.095343
4552	-0.101423
4536	-2.728176
4520	1.928067
4504	12.6706
4488	0.298023
4472	-0.590825
4456	-1.088356
4440	-0.426197
4424	-0.036001
4408	0.469493
4392	0.176715
4376	0.181508
4360	0.109982
4344	0.209927
4328	0.411820
4312	0.237870
4296	0.117969
4280	0.036430
4264	-0.023007
4248	0.244164
4232	0.257539
4216	0.204372
4200	0.169420
4184	-0.230073
4168	0.079560
4152	0.232553
4136	-0.049233
4120	0.072789
4104	0.025486
4088	-0.009107
4072	-0.129866
4056	-0.126481
4040	-0.035190
4024	0.071239
4008	0.146508
3992	0.104475
3976	0.121450
3960	0.161457
3944	0.083589
3928	0.007343
3912	-0.043511
3896	0.132751
3880	0.014591
3864	0.044178
3848	-0.078773
3832	-0.230860
3816	0.019168
3800	0.215744
3784	0.014829
3768	0.132369
3752	-0.084710
3736	-0.095891
3720	0.042390
3704	0.042271
3688	-0.012803
3672	0.118994
3656	0.102567
3640	0.024628
3624	0.037908
3608	0.118875
3592	-0.103855
3576	0.019979
3560	0.051188
3544	0.123786
3528	0.000500
3512	-0.017428
3496	0.044226
3480	-0.009703
3464	-0.078177
3448	0.035905
3432	-0.090050
3416	0.046825
3400	0.148367
3384	0.020647
3368	-0.067043
3352	-0.192475
3336	-0.033402
3320	0.039553
3304	-0.029873
3288	0.031185
3272	0.108480
3256	-0.037741
3240	0.151801
3224	0.075387
3208	-0.062823
3192	0.078225
3176	0.001645
3160	0.083446
3144	-0.002360
3128	0.150918
3112	0.229287
3096	0.012373
3080	0.078296
3064	-0.027918
3048	0.022220
3032	0.114440
3016	0.009799
3000	0.015640
2984	-0.072264
2968	0.034737
2952	0.069284
2936	-0.057029
2920	0.027966
2904	0.081300
2888	0.066232
2872	0.118231
2856	0.221800
2840	-0.096225
2824	0.198101
2808	-0.031304
2792	0.056242
2776	0.067043
2760	0.133252
2744	0.051331
2728	0.078892
2712	-0.090217
2696	-0.007247
2680	0.043773
2664	0.108575
2648	0.059032
2632	0.042033
2616	0.013375
2600	-0.037622
2584	0.010395
2568	0.010323
2552	-0.029492
2536	-0.045418
2520	0.074005
2504	0.026726
2488	0.081968
2472	0.083661
2456	-0.096559
2440	0.077390
2424	0.201439
2408	0.094294
2392	-0.023245
2376	0.020313
2360	0.027894
2344	0.097060
2328	0.125169
2312	0.053644
2296	0.253582
2280	0.360918
2264	0.478720
2248	0.800347
2232	1.150178
2216	1.840853
2200	2.405810
2184	3.416347
2168	4.399538
2152	6.114482
2136	7.466840
2120	9.060907
2104	10.7979
2088	12.7735
2072	14.5091
2056	16.526
2040	18.0275
2024	19.7291
2008	21.0365
1992	22.5149
1976	23.5673
1960	24.7355
1944	25.6225
1928	26.342
1912	27.1108
1896	27.8148
1880	28.2491
1864	28.7433
1848	29.1
1832	29.4681
1816	29.8235
1800	30.0975
1784	30.2686
1768	30.3208
1752	30.5782
1736	30.7096
1720	30.8311
1704	30.8266
1688	30.938
1672	30.9521
1656	31.1409
1640	31.1643
1624	31.0966
1608	31.0243
1592	30.9937
1576	31.0443
1560	31.0716
1544	31.0889
1528	30.9685
1512	31.1095
1496	31.0041
1480	30.9117
1464	30.9184
1448	30.967
1432	30.8932
1416	30.8807
1400	30.8134
1384	30.8016
1368	30.7158
1352	30.7981
1336	30.6831
1320	30.6727
1304	30.7574
1288	30.4528
1272	30.527
1256	30.3889
1240	30.4121
1224	30.2365
1208	30.3281
1192	30.0892
1176	30.2376
1160	29.9588
1144	30.045
1128	29.9794
1112	29.9453
1096	29.9351
1080	29.8046
1064	29.4481
1048	29.5541
1032	29.3613
1016	29.1426
1000	29.1675
984	 29.1507
968	 28.879
952	 28.5597
936	 28.3835
920	 28.3555
904	 28.0829
888	 28.0074
872	 27.881
856	 27.4385
840	 27.1953
824	 27.3134
808	 26.5935
792	 26.5822
776	 26.5317
760	 26.0412
744	 26.1632
728	 25.567
712	 25.0528
696	 24.6558
680	 24.8974
664	 24.2311
648	 23.7681
632	 23.8538
616	 23.1245
600	 22.9894
584	 21.9842
568	 22.434
552	 21.0492
536	 20.6986
520	 20.794
504	 20.7405
488	 18.7963
472	 19.546
456	 18.695
440	 18.0427
424	 18.2706
408	 19.9467
392	 -12.6916
376	 29.2545
370	 54.7985