File: Bakgrunnsmateriale/MATLAB/FTIR/ftir_data/LPE453/Mapping_121/LPE453_t72_cm-1.asc
PE IR       SPECTRUM    SPECTRUM    ASCII       PEDS        1.60
  -1
LPDA50~1.ASC
17/05/16
20:18:07.00
17/05/16
20:18:07.00
tln
$LPE453_t0072$<tbV0>[0.0,2.6,8.0,0.0,27,1,0]
370
64

2002,4.07
MIRTGS : RIGHTBACK : INTERNAL 2
MIR : ON : INTERNAL 2
OPTKBR

0.200000
8
8.000000
FILLER
RATIO
SPECTRUM
UNLOCKED 256

DOUBLE
64
COMBINED
1
0
0

1.000000
RATIO

1
0
TRUE
51149
0
LEFT NOT FITTED RIGHT NOT FITTED 0
NONE
NONE
15600
12
4.427000
51148
TRUE
1 0 8 72 0 0 0 0

15798

#HDR
-1
-1
#GR
CM-1
%T
2.38419e-05
0.0
5000
-1.000000
4631
8
33.1835
-0.964546
#DATA
5000	0.122928
4984	0.611281
4968	-0.045752
4952	0.181126
4936	0.101280
4920	-0.309872
4904	0.203871
4888	0.422501
4872	0.178694
4856	-0.227999
4840	0.240206
4824	0.204324
4808	0.316119
4792	0.761747
4776	-0.403809
4760	0.648951
4744	0.085997
4728	0.190377
4712	-0.394678
4696	0.322604
4680	-0.320196
4664	1.261782
4648	-0.192809
4632	1.442646
4616	0.301551
4600	0.156903
4584	-0.123476
4568	-0.328230
4552	-0.593972
4536	-0.034928
4520	-0.022149
4504	0.926375
4488	3.869509
4472	-0.158166
4456	-0.211715
4440	-0.639104
4424	0.068402
4408	-0.060939
4392	-0.339078
4376	-0.011420
4360	0.054693
4344	0.173377
4328	0.388646
4312	0.066971
4296	0.090837
4280	-0.489711
4264	0.334024
4248	-0.020480
4232	0.268054
4216	0.380969
4200	0.232696
4184	0.608062
4168	-0.516581
4152	0.479745
4136	0.069975
4120	0.238132
4104	0.089764
4088	-0.209832
4072	-0.120639
4056	0.148463
4040	0.173878
4024	0.071883
4008	-0.079917
3992	0.185608
3976	0.207996
3960	-0.079059
3944	0.015282
3928	0.163865
3912	0.073409
3896	0.291967
3880	-0.072932
3864	0.075960
3848	0.111103
3832	0.013351
3816	-0.066518
3800	0.124001
3784	-0.032854
3768	0.068283
3752	0.103378
3736	-0.013875
3720	-0.136446
3704	0.097298
3688	0.110626
3672	0.035667
3656	0.058913
3640	0.046253
3624	0.051116
3608	0.068569
3592	0.049996
3576	0.088119
3560	0.025177
3544	0.047135
3528	-0.092029
3512	0.189137
3496	0.097966
3480	0.081968
3464	-0.039696
3448	0.126934
3432	-0.005102
3416	0.077939
3400	0.185418
3384	0.097513
3368	0.111532
3352	0.007724
3336	0.101351
3320	0.074219
3304	0.077581
3288	0.017070
3272	-0.006937
3256	0.105309
3240	0.203776
3224	-0.016045
3208	0.011825
3192	0.032234
3176	0.018024
3160	0.066852
3144	0.086498
3128	0.026845
3112	0.113725
3096	0.054359
3080	-0.072002
3064	0.092768
3048	0.106143
3032	0.090742
3016	-0.012803
3000	0.131201
2984	0.001120
2968	0.020861
2952	0.027346
2936	0.016236
2920	0.033593
2904	0.022101
2888	0.005435
2872	0.087761
2856	0.056457
2840	-0.020551
2824	0.079560
2808	-0.087952
2792	0.117158
2776	-0.023484
2760	0.006127
2744	-0.006914
2728	0.058865
2712	0.039529
2696	0.009965
2680	0.046038
2664	0.088381
2648	0.089836
2632	-0.075697
2616	-0.109767
2600	0.068616
2584	0.047516
2568	0.030708
2552	0.075316
2536	0.115156
2520	0.066113
2504	0.125575
2488	0.021362
2472	0.087499
2456	0.046944
2440	0.029993
2424	0.198268
2408	0.104546
2392	-0.035333
2376	0.117301
2360	0.038957
2344	0.040602
2328	0.197887
2312	0.275158
2296	0.375628
2280	0.641894
2264	0.847649
2248	1.276946
2232	1.890492
2216	2.653312
2200	3.656959
2184	4.813575
2168	6.266498
2152	7.555103
2136	9.622669
2120	11.3924
2104	13.4547
2088	15.4412
2072	17.3574
2056	19.1763
2040	20.7656
2024	22.365
2008	23.8646
1992	25.1318
1976	26.2825
1960	27.327
1944	28.122
1928	28.9389
1912	29.6771
1896	30.2326
1880	30.7972
1864	31.1841
1848	31.4706
1832	31.8218
1816	32.1414
1800	32.2694
1784	32.3659
1768	32.7408
1752	32.6554
1736	32.7322
1720	32.892
1704	32.8724
1688	32.7859
1672	33.1214
1656	32.9817
1640	32.9058
1624	33.1139
1608	32.9354
1592	32.8194
1576	33.0583
1560	33.0584
1544	32.6628
1528	33.0267
1512	32.9933
1496	32.5573
1480	32.6617
1464	32.8348
1448	32.4941
1432	32.6578
1416	32.7657
1400	32.3056
1384	32.4767
1368	32.6397
1352	32.3097
1336	32.115
1320	32.5558
1304	32.0993
1288	31.8393
1272	32.2594
1256	32.0128
1240	31.4937
1224	31.9237
1208	31.8395
1192	31.3318
1176	31.5194
1160	31.6397
1144	31.0938
1128	31.075
1112	31.4933
1096	30.9263
1080	30.5426
1064	31.1278
1048	30.5825
1032	30.2463
1016	30.5193
1000	30.2627
984	 29.5683
968	 29.8817
952	 29.947
936	 29.1748
920	 29.0987
904	 29.3176
888	 28.576
872	 28.2867
856	 28.8826
840	 28.1614
824	 27.6077
808	 27.6522
792	 27.3974
776	 26.6914
760	 27.0355
744	 26.294
728	 25.8816
712	 25.514
696	 25.6833
680	 24.7384
664	 24.3171
648	 24.7183
632	 24.0433
616	 23.0684
600	 23.2902
584	 22.9549
568	 22.0085
552	 21.7278
536	 21.9133
520	 20.8748
504	 20.281
488	 19.5922
472	 18.5502
456	 18.6139
440	 18.9977
424	 14.6839
408	 17.833
392	 26.8289
376	 23.28
370	 7.647943