File: Bakgrunnsmateriale/MATLAB/FTIR/ftir_data/LPE453/Mapping_121/LPE453_t107_cm-1.asc
PE IR       SPECTRUM    SPECTRUM    ASCII       PEDS        1.60
  -1
LP0A78~1.ASC
17/05/16
23:07:12.00
17/05/16
23:07:12.00
tln
$LPE453_t0107$<tbV0>[-5.2,10.4,8.0,0.0,27,1,0]
370
64

2002,4.07
MIRTGS : RIGHTBACK : INTERNAL 2
MIR : ON : INTERNAL 2
OPTKBR

0.200000
8
8.000000
FILLER
RATIO
SPECTRUM
UNLOCKED 256

DOUBLE
64
COMBINED
1
0
0

1.000000
RATIO

1
0
TRUE
51149
0
LEFT NOT FITTED RIGHT NOT FITTED 0
NONE
NONE
15600
12
4.427000
51148
TRUE
1 0 8 72 0 0 0 0

15798

#HDR
-1
-1
#GR
CM-1
%T
2.38419e-05
0.0
5000
-1.000000
4631
8
35.9482
-8.654284
#DATA
5000	-0.003767
4984	0.352478
4968	0.532436
4952	0.280308
4936	0.287985
4920	0.276541
4904	0.367283
4888	0.086379
4872	0.239682
4856	-0.367736
4840	0.266408
4824	0.199484
4808	-0.339508
4792	0.083041
4776	0.605320
4760	0.103092
4744	-0.090003
4728	0.562930
4712	0.217103
4696	-0.129556
4680	0.669407
4664	1.512837
4648	0.958991
4632	-0.712060
4616	0.870180
4600	0.073432
4584	0.266742
4568	-0.098180
4552	0.611805
4536	0.256347
4520	0.684142
4504	3.534579
4488	-4.648756
4472	-1.706409
4456	0.018930
4440	0.747942
4424	0.559806
4408	0.280833
4392	0.473499
4376	0.308370
4360	0.063371
4344	0.188255
4328	-0.113534
4312	0.027036
4296	0.309395
4280	0.096845
4264	-0.021338
4248	-0.138926
4232	0.232434
4216	0.040984
4200	0.019693
4184	0.338530
4168	0.104856
4152	0.162672
4136	0.081753
4120	0.233459
4104	-0.028324
4088	0.291800
4072	-0.031661
4056	0.000548
4040	0.139355
4024	0.175476
4008	0.059390
3992	0.340032
3976	-0.076413
3960	0.008940
3944	-0.008058
3928	-0.064969
3912	0.197219
3896	-0.087094
3880	0.042462
3864	0.071191
3848	0.230979
3832	-0.058484
3816	0.189185
3800	-0.044202
3784	-0.003361
3768	0.060367
3752	0.002908
3736	0.083065
3720	-0.001049
3704	-0.084352
3688	0.174188
3672	-0.090217
3656	-0.089621
3640	-0.012087
3624	0.105690
3608	0.011181
3592	0.125169
3576	0.044894
3560	-0.031423
3544	-0.066447
3528	0.027680
3512	-0.168728
3496	-0.209712
3480	0.193023
3464	-0.002193
3448	0.052070
3432	-0.047683
3416	0.179290
3400	0.157356
3384	-0.083589
3368	0.059652
3352	-0.115132
3336	0.210165
3320	0.001239
3304	-0.034284
3288	0.101017
3272	0.131487
3256	-0.007581
3240	0.029587
3224	-0.098514
3208	0.054335
3192	0.233364
3176	0.073719
3160	0.139355
3144	0.088167
3128	0.015950
3112	0.065445
3096	0.087428
3080	-0.023031
3064	0.063419
3048	0.039911
3032	0.037026
3016	0.009536
3000	0.056791
2984	0.011062
2968	0.102519
2952	0.087833
2936	0.123405
2920	0.114607
2904	0.045228
2888	-0.027871
2872	-0.051784
2856	0.006389
2840	0.170612
2824	0.045824
2808	-0.038790
2792	0.112485
2776	0.042390
2760	0.053191
2744	-0.040411
2728	0.026369
2712	-0.098752
2696	0.121235
2680	-0.001668
2664	0.113153
2648	0.010967
2632	0.032281
2616	0.056815
2600	-0.040149
2584	0.006246
2568	0.022864
2552	0.035667
2536	0.023293
2520	0.071430
2504	0.068950
2488	-0.033450
2472	0.008201
2456	0.107407
2440	-0.048732
2424	-0.143623
2408	0.108981
2392	0.177907
2376	0.059223
2360	0.201535
2344	0.224661
2328	0.280833
2312	0.481581
2296	0.737857
2280	1.041865
2264	1.379489
2248	1.922273
2232	2.658557
2216	3.549814
2200	4.700541
2184	5.962109
2168	7.667851
2152	9.269857
2136	11.171
2120	12.9469
2104	15.0856
2088	17.0115
2072	18.7446
2056	20.7319
2040	22.5582
2024	23.9023
2008	25.5548
1992	26.824
1976	27.7782
1960	28.7114
1944	29.9644
1928	30.5871
1912	30.8945
1896	31.7293
1880	32.5492
1864	32.517
1848	32.8014
1832	33.537
1816	33.6943
1800	33.3987
1784	33.8818
1768	34.4035
1752	34.059
1736	33.9122
1720	34.5597
1704	34.5554
1688	34.1233
1672	34.2828
1656	34.9699
1640	34.6945
1624	34.3344
1608	34.7606
1592	35.0111
1576	34.4564
1560	34.257
1544	34.9648
1528	35.0101
1512	34.3289
1496	34.2528
1480	35.0243
1464	34.7042
1448	34.1388
1432	34.5327
1416	35.0182
1400	34.3983
1384	33.9526
1368	34.7714
1352	34.7614
1336	34.1354
1320	34.1229
1304	34.8984
1288	34.5977
1272	33.8446
1256	34.089
1240	34.8585
1224	34.5166
1208	33.7068
1192	34.2991
1176	34.715
1160	33.9773
1144	33.5841
1128	34.3046
1112	34.4385
1096	33.5947
1080	33.3905
1064	34.1329
1048	33.9052
1032	33.1404
1016	33.2607
1000	34.1526
984	 33.6595
968	 32.6054
952	 33.1116
936	 33.7368
920	 33.0089
904	 32.2832
888	 32.566
872	 33.2106
856	 32.0842
840	 31.6167
824	 32.2488
808	 32.3447
792	 31.1506
776	 31.0578
760	 31.7085
744	 31.1728
728	 30.0341
712	 30.2739
696	 30.8032
680	 30.0277
664	 28.8829
648	 28.9041
632	 29.909
616	 28.4745
600	 27.6948
584	 28.0368
568	 28.2191
552	 26.4621
536	 26.2167
520	 26.0116
504	 26.1999
488	 24.9104
472	 25.1597
456	 24.2397
440	 25.8717
424	 21.8096
408	 21.0711
392	 27.8635
376	 19.0576
370	 23.6245