File: Bakgrunnsmateriale/MATLAB/FTIR/ftir_data/LPE453/Mapping_121/LPE453_t08.asc
PE IR       SPECTRUM    SPECTRUM    ASCII       PEDS        1.60
  -1
LPE399~1.ASC
17/05/16
15:00:19.00
17/05/16
15:00:45.00
tln
$LPE453_t0008$<tbV0>[-5.2,-13.0,8.0,0.0,27,1,0]
27.028
64

2002,4.07
MIRTGS : RIGHTBACK : INTERNAL 2
MIR : ON : INTERNAL 2
OPTKBR

0.200000
8
8.000000
FILLER
RATIO
SPECTRUM
UNLOCKED 256

DOUBLE
64
COMBINED
1
0
0

0.002000
RATIO

1
0
TRUE
51149
0
LEFT NOT FITTED RIGHT NOT FITTED 0
NONE
NONE
15600
12
4.427000
51148
TRUE
1 0 8 72 0 0 0 0

15798

#HDR
-1
-1
#GR
µM
%T
2.38419e-05
0.0
2.000000
0.002000
12515
8
38.9097
-2.639225
#DATA
2.000000	 0.135898
2.084000	 0.456578
2.168000	 -0.234986
2.252000	 -0.390077
2.336000	 -0.014383
2.420000	 0.122354
2.504000	 -0.040484
2.588000	 -0.041566
2.672000	 0.069477
2.756000	 0.204068
2.840000	 0.002719
2.924000	 0.006237
3.008000	 0.183632
3.092000	 -0.034281
3.176000	 0.004839
3.260000	 0.172389
3.344000	 -0.048528
3.428000	 0.027995
3.512000	 0.022091
3.596000	 0.058583
3.680000	 0.100853
3.764000	 0.071062
3.848000	 0.026176
3.932000	 -0.029772
4.016000	 0.098051
4.100000	 0.040838
4.184000	 0.186688
4.268000	 0.119239
4.352000	 0.676576
4.436000	 1.616956
4.520000	 3.537465
4.604000	 6.517795
4.688000	 10.4667
4.772000	 14.7309
4.856000	 18.5009
4.940000	 21.9426
5.024000	 24.5028
5.108000	 26.2368
5.192000	 28.2455
5.276000	 28.712
5.359999	 30.2659
5.444000	 30.0902
5.528000	 31.039
5.612000	 30.8619
5.696000	 31.5065
5.780000	 31.2079
5.864000	 31.6256
5.948000	 32.0791
6.032000	 31.3539
6.116000	 32.2165
6.200000	 31.6575
6.284000	 31.3475
6.368000	 32.2031
6.452000	 31.5151
6.536000	 31.4068
6.620000	 32.1396
6.704000	 31.5495
6.788000	 31.263
6.872000	 32.1345
6.956000	 31.7148
7.040000	 30.9429
7.124000	 31.3056
7.208000	 32.1157
7.292000	 31.3915
7.376000	 30.9371
7.460000	 31.6078
7.544000	 32.0119
7.628000	 31.414
7.712000	 30.9248
7.796000	 31.3164
7.880000	 32.0255
7.964000	 31.6762
8.048000	 31.1783
8.132000	 30.8662
8.216000	 31.6005
8.300000	 31.9082
8.384000	 31.6042
8.468000	 31.0885
8.552000	 30.7523
8.635999	 31.4389
8.719999	 32.003
8.804000	 31.775
8.888000	 31.4871
8.972000	 30.9911
9.056000	 30.8684
9.140000	 31.4913
9.224000	 31.8581
9.308000	 31.9947
9.391999	 31.71
9.475999	 31.1059
9.560000	 30.9316
9.644000	 31.2629
9.728000	 31.7073
9.812000	 32.2506
9.896000	 31.9806
9.980000	 31.4834
10.064	30.9827
10.148	30.8378
10.232	31.1241
10.316	31.6881
10.4	31.8717
10.484	31.9951
10.568	31.6986
10.652	31.1421
10.736	30.9009
10.82	30.7399
10.904	30.8706
10.988	31.4152
11.072	31.782
11.156	31.8292
11.24	31.8721
11.324	31.5701
11.408	31.1513
11.492	30.7912
11.576	30.579
11.66	30.8481
11.744	31.1441
11.828	31.4359
11.912	31.7444
11.996	31.6807
12.08	31.6723
12.164	31.6552
12.248	31.2151
12.332	30.8795
12.416	30.6823
12.5	30.5785
12.584	30.7288
12.668	30.8094
12.752	30.8447
12.836	31.0535
12.92	31.4166
13.004	31.5751
13.088	31.3176
13.172	30.9851
13.256	30.5502
13.34	30.4107
13.424	30.3098
13.508	29.949
13.592	29.6741
13.676	29.8041
13.76	30.1789
13.844	30.5095
13.928	30.6167
14.012	30.7216
14.096	30.917
14.18	31.0411
14.264	30.9597
14.348	30.6878
14.432	30.3139
14.516	29.8931
14.6	29.5768
14.684	29.4187
14.768	29.359
14.852	29.4108
14.936	29.5929
15.02	29.8151
15.104	29.9427
15.188	30.0395
15.272	30.2092
15.356	30.3606
15.44	30.4364
15.524	30.3976
15.608	30.1159
15.692	29.7532
15.776	29.6447
15.86	29.6955
15.944	29.5337
16.028	29.1689
16.112	28.8708
16.196	28.6925
16.28	28.5812
16.364	28.5706
16.448	28.6491
16.532	28.7406
16.616	28.832
16.7	28.9229
16.784	28.9487
16.868	28.888
16.952	28.8178
17.036	28.7958
17.12	28.7986
17.204	28.795
17.288	28.7657
17.372	28.6491
17.456	28.4162
17.54	28.1861
17.624	28.0874
17.708	28.0477
17.792	27.9056
17.876	27.662
17.96	27.4712
18.044	27.4156
18.128	27.4312
18.212	27.4359
18.296	27.4046
18.38	27.3424
18.464	27.2849
18.548	27.3208
18.632	27.5248
18.716	27.8723
18.8	28.245
18.884	28.5128
18.968	28.6026
19.052	28.5248
19.136	28.3368
19.22	28.0875
19.304	27.8003
19.388	27.5073
19.472	27.2719
19.556	27.1417
19.64	27.0852
19.724	27.0041
19.808	26.8207
19.892	26.5333
19.976	26.1985
20.06	25.8806
20.144	25.6173
20.228	25.4328
20.312	25.3708
20.396	25.4812
20.48	25.7765
20.564	26.2068
20.648	26.682
20.732	27.1229
20.816	27.4856
20.9	27.7434
20.984	27.8669
21.068	27.8632
21.152	27.8334
21.236	27.9314
21.32	28.2251
21.404	28.5927
21.488	28.7987
21.572	28.6974
21.656	28.3552
21.74	27.9937
21.824	27.8107
21.908	27.8247
21.992	27.9022
22.076	27.9029
22.16	27.7877
22.244	27.6229
22.328	27.4662
22.412	27.2947
22.496	27.0191
22.58	26.5815
22.664	26.0334
22.748	25.5421
22.832	25.2738
22.916	25.3129
23	25.6024
23.084	26.0048
23.168	26.3458
23.252	26.5042
23.336	26.4501
23.42	26.24
23.504	25.9565
23.588	25.6935
23.672	25.5253
23.756	25.4728
23.84	25.5519
23.924	25.7951
24.008	26.2624
24.092	27.0153
24.176	28.0527
24.26	29.2611
24.344	30.4407
24.428	31.4266
24.512	32.1662
24.596	32.8035
24.68	33.6153
24.764	34.8352
24.848	36.449
24.932	38.0383
25.016	38.8896
25.1	38.2862
25.184	35.8425
25.268	31.7911
25.352	26.8896
25.436	22.213
25.52	18.6962
25.604	16.7989
25.688	16.4313
25.772	17.0888
25.856	18.2103
25.94	19.4203
26.024	20.6426
26.108	22.0466
26.192	23.7843
26.276	25.8127
26.36	27.7935
26.444	29.2273
26.528	29.6443
26.612	28.8989
26.696	27.0816
26.78	24.4609
26.864	21.3921
26.948	18.176
27.028	15.1355