File: Bakgrunnsmateriale/MATLAB/FTIR/ftir_data/LPE453/Mapping_121/LPE453_t30.asc
PE IR       SPECTRUM    SPECTRUM    ASCII       PEDS        1.60
  -1
LPCF99~1.ASC
17/05/16
16:49:33.00
17/05/16
16:49:59.00
tln
$LPE453_t0030$<tbV0>[-5.2,-7.8,8.0,0.0,27,1,0]
27.028
64

2002,4.07
MIRTGS : RIGHTBACK : INTERNAL 2
MIR : ON : INTERNAL 2
OPTKBR

0.200000
8
8.000000
FILLER
RATIO
SPECTRUM
UNLOCKED 256

DOUBLE
64
COMBINED
1
0
0

0.002000
RATIO

1
0
TRUE
51149
0
LEFT NOT FITTED RIGHT NOT FITTED 0
NONE
NONE
15600
12
4.427000
51148
TRUE
1 0 8 72 0 0 0 0

15798

#HDR
-1
-1
#GR
µM
%T
2.38419e-05
0.0
2.000000
0.002000
12515
8
38.1804
-4.964221
#DATA
2.000000	 -0.191950
2.084000	 0.302138
2.168000	 0.706471
2.252000	 -0.937245
2.336000	 0.209001
2.420000	 0.043320
2.504000	 0.062217
2.588000	 0.042384
2.672000	 0.046423
2.756000	 -0.098025
2.840000	 0.079641
2.924000	 0.089129
3.008000	 -0.022261
3.092000	 -0.013671
3.176000	 -0.042173
3.260000	 0.033861
3.344000	 0.090430
3.428000	 -0.018174
3.512000	 0.078703
3.596000	 0.030113
3.680000	 0.002559
3.764000	 0.070393
3.848000	 0.031111
3.932000	 0.044540
4.016000	 0.088010
4.100000	 -0.100086
4.184000	 0.192816
4.268000	 0.358914
4.352000	 0.951228
4.436000	 2.174885
4.520000	 4.768987
4.604000	 8.566943
4.688000	 13.7003
4.772000	 18.8043
4.856000	 23.4872
4.940000	 27.2761
5.024000	 30.1284
5.108000	 32.2905
5.192000	 33.8742
5.276000	 35.1074
5.359999	 35.9579
5.444000	 36.61
5.528000	 37.0651
5.612000	 37.4232
5.696000	 37.5086
5.780000	 37.6277
5.864000	 37.8706
5.948000	 37.8783
6.032000	 37.8987
6.116000	 38.0822
6.200000	 37.9919
6.284000	 38.0673
6.368000	 38.0463
6.452000	 37.6889
6.536000	 38.0194
6.620000	 38.079
6.704000	 37.8384
6.788000	 37.907
6.872000	 38.0964
6.956000	 37.7497
7.040000	 37.7956
7.124000	 38.0783
7.208000	 37.8788
7.292000	 37.7597
7.376000	 37.6778
7.460000	 37.945
7.544000	 37.7565
7.628000	 37.686
7.712000	 37.6529
7.796000	 37.6388
7.880000	 37.7749
7.964000	 37.4786
8.048000	 37.3185
8.132000	 37.4383
8.216000	 37.7938
8.300000	 37.6954
8.384000	 37.4801
8.468000	 37.0925
8.552000	 37.3207
8.635999	 37.4189
8.719999	 37.5165
8.804000	 37.4755
8.888000	 36.9612
8.972000	 36.9526
9.056000	 37.0155
9.140000	 37.3994
9.224000	 37.4274
9.308000	 36.8974
9.391999	 36.6063
9.475999	 36.4801
9.560000	 36.5594
9.644000	 36.8841
9.728000	 37.013
9.812000	 36.9435
9.896000	 36.4799
9.980000	 36.1992
10.064	36.0856
10.148	36.3006
10.232	36.4086
10.316	36.6521
10.4	36.499
10.484	36.3774
10.568	36.2325
10.652	35.9568
10.736	35.6361
10.82	35.6154
10.904	35.7888
10.988	36.1078
11.072	36.2795
11.156	36.0482
11.24	35.732
11.324	35.5547
11.408	35.3357
11.492	35.0328
11.576	35.1129
11.66	35.1983
11.744	35.4001
11.828	35.5497
11.912	35.528
11.996	35.4781
12.08	35.2563
12.164	34.7604
12.248	34.5685
12.332	34.2841
12.416	33.9535
12.5	34.0715
12.584	34.3094
12.668	34.5392
12.752	34.648
12.836	34.6442
12.92	34.7851
13.004	34.8369
13.088	34.4961
13.172	33.8759
13.256	33.2937
13.34	33.3239
13.424	33.2703
13.508	33.1347
13.592	33.3503
13.676	33.5743
13.76	33.6806
13.844	33.6158
13.928	33.792
14.012	34.0508
14.096	34.052
14.18	33.7677
14.264	33.2093
14.348	32.7505
14.432	32.5819
14.516	32.5269
14.6	32.343
14.684	32.196
14.768	32.1104
14.852	31.8771
14.936	31.7953
15.02	32.0675
15.104	32.3652
15.188	32.5919
15.272	32.8698
15.356	32.9517
15.44	32.7308
15.524	32.5487
15.608	32.4665
15.692	32.3085
15.776	32.1597
15.86	32.027
15.944	31.7507
16.028	31.4188
16.112	31.2305
16.196	31.1517
16.28	31.0443
16.364	30.9493
16.448	31.0177
16.532	31.1635
16.616	31.1581
16.7	31.0667
16.784	31.1182
16.868	31.2597
16.952	31.2926
17.036	31.2511
17.12	31.2547
17.204	31.2194
17.288	31.0297
17.372	30.7638
17.456	30.5519
17.54	30.3925
17.624	30.2135
17.708	29.9932
17.792	29.7736
17.876	29.6257
17.96	29.566
18.044	29.5152
18.128	29.4109
18.212	29.3405
18.296	29.4515
18.38	29.7418
18.464	30.0528
18.548	30.2386
18.632	30.243
18.716	30.0756
18.8	29.798
18.884	29.5157
18.968	29.3392
19.052	29.3255
19.136	29.4526
19.22	29.6145
19.304	29.6451
19.388	29.4417
19.472	29.0959
19.556	28.838
19.64	28.8202
19.724	28.979
19.808	29.1152
19.892	29.0718
19.976	28.8231
20.06	28.4441
20.144	28.0485
20.228	27.7399
20.312	27.5595
20.396	27.4601
20.48	27.3691
20.564	27.284
20.648	27.2874
20.732	27.4407
20.816	27.6757
20.9	27.8156
20.984	27.7353
21.068	27.4854
21.152	27.2498
21.236	27.1901
21.32	27.3225
21.404	27.5392
21.488	27.7191
21.572	27.8204
21.656	27.8778
21.74	27.9339
21.824	27.968
21.908	27.8907
21.992	27.6146
22.076	27.1221
22.16	26.5015
22.244	25.9263
22.328	25.5713
22.412	25.5478
22.496	25.8584
22.58	26.3932
22.664	26.9755
22.748	27.419
22.832	27.5979
22.916	27.4751
23	27.149
23.084	26.779
23.168	26.5354
23.252	26.509
23.336	26.673
23.42	26.891
23.504	27.0065
23.588	26.9234
23.672	26.6536
23.756	26.3356
23.84	26.1808
23.924	26.3577
24.008	26.9344
24.092	27.8534
24.176	28.89
24.26	29.7205
24.344	29.9866
24.428	29.4373
24.512	27.9585
24.596	25.6797
24.68	22.96
24.764	20.3041
24.848	18.2066
24.932	17.1337
25.016	17.3567
25.1	18.8356
25.184	21.247
25.268	24.0033
25.352	26.3378
25.436	27.3742
25.52	26.4422
25.604	23.3076
25.688	18.1841
25.772	11.7687
25.856	5.092528
25.94	-0.632742
26.024	-4.210995
26.108	-4.814905
26.192	-2.265476
26.276	2.939408
26.36	9.631543
26.444	16.5448
26.528	22.5829
26.612	27.023
26.696	29.2108
26.78	28.4886
26.864	24.2076
26.948	16.1469
27.028	5.660724