File: Bakgrunnsmateriale/MATLAB/FTIR/ftir_data/LPE453/Mapping_121/LPE453_t104.asc
PE IR       SPECTRUM    SPECTRUM    ASCII       PEDS        1.60
  -1
LP9386~1.ASC
17/05/16
22:53:23.00
17/05/16
22:53:49.00
tln
$LPE453_t0104$<tbV0>[2.6,10.4,8.0,0.0,27,1,0]
27.028
64

2002,4.07
MIRTGS : RIGHTBACK : INTERNAL 2
MIR : ON : INTERNAL 2
OPTKBR

0.200000
8
8.000000
FILLER
RATIO
SPECTRUM
UNLOCKED 256

DOUBLE
64
COMBINED
1
0
0

0.002000
RATIO

1
0
TRUE
51149
0
LEFT NOT FITTED RIGHT NOT FITTED 0
NONE
NONE
15600
12
4.427000
51148
TRUE
1 0 8 72 0 0 0 0

15798

#HDR
-1
-1
#GR
µM
%T
2.38419e-05
0.0
2.000000
0.002000
12515
8
36.6557
-11.6789
#DATA
2.000000	 -0.154924
2.084000	 0.135051
2.168000	 1.452812
2.252000	 -1.526204
2.336000	 -0.384554
2.420000	 0.254432
2.504000	 0.118208
2.588000	 -0.027501
2.672000	 0.034741
2.756000	 0.039960
2.840000	 0.097800
2.924000	 0.033362
3.008000	 0.031369
3.092000	 -0.050230
3.176000	 0.050990
3.260000	 0.060748
3.344000	 -0.065183
3.428000	 0.090624
3.512000	 -0.025442
3.596000	 0.131898
3.680000	 0.030208
3.764000	 0.023650
3.848000	 0.045383
3.932000	 0.059737
4.016000	 0.126135
4.100000	 0.000428
4.184000	 0.091100
4.268000	 0.298521
4.352000	 0.988595
4.436000	 2.184576
4.520000	 4.649856
4.604000	 8.328593
4.688000	 12.9832
4.772000	 17.8854
4.856000	 22.3023
4.940000	 25.9634
5.024000	 28.8537
5.108000	 30.9795
5.192000	 32.5781
5.276000	 33.7165
5.359999	 34.6445
5.444000	 35.0927
5.528000	 35.6837
5.612000	 35.7096
5.696000	 36.0993
5.780000	 36.2403
5.864000	 36.3095
5.948000	 36.4365
6.032000	 36.4352
6.116000	 36.4504
6.200000	 36.4207
6.284000	 36.4933
6.368000	 36.4209
6.452000	 36.4116
6.536000	 36.4455
6.620000	 36.5514
6.704000	 36.4448
6.788000	 36.4604
6.872000	 36.3534
6.956000	 36.3099
7.040000	 36.3471
7.124000	 36.4536
7.208000	 36.2625
7.292000	 36.2812
7.376000	 36.2713
7.460000	 36.3858
7.544000	 36.3112
7.628000	 36.2768
7.712000	 36.2871
7.796000	 36.2414
7.880000	 36.126
7.964000	 35.9921
8.048000	 35.9179
8.132000	 36.1225
8.216000	 36.1032
8.300000	 36.0368
8.384000	 35.9795
8.468000	 35.9282
8.552000	 35.8162
8.635999	 36.0744
8.719999	 35.8995
8.804000	 35.6854
8.888000	 35.7296
8.972000	 35.5607
9.056000	 35.7371
9.140000	 35.7072
9.224000	 35.8596
9.308000	 35.8032
9.391999	 35.4347
9.475999	 35.3206
9.560000	 35.3723
9.644000	 35.3873
9.728000	 35.5641
9.812000	 35.44
9.896000	 35.2377
9.980000	 34.9547
10.064	34.8256
10.148	34.9718
10.232	35.1557
10.316	35.1059
10.4	35.106
10.484	35.104
10.568	34.8177
10.652	34.6462
10.736	34.5553
10.82	34.5566
10.904	34.3608
10.988	34.4678
11.072	34.6362
11.156	34.5897
11.24	34.4341
11.324	34.2329
11.408	34.032
11.492	33.9801
11.576	33.9693
11.66	33.9932
11.744	33.9093
11.828	33.8994
11.912	33.9637
11.996	33.8727
12.08	33.5937
12.164	33.3252
12.248	33.2936
12.332	33.3357
12.416	33.386
12.5	33.3975
12.584	33.4557
12.668	33.3245
12.752	33.2638
12.836	33.2796
12.92	33.1887
13.004	32.8537
13.088	32.5458
13.172	32.3401
13.256	32.5124
13.34	32.9143
13.424	32.9584
13.508	32.8112
13.592	32.7382
13.676	32.6406
13.76	32.4932
13.844	32.307
13.928	32.1651
14.012	32.2375
14.096	32.2487
14.18	32.0424
14.264	31.8136
14.348	31.7287
14.432	31.6551
14.516	31.3959
14.6	31.1845
14.684	31.1701
14.768	31.2491
14.852	31.3454
14.936	31.4423
15.02	31.4664
15.104	31.3298
15.188	31.1351
15.272	31.0724
15.356	31.176
15.44	31.1908
15.524	30.9036
15.608	30.5393
15.692	30.3981
15.776	30.4385
15.86	30.4574
15.944	30.3409
16.028	30.1319
16.112	29.9593
16.196	29.8917
16.28	29.9277
16.364	30.0372
16.448	30.1291
16.532	30.1233
16.616	30.0765
16.7	30.0636
16.784	30.0389
16.868	29.9878
16.952	29.9918
17.036	30.0409
17.12	29.9828
17.204	29.7319
17.288	29.4007
17.372	29.1514
17.456	29.0162
17.54	28.9247
17.624	28.8308
17.708	28.7381
17.792	28.6452
17.876	28.5509
17.96	28.4943
18.044	28.5231
18.128	28.6276
18.212	28.7476
18.296	28.8535
18.38	28.9738
18.464	29.1238
18.548	29.2423
18.632	29.2311
18.716	29.05
18.8	28.7564
18.884	28.4542
18.968	28.2213
19.052	28.075
19.136	27.9878
19.22	27.9232
19.304	27.8659
19.388	27.811
19.472	27.7406
19.556	27.6349
19.64	27.5047
19.724	27.3832
19.808	27.2897
19.892	27.2061
19.976	27.0986
20.06	26.9522
20.144	26.7907
20.228	26.667
20.312	26.6377
20.396	26.7332
20.48	26.938
20.564	27.1975
20.648	27.4616
20.732	27.7151
20.816	27.9668
20.9	28.2018
20.984	28.352
21.068	28.3175
21.152	28.0331
21.236	27.5276
21.32	26.9225
21.404	26.3821
21.488	26.0277
21.572	25.8893
21.656	25.9029
21.74	25.9526
21.824	25.9436
21.908	25.8472
21.992	25.6808
22.076	25.4627
22.16	25.1819
22.244	24.8141
22.328	24.3717
22.412	23.9256
22.496	23.5958
22.58	23.5029
22.664	23.7182
22.748	24.2111
22.832	24.853
22.916	25.4648
23	25.8564
23.084	25.9179
23.168	25.6572
23.252	25.1846
23.336	24.6694
23.42	24.2986
23.504	24.1922
23.588	24.3822
23.672	24.8188
23.756	25.3585
23.84	25.8302
23.924	26.0565
24.008	25.9201
24.092	25.4288
24.176	24.7365
24.26	24.15
24.344	24.0581
24.428	24.7263
24.512	26.1925
24.596	28.1769
24.68	30.1113
24.764	31.3102
24.848	31.2333
24.932	29.6162
25.016	26.6016
25.1	22.6409
25.184	18.3668
25.268	14.3631
25.352	11.0235
25.436	8.546588
25.52	6.938522
25.604	6.088499
25.688	5.745819
25.772	5.585266
25.856	5.311809
25.94	4.717208
26.024	3.744158
26.108	2.499405
26.192	1.168653
26.276	-0.085866
26.36	-1.215222
26.444	-2.258339
26.528	-3.304681
26.612	-4.418041
26.696	-5.643933
26.78	-6.993410
26.864	-8.482373
26.948	-10.1003
27.028	-11.6789