File: Bakgrunnsmateriale/MATLAB/FTIR/ftir_data/LPE453/Mapping_121/LPE453_t86_cm-1.asc
PE IR       SPECTRUM    SPECTRUM    ASCII       PEDS        1.60
  -1
LP6B5A~1.ASC
17/05/16
21:23:18.00
17/05/16
21:23:18.00
tln
$LPE453_t0086$<tbV0>[-7.8,5.2,8.0,0.0,27,1,0]
370
64

2002,4.07
MIRTGS : RIGHTBACK : INTERNAL 2
MIR : ON : INTERNAL 2
OPTKBR

0.200000
8
8.000000
FILLER
RATIO
SPECTRUM
UNLOCKED 256

DOUBLE
64
COMBINED
1
0
0

1.000000
RATIO

1
0
TRUE
51149
0
LEFT NOT FITTED RIGHT NOT FITTED 0
NONE
NONE
15600
12
4.427000
51148
TRUE
1 0 8 72 0 0 0 0

15798

#HDR
-1
-1
#GR
CM-1
%T
2.38419e-05
0.0
5000
-1.000000
4631
8
37.0356
-1.789474
#DATA
5000	0.585174
4984	0.074505
4968	0.198292
4952	-0.034189
4936	-0.353693
4920	0.419616
4904	0.442814
4888	0.094079
4872	0.265955
4856	0.043702
4840	0.067162
4824	0.330829
4808	-0.249290
4792	0.497674
4776	0.042271
4760	-0.010442
4744	-0.049400
4728	0.575804
4712	0.040054
4696	0.686931
4680	-0.756573
4664	-0.899410
4648	0.174927
4632	-0.338149
4616	-0.060558
4600	1.071357
4584	0.831627
4568	-0.493860
4552	0.056433
4536	0.540256
4520	-0.347137
4504	-0.183725
4488	13.4031
4472	-1.751828
4456	-0.276494
4440	0.059938
4424	0.247764
4408	-0.744152
4392	-0.140428
4376	-0.077271
4360	0.569987
4344	0.484228
4328	0.267338
4312	0.259900
4296	-0.187611
4280	-0.049352
4264	-0.093960
4248	-0.072789
4232	-0.005364
4216	-0.188350
4200	0.109958
4184	0.352120
4168	0.250720
4152	0.084805
4136	0.039243
4120	0.233983
4104	0.174140
4088	0.172615
4072	-0.011658
4056	0.155258
4040	0.061130
4024	-0.000524
4008	0.218772
3992	-0.152850
3976	0.131297
3960	0.051069
3944	0.088834
3928	0.073194
3912	-0.071930
3896	0.028252
3880	0.151991
3864	-0.114035
3848	0.263023
3832	0.083136
3816	0.051307
3800	0.112724
3784	0.133657
3768	0.128412
3752	-0.040578
3736	0.119423
3720	0.095510
3704	0.063490
3688	-0.003862
3672	0.134682
3656	-0.119304
3640	0.010061
3624	-0.047254
3608	0.003695
3592	0.024151
3576	0.082445
3560	-0.107026
3544	-0.054097
3528	-0.000095
3512	-0.014972
3496	0.052976
3480	0.101947
3464	-0.037264
3448	0.059437
3432	0.108957
3416	0.020003
3400	-0.015497
3384	-0.057721
3368	-0.006985
3352	0.049781
3336	0.112271
3320	0.035262
3304	0.029134
3288	-0.076842
3272	0.043964
3256	-0.021004
3240	0.112414
3224	-0.053000
3208	0.032329
3192	0.243139
3176	0.084352
3160	0.043559
3144	-0.049829
3128	0.116467
3112	0.268650
3096	-0.073266
3080	-0.010228
3064	-0.107049
3048	-0.082373
3032	-0.079607
3016	0.082349
3000	0.007224
2984	-0.013256
2968	0.092554
2952	0.097894
2936	0.015830
2920	-0.001144
2904	0.056123
2888	0.143742
2872	0.039649
2856	0.105977
2840	0.173830
2824	-0.003814
2808	0.028419
2792	0.033497
2776	-0.043153
2760	0.024104
2744	0.041913
2728	0.028800
2712	-0.137972
2696	0.084805
2680	0.030922
2664	0.045800
2648	0.013470
2632	0.018191
2616	0.145244
2600	0.075840
2584	0.106883
2568	-0.017595
2552	0.051188
2536	0.012636
2520	-0.013566
2504	0.087118
2488	0.128555
2472	-0.095987
2456	0.019907
2440	0.015878
2424	0.021171
2408	-0.081753
2392	0.123620
2376	0.074076
2360	0.262188
2344	0.197291
2328	0.319290
2312	0.622391
2296	0.839471
2280	1.106071
2264	1.602578
2248	2.243518
2232	3.001546
2216	3.907608
2200	5.274415
2184	6.523799
2168	8.436012
2152	10.347
2136	12.4031
2120	14.3419
2104	16.6776
2088	18.8241
2072	20.9909
2056	22.7178
2040	24.6183
2024	26.1615
2008	27.6334
1992	29.0318
1976	30.1493
1960	31.0948
1944	32.0339
1928	32.864
1912	33.5968
1896	34.0418
1880	34.5598
1864	35.0303
1848	35.263
1832	35.5823
1816	35.89
1800	36.1073
1784	36.2204
1768	36.3583
1752	36.6022
1736	36.5256
1720	36.5038
1704	36.7835
1688	36.778
1672	36.5391
1656	36.7931
1640	36.9539
1624	36.819
1608	36.7052
1592	36.8396
1576	36.8289
1560	36.7105
1544	36.5445
1528	36.7748
1512	36.8784
1496	36.4565
1480	36.5318
1464	36.7224
1448	36.5645
1432	36.2623
1416	36.5332
1400	36.702
1384	36.308
1368	36.1169
1352	36.3954
1336	36.2605
1320	36.0585
1304	36.1367
1288	36.3753
1272	36.198
1256	35.759
1240	35.9698
1224	36.1604
1208	35.9172
1192	35.4923
1176	35.908
1160	35.9513
1144	35.3847
1128	35.3137
1112	35.6566
1096	35.5329
1080	35.1395
1064	34.9872
1048	35.6026
1032	35.0514
1016	34.763
1000	34.6267
984	 35.252
968	 34.5951
952	 34.0655
936	 34.3796
920	 34.5255
904	 33.859
888	 33.3789
872	 33.8208
856	 33.9747
840	 33.0981
824	 32.9772
808	 33.2573
792	 32.7691
776	 32.0911
760	 32.1461
744	 32.3241
728	 31.7262
712	 30.9203
696	 31.4821
680	 31.292
664	 30.356
648	 29.7466
632	 30.2114
616	 29.6
600	 28.9444
584	 28.7173
568	 28.2485
552	 27.9786
536	 26.5705
520	 26.6172
504	 27.2663
488	 25.9143
472	 24.763
456	 24.7948
440	 23.2271
424	 22.0015
408	 16.7506
392	 24.5555
376	 12.105
370	 23.175