File: Bakgrunnsmateriale/MATLAB/FTIR/ftir_data/LPE453/Mapping_121/LPE453_t69_cm-1.asc
PE IR       SPECTRUM    SPECTRUM    ASCII       PEDS        1.60
  -1
LP6AD9~1.ASC
17/05/16
20:04:17.00
17/05/16
20:04:17.00
tln
$LPE453_t0069$<tbV0>[7.8,2.6,8.0,0.0,27,1,0]
370
64

2002,4.07
MIRTGS : RIGHTBACK : INTERNAL 2
MIR : ON : INTERNAL 2
OPTKBR

0.200000
8
8.000000
FILLER
RATIO
SPECTRUM
UNLOCKED 256

DOUBLE
64
COMBINED
1
0
0

1.000000
RATIO

1
0
TRUE
51149
0
LEFT NOT FITTED RIGHT NOT FITTED 0
NONE
NONE
15600
12
4.427000
51148
TRUE
1 0 8 72 0 0 0 0

15798

#HDR
-1
-1
#GR
CM-1
%T
2.38419e-05
0.0
5000
-1.000000
4631
8
29.3076
-8.951997
#DATA
5000	0.450301
4984	0.305628
4968	-0.012683
4952	0.616526
4936	0.187778
4920	0.179386
4904	0.127434
4888	-0.026416
4872	0.176501
4856	0.167775
4840	0.151991
4824	0.208473
4808	0.078725
4792	-0.396537
4776	0.439929
4760	0.329661
4744	0.120425
4728	0.311756
4712	-0.841879
4696	1.797938
4680	0.066375
4664	0.380825
4648	-0.310134
4632	0.054240
4616	-0.023007
4600	0.484442
4584	0.294804
4568	0.014114
4552	0.000715
4536	0.055241
4520	-0.602269
4504	1.687264
4488	15.9899
4472	1.359915
4456	-0.817418
4440	-0.660133
4424	0.205826
4408	0.202894
4392	0.250720
4376	0.183820
4360	-0.150322
4344	0.628685
4328	0.344419
4312	0.517439
4296	0.478577
4280	0.200200
4264	-0.283288
4248	-0.117230
4232	-0.140738
4216	0.169944
4200	-0.018429
4184	0.643396
4168	0.343537
4152	0.196146
4136	0.108504
4120	-0.236964
4104	-0.024771
4088	0.122070
4072	-0.037789
4056	-0.166320
4040	0.066065
4024	0.328755
4008	-0.170016
3992	0.076055
3976	0.134539
3960	0.199675
3944	0.031232
3928	0.122094
3912	0.167322
3896	-0.027799
3880	0.023460
3864	-0.004982
3848	0.116324
3832	-0.024008
3816	0.097918
3800	0.216794
3784	0.089216
3768	0.033020
3752	0.030231
3736	0.090169
3720	0.052499
3704	0.174331
3688	0.057077
3672	0.120186
3656	-0.034165
3640	0.012278
3624	0.026249
3608	0.035929
3592	-0.008058
3576	0.048351
3560	0.076556
3544	0.102543
3528	0.232028
3512	0.069975
3496	0.019025
3480	0.030851
3464	0.062346
3448	-0.049328
3432	0.139641
3416	-0.102543
3400	0.005102
3384	0.002598
3368	0.013542
3352	-0.110912
3336	0.264453
3320	0.096821
3304	0.073099
3288	0.085139
3272	0.195765
3256	0.063180
3240	0.020265
3224	-0.008153
3208	-0.042319
3192	-0.072360
3176	0.039100
3160	0.149989
3144	0.056099
3128	0.028777
3112	-0.072145
3096	0.048875
3080	0.138211
3064	0.020217
3048	-0.061154
3032	-0.018739
3016	0.036811
3000	0.079751
2984	-0.142526
2968	0.150537
2952	0.053501
2936	-0.018453
2920	-0.071859
2904	0.116038
2888	0.023388
2872	-0.019359
2856	0.106477
2840	0.153255
2824	-0.032186
2808	0.035381
2792	0.080513
2776	0.056004
2760	-0.005626
2744	0.044775
2728	0.015091
2712	-0.008964
2696	-0.059914
2680	0.047373
2664	0.072169
2648	0.027561
2632	0.098228
2616	0.121617
2600	-0.035405
2584	-0.052118
2568	0.020718
2552	0.097060
2536	0.113868
2520	0.157499
2504	-0.077152
2488	0.134706
2472	0.044131
2456	0.023770
2440	-0.089836
2424	0.177311
2408	-0.001835
2392	-0.044083
2376	-0.009298
2360	-0.043940
2344	-0.054335
2328	-0.034570
2312	0.039696
2296	0.038146
2280	0.134563
2264	0.171065
2248	0.301241
2232	0.538444
2216	0.871515
2200	1.448535
2184	1.865196
2168	2.903151
2152	3.671717
2136	4.924607
2120	6.318354
2104	7.808899
2088	9.541320
2072	10.9928
2056	12.7511
2040	14.2675
2024	15.8796
2008	17.2969
1992	18.6683
1976	19.8723
1960	20.9896
1944	21.9168
1928	22.779
1912	23.6011
1896	24.2799
1880	24.8643
1864	25.2989
1848	25.6369
1832	26.0334
1816	26.2681
1800	26.7234
1784	26.8716
1768	27.0156
1752	27.2662
1736	27.2619
1720	27.5251
1704	27.4039
1688	27.5828
1672	27.5588
1656	27.6123
1640	27.653
1624	27.5744
1608	27.4966
1592	27.5681
1576	27.4747
1560	27.4959
1544	27.5817
1528	27.4591
1512	27.4611
1496	27.2042
1480	27.2095
1464	27.169
1448	27.2528
1432	27.159
1416	27.1581
1400	27.0422
1384	27.1391
1368	26.9935
1352	26.9205
1336	26.8983
1320	26.8071
1304	26.7779
1288	26.6819
1272	26.5811
1256	26.5691
1240	26.3367
1224	26.2826
1208	26.3407
1192	26.3243
1176	26.0935
1160	26.0236
1144	25.8429
1128	25.9126
1112	25.8132
1096	25.4998
1080	25.5048
1064	25.3516
1048	25.232
1032	24.9104
1016	24.9312
1000	24.6804
984	 24.5746
968	 24.4405
952	 24.1241
936	 23.8137
920	 23.9045
904	 23.6907
888	 23.2159
872	 23.0276
856	 22.7377
840	 22.6128
824	 22.4206
808	 21.9367
792	 21.8156
776	 21.26
760	 20.6836
744	 20.9362
728	 20.5464
712	 20.0826
696	 19.5305
680	 19.242
664	 19.0045
648	 18.6587
632	 17.8849
616	 17.6235
600	 17.5438
584	 17.1993
568	 16.5998
552	 15.953
536	 16.0778
520	 15.3098
504	 14.6802
488	 13.4732
472	 13.9826
456	 13.5417
440	 12.1774
424	 10.7293
408	 16.1538
392	 20.1562
376	 -5.512070
370	 6.894373