File: Bakgrunnsmateriale/MATLAB/FTIR/ftir_data/LPE453/Mapping_121/LPE453_t111_cm-1.asc
PE IR       SPECTRUM    SPECTRUM    ASCII       PEDS        1.60
  -1
LP04FC~1.ASC
17/05/16
23:31:51.00
17/05/16
23:31:51.00
tln
$LPE453_t0111$<tbV0>[13.0,13.0,8.0,0.0,27,1,0]
370
64

2002,4.07
MIRTGS : RIGHTBACK : INTERNAL 2
MIR : ON : INTERNAL 2
OPTKBR

0.200000
8
8.000000
FILLER
RATIO
SPECTRUM
UNLOCKED 256

DOUBLE
64
COMBINED
1
0
0

1.000000
RATIO

1
0
TRUE
51149
0
LEFT NOT FITTED RIGHT NOT FITTED 0
NONE
NONE
15600
12
4.427000
51148
TRUE
1 0 8 72 0 0 0 0

15798

#HDR
-1
-1
#GR
CM-1
%T
2.38419e-05
0.0
5000
-1.000000
4631
8
19.7411
-6.063604
#DATA
5000	-0.153827
4984	-0.152516
4968	0.415873
4952	0.114440
4936	0.248026
4920	-0.234532
4904	0.217247
4888	0.171732
4872	-0.366353
4856	0.065994
4840	0.211286
4824	0.020837
4808	0.435066
4792	0.370717
4776	-0.409269
4760	0.120925
4744	0.291991
4728	0.312733
4712	0.179672
4696	0.347590
4680	-1.386642
4664	0.427007
4648	-0.955128
4632	1.676607
4616	0.262522
4600	1.057791
4584	0.694847
4568	0.595903
4552	-0.518250
4536	0.759816
4520	-0.045752
4504	4.200339
4488	2.138328
4472	-1.016879
4456	-0.624966
4440	-0.602650
4424	0.280880
4408	0.293040
4392	0.896978
4376	-0.118255
4360	0.465965
4344	0.051784
4328	-0.037837
4312	0.249242
4296	-0.123858
4280	0.090265
4264	0.168251
4248	-0.135636
4232	0.355648
4216	-0.082635
4200	0.026392
4184	0.438284
4168	0.649333
4152	0.053381
4136	0.038528
4120	0.179576
4104	0.044727
4088	-0.023913
4072	0.081658
4056	-0.106573
4040	-0.009083
4024	0.105643
4008	0.122237
3992	-0.308942
3976	-0.016307
3960	0.226521
3944	-0.066781
3928	-0.013399
3912	0.073289
3896	0.192213
3880	-0.013875
3864	-0.172662
3848	0.247550
3832	0.082850
3816	0.192785
3800	0.105738
3784	-0.109720
3768	0.160884
3752	-0.027251
3736	-0.067114
3720	-0.058031
3704	0.148367
3688	0.008296
3672	0.153255
3656	0.086665
3640	-0.008606
3624	-0.019264
3608	0.110721
3592	-0.162458
3576	0.060248
3560	-0.061035
3544	0.013375
3528	0.109004
3512	0.046610
3496	0.070881
3480	0.101804
3464	0.058460
3448	0.054883
3432	0.046849
3416	0.067400
3400	0.152397
3384	0.251626
3368	0.136566
3352	0.070834
3336	-0.030612
3320	0.186228
3304	0.014805
3288	-0.200748
3272	0.086355
3256	0.103449
3240	-0.005054
3224	0.147843
3208	-0.061988
3192	-0.060772
3176	0.085449
3160	-0.089812
3144	0.051999
3128	0.139641
3112	-0.082421
3096	0.024843
3080	0.144219
3064	0.017237
3048	0.012898
3032	0.017261
3016	0.080633
3000	-0.168728
2984	0.063991
2968	0.143361
2952	0.037693
2936	0.031995
2920	0.095057
2904	-0.129556
2888	0.160098
2872	-0.039124
2856	0.135111
2840	0.005722
2824	0.068402
2808	-0.003743
2792	0.111913
2776	0.033044
2760	0.068902
2744	-0.060439
2728	0.062751
2712	-0.045871
2696	0.025439
2680	0.111198
2664	0.021457
2648	0.021457
2632	0.047731
2616	-0.003814
2600	0.012421
2584	0.033068
2568	0.172114
2552	-0.091791
2536	0.055956
2520	0.023317
2504	-0.005674
2488	0.087189
2472	0.079798
2456	0.011944
2440	0.066518
2424	0.061178
2408	0.160455
2392	0.064468
2376	-0.023412
2360	-0.039219
2344	-0.032091
2328	-0.037455
2312	0.043702
2296	-0.005292
2280	0.073647
2264	0.092148
2248	0.087404
2232	0.289320
2216	0.418472
2200	0.591969
2184	0.841307
2168	1.422929
2152	2.054882
2136	2.574610
2120	3.330922
2104	4.164457
2088	5.248713
2072	6.215882
2056	7.371497
2040	8.262634
2024	9.376263
2008	10.2039
1992	11.1921
1976	12.2096
1960	12.9019
1944	13.7651
1928	14.2916
1912	14.9941
1896	15.6649
1880	16.1394
1864	16.5153
1848	16.9386
1832	17.2819
1816	17.6105
1800	17.8332
1784	18.1152
1768	18.2898
1752	18.5516
1736	18.6158
1720	18.7216
1704	18.8714
1688	19.095
1672	19.0974
1656	19.3156
1640	19.3789
1624	19.4796
1608	19.4374
1592	19.4834
1576	19.5865
1560	19.6559
1544	19.6264
1528	19.6181
1512	19.6717
1496	19.5063
1480	19.5686
1464	19.5642
1448	19.6494
1432	19.605
1416	19.5687
1400	19.524
1384	19.3935
1368	19.4247
1352	19.4334
1336	19.3827
1320	19.2965
1304	19.1467
1288	19.0748
1272	19.0755
1256	18.9255
1240	18.589
1224	18.5178
1208	18.5964
1192	18.3623
1176	18.2703
1160	18.2879
1144	18.1694
1128	17.9953
1112	17.6908
1096	17.5898
1080	17.3148
1064	17.2963
1048	17.1725
1032	16.9159
1016	16.7505
1000	16.6484
984	 16.4346
968	 16.1797
952	 16.0351
936	 15.9882
920	 15.7872
904	 15.4513
888	 15.4222
872	 14.978
856	 14.8198
840	 14.7748
824	 14.4129
808	 14.1117
792	 14.0264
776	 13.8188
760	 13.5537
744	 13.2812
728	 13.1403
712	 12.806
696	 12.8198
680	 12.2916
664	 11.5759
648	 11.4685
632	 11.1687
616	 11.2642
600	 10.7199
584	 10.3051
568	 10.4264
552	 10.0475
536	 9.356021
520	 8.861184
504	 9.218263
488	 8.282041
472	 8.186769
456	 8.061718
440	 7.185173
424	 3.509616
408	 3.933382
392	 9.378933
376	 14.4534
370	 -0.041055