File: Bakgrunnsmateriale/MATLAB/FTIR/ftir_data/LPE453/Mapping_121/LPE453_t93_cm-1.asc
PE IR       SPECTRUM    SPECTRUM    ASCII       PEDS        1.60
  -1
LPDBD5~1.ASC
17/05/16
22:02:03.00
17/05/16
22:02:03.00
tln
$LPE453_t0093$<tbV0>[2.6,7.8,8.0,0.0,27,1,0]
370
64

2002,4.07
MIRTGS : RIGHTBACK : INTERNAL 2
MIR : ON : INTERNAL 2
OPTKBR

0.200000
8
8.000000
FILLER
RATIO
SPECTRUM
UNLOCKED 256

DOUBLE
64
COMBINED
1
0
0

1.000000
RATIO

1
0
TRUE
51149
0
LEFT NOT FITTED RIGHT NOT FITTED 0
NONE
NONE
15600
12
4.427000
51148
TRUE
1 0 8 72 0 0 0 0

15798

#HDR
-1
-1
#GR
CM-1
%T
2.38419e-05
0.0
5000
-1.000000
4631
8
35.2691
-36.1992
#DATA
5000	0.520515
4984	0.205540
4968	0.288248
4952	0.265717
4936	0.145459
4920	0.201058
4904	-0.079560
4888	-0.316977
4872	0.385403
4856	0.454521
4840	0.354647
4824	0.713253
4808	0.308895
4792	0.463438
4776	0.264668
4760	0.530171
4744	-0.158715
4728	0.579190
4712	0.551152
4696	0.512003
4680	1.424145
4664	-0.428009
4648	-0.826811
4632	1.594877
4616	0.654768
4600	0.335264
4584	1.191020
4568	-1.027655
4552	-1.539254
4536	-1.469588
4520	-0.804448
4504	10.4595
4488	18.6014
4472	-1.840734
4456	-1.290941
4440	-1.631116
4424	0.037217
4408	0.565958
4392	1.333308
4376	0.561952
4360	0.478577
4344	0.556898
4328	0.542354
4312	-0.028276
4296	0.395202
4280	-0.005650
4264	0.201272
4248	0.540137
4232	0.481963
4216	0.109648
4200	0.022840
4184	-0.091528
4168	0.103306
4152	0.267148
4136	0.127482
4120	0.158357
4104	0.189709
4088	0.200176
4072	0.092768
4056	0.056767
4040	-0.006246
4024	0.055170
4008	0.150537
3992	0.019073
3976	0.158905
3960	-0.043749
3944	0.035166
3928	0.370645
3912	-0.133132
3896	0.113272
3880	0.073719
3864	-0.010561
3848	0.120472
3832	0.150394
3816	-0.005793
3800	-0.044655
3784	0.093626
3768	0.171709
3752	0.121593
3736	0.091695
3720	0.201272
3704	0.103330
3688	-0.002503
3672	0.248265
3656	-0.002980
3640	-0.066304
3624	-0.035166
3608	0.012803
3592	-0.004744
3576	0.123476
3560	0.198721
3544	0.094151
3528	0.112247
3512	-0.053882
3496	0.038266
3480	0.003385
3464	-0.070381
3448	0.246357
3432	0.079107
3416	-0.089693
3400	0.142765
3384	-0.014066
3368	-0.036954
3352	-0.053119
3336	0.116777
3320	0.060081
3304	0.060987
3288	-0.019574
3272	-0.018048
3256	0.038242
3240	0.060105
3224	0.031423
3208	-0.024795
3192	-0.010895
3176	0.029444
3160	0.107741
3144	0.123977
3128	0.174522
3112	0.239586
3096	0.170302
3080	0.090456
3064	0.042748
3048	0.062680
3032	-0.014662
3016	-0.051808
3000	0.104522
2984	0.126171
2968	0.024676
2952	-0.074505
2936	-0.028061
2920	0.085330
2904	0.108528
2888	-0.044059
2872	-0.018954
2856	0.083136
2840	0.097489
2824	0.074434
2808	0.073838
2792	-0.032067
2776	0.123190
2760	0.053071
2744	-0.012254
2728	0.130438
2712	-0.054574
2696	-0.139307
2680	0.086307
2664	-0.086426
2648	0.050163
2632	0.017333
2616	-0.020718
2600	-0.013351
2584	0.034785
2568	0.066089
2552	0.103640
2536	0.061631
2520	-0.127720
2504	0.040602
2488	-0.074744
2472	0.098729
2456	0.207424
2440	-0.056147
2424	-0.021433
2408	0.101876
2392	-0.009107
2376	0.004267
2360	0.124263
2344	0.074791
2328	0.199270
2312	0.354266
2296	0.562310
2280	0.849485
2264	1.249861
2248	1.804542
2232	2.468299
2216	3.334021
2200	4.374480
2184	5.790376
2168	7.385349
2152	9.079980
2136	11.0004
2120	12.8416
2104	15.0453
2088	17.1207
2072	18.8729
2056	20.9177
2040	22.6041
2024	24.1364
2008	25.7057
1992	27.0961
1976	27.9612
1960	28.9075
1944	30.0592
1928	30.5597
1912	31.2261
1896	32.1193
1880	32.3916
1864	32.7027
1848	33.314
1832	33.6841
1816	33.5101
1800	33.8867
1784	34.3535
1768	34.2683
1752	34.2239
1736	34.7002
1720	34.7276
1704	34.3083
1688	34.7265
1672	34.9691
1656	34.598
1640	34.4791
1624	35.1022
1608	34.9543
1592	34.4563
1576	34.8673
1560	35.089
1544	34.7225
1528	34.5342
1512	35.2432
1496	34.8209
1480	34.4284
1464	34.5791
1448	35.0413
1432	34.241
1416	34.3163
1400	34.8219
1384	34.5695
1368	34.174
1352	34.5248
1336	34.6411
1320	34.1286
1304	34.0464
1288	34.618
1272	34.371
1256	33.6713
1240	34.085
1224	34.5214
1208	33.6797
1192	33.4173
1176	34.1787
1160	33.8396
1144	33.2188
1128	33.4958
1112	33.9171
1096	33.0333
1080	33.039
1064	33.4725
1048	33.4477
1032	32.6603
1016	32.6611
1000	33.1953
984	 32.8166
968	 31.853
952	 32.5883
936	 32.5298
920	 31.7549
904	 31.3937
888	 32.1454
872	 31.6043
856	 30.5599
840	 31.0573
824	 31.1718
808	 30.0296
792	 29.7557
776	 30.7007
760	 29.9263
744	 28.9528
728	 29.3541
712	 29.5313
696	 28.5868
680	 27.5132
664	 27.9527
648	 28.0305
632	 26.6821
616	 26.7018
600	 26.8888
584	 25.7865
568	 25.1877
552	 24.8794
536	 25.1237
520	 23.9616
504	 23.2632
488	 24.2342
472	 23.728
456	 21.563
440	 21.3549
424	 20.9715
408	 18.9591
392	 19.5375
376	 -34.3661
370	 -21.5941