File: Bakgrunnsmateriale/MATLAB/FTIR/ftir_data/LPE453/Mapping_121/LPE453_t18.asc
PE IR       SPECTRUM    SPECTRUM    ASCII       PEDS        1.60
  -1
LPE799~1.ASC
17/05/16
15:47:04.00
17/05/16
15:47:30.00
tln
$LPE453_t0018$<tbV0>[-2.6,-10.4,8.0,0.0,27,1,0]
27.028
64

2002,4.07
MIRTGS : RIGHTBACK : INTERNAL 2
MIR : ON : INTERNAL 2
OPTKBR

0.200000
8
8.000000
FILLER
RATIO
SPECTRUM
UNLOCKED 256

DOUBLE
64
COMBINED
1
0
0

0.002000
RATIO

1
0
TRUE
51149
0
LEFT NOT FITTED RIGHT NOT FITTED 0
NONE
NONE
15600
12
4.427000
51148
TRUE
1 0 8 72 0 0 0 0

15798

#HDR
-1
-1
#GR
µM
%T
2.38419e-05
0.0
2.000000
0.002000
12515
8
42.5883
-8.107309
#DATA
2.000000	 0.158143
2.084000	 0.283928
2.168000	 0.914610
2.252000	 1.132790
2.336000	 0.202089
2.420000	 0.395459
2.504000	 0.167115
2.588000	 -0.030851
2.672000	 0.078027
2.756000	 0.281690
2.840000	 0.204349
2.924000	 0.037428
3.008000	 0.116571
3.092000	 0.059713
3.176000	 -0.056456
3.260000	 0.030302
3.344000	 0.030824
3.428000	 0.008515
3.512000	 0.023670
3.596000	 0.041375
3.680000	 -0.035607
3.764000	 0.040665
3.848000	 0.103438
3.932000	 -0.028931
4.016000	 0.140954
4.100000	 -0.241219
4.184000	 0.040340
4.268000	 0.222650
4.352000	 0.574906
4.436000	 1.416542
4.520000	 3.499113
4.604000	 6.842352
4.688000	 11.2207
4.772000	 16.1978
4.856000	 20.735
4.940000	 24.5201
5.024000	 27.6235
5.108000	 29.9553
5.192000	 31.4606
5.276000	 32.5834
5.359999	 33.6143
5.444000	 34.1717
5.528000	 34.5396
5.612000	 34.9515
5.696000	 35.2399
5.780000	 35.5993
5.864000	 35.6808
5.948000	 35.8334
6.032000	 35.8608
6.116000	 35.8342
6.200000	 35.8528
6.284000	 35.725
6.368000	 35.894
6.452000	 35.9929
6.536000	 35.8749
6.620000	 36.017
6.704000	 36.0329
6.788000	 35.9905
6.872000	 35.9807
6.956000	 35.784
7.040000	 35.8446
7.124000	 35.6639
7.208000	 35.839
7.292000	 35.7846
7.376000	 35.6256
7.460000	 35.6691
7.544000	 35.8305
7.628000	 35.5783
7.712000	 35.496
7.796000	 35.397
7.880000	 35.6278
7.964000	 35.4733
8.048000	 35.4704
8.132000	 35.2924
8.216000	 35.4506
8.300000	 35.6482
8.384000	 35.4187
8.468000	 35.1847
8.552000	 35.2947
8.635999	 35.4841
8.719999	 35.573
8.804000	 35.5091
8.888000	 35.1598
8.972000	 34.8286
9.056000	 35.0924
9.140000	 35.1357
9.224000	 35.4539
9.308000	 35.2407
9.391999	 34.716
9.475999	 34.7114
9.560000	 34.7692
9.644000	 35.1184
9.728000	 35.1405
9.812000	 35.1521
9.896000	 34.7026
9.980000	 34.4947
10.064	34.3317
10.148	34.5068
10.232	34.5973
10.316	34.9475
10.4	34.8133
10.484	34.277
10.568	33.9525
10.652	33.907
10.736	34.0687
10.82	34.2708
10.904	34.3805
10.988	34.4154
11.072	34.3109
11.156	34.0531
11.24	33.6583
11.324	33.491
11.408	33.1208
11.492	33.2416
11.576	33.6645
11.66	33.9454
11.744	33.8928
11.828	33.5869
11.912	33.4955
11.996	33.1874
12.08	32.8602
12.164	32.8776
12.248	32.8373
12.332	32.9869
12.416	33.0942
12.5	33.1485
12.584	33.3651
12.668	33.4569
12.752	33.1864
12.836	32.9393
12.92	32.7158
13.004	32.2508
13.088	31.8909
13.172	32.008
13.256	32.257
13.34	32.2908
13.424	32.2058
13.508	32.3517
13.592	32.5634
13.676	32.2639
13.76	32.003
13.844	31.9615
13.928	31.7908
14.012	31.5641
14.096	31.4309
14.18	31.2506
14.264	31.0691
14.348	31.0285
14.432	31.0813
14.516	31.21
14.6	31.4409
14.684	31.6016
14.768	31.5531
14.852	31.4719
14.936	31.4045
15.02	31.3174
15.104	31.2027
15.188	30.8949
15.272	30.5237
15.356	30.3381
15.44	30.1952
15.524	30.0267
15.608	29.9949
15.692	30.1749
15.776	30.4318
15.86	30.4694
15.944	30.2749
16.028	30.1389
16.112	30.1492
16.196	30.1978
16.28	30.221
16.364	30.1612
16.448	29.9763
16.532	29.7282
16.616	29.5405
16.7	29.445
16.784	29.2922
16.868	28.9305
16.952	28.4785
17.036	28.2275
17.12	28.2718
17.204	28.4331
17.288	28.5101
17.372	28.4774
17.456	28.4454
17.54	28.5119
17.624	28.6553
17.708	28.7641
17.792	28.7601
17.876	28.7016
17.96	28.7476
18.044	28.968
18.128	29.1867
18.212	29.1299
18.296	28.744
18.38	28.2886
18.464	28.0414
18.548	28.0063
18.632	27.9637
18.716	27.7426
18.8	27.3705
18.884	27.0131
18.968	26.8234
19.052	26.827
19.136	26.9099
19.22	26.9307
19.304	26.8822
19.388	26.8912
19.472	27.0445
19.556	27.2616
19.64	27.3803
19.724	27.3409
19.808	27.229
19.892	27.1315
19.976	27.0346
20.06	26.875
20.144	26.6556
20.228	26.4587
20.312	26.367
20.396	26.3748
20.48	26.3804
20.564	26.2547
20.648	25.9545
20.732	25.5757
20.816	25.3184
20.9	25.3581
20.984	25.7025
21.068	26.1747
21.152	26.5407
21.236	26.6669
21.32	26.5805
21.404	26.4072
21.488	26.2556
21.572	26.1387
21.656	25.9783
21.74	25.6708
21.824	25.1796
21.908	24.6034
21.992	24.1518
22.076	24.0438
22.16	24.3768
22.244	25.0213
22.328	25.6907
22.412	26.1002
22.496	26.1164
22.58	25.8112
22.664	25.3627
22.748	24.9139
22.832	24.4777
22.916	23.9842
23	23.3824
23.084	22.7266
23.168	22.165
23.252	21.8548
23.336	21.9121
23.42	22.3064
23.504	22.9213
23.588	23.5897
23.672	24.1202
23.756	24.3039
23.84	24.0321
23.924	23.301
24.008	22.2598
24.092	21.2192
24.176	20.5184
24.26	20.361
24.344	20.7239
24.428	21.3883
24.512	22.074
24.596	22.6256
24.68	23.2139
24.764	24.3382
24.848	26.5516
24.932	30.1003
25.016	34.5835
25.1	39.0107
25.184	41.9985
25.268	42.3704
25.352	39.6016
25.436	33.8531
25.52	25.9829
25.604	17.2383
25.688	9.119343
25.772	3.009069
25.856	-0.202010
25.94	-0.384217
26.024	1.733067
26.108	4.767822
26.192	7.289348
26.276	8.274645
26.36	7.309618
26.444	4.716244
26.528	1.305178
26.612	-2.182696
26.696	-5.125207
26.78	-7.132363
26.864	-8.044224
26.948	-7.887353
27.028	-6.927180