File: Bakgrunnsmateriale/MATLAB/FTIR/ftir_data/LPE453/Mapping_121/LPE453_t117.asc
PE IR       SPECTRUM    SPECTRUM    ASCII       PEDS        1.60
  -1
LP9F88~1.ASC
17/05/17
00:13:59.00
17/05/17
00:14:26.00
tln
$LPE453_t0117$<tbV0>[-2.6,13.0,8.0,0.0,27,1,0]
27.028
64

2002,4.07
MIRTGS : RIGHTBACK : INTERNAL 2
MIR : ON : INTERNAL 2
OPTKBR

0.200000
8
8.000000
FILLER
RATIO
SPECTRUM
UNLOCKED 256

DOUBLE
64
COMBINED
1
0
0

0.002000
RATIO

1
0
TRUE
51149
0
LEFT NOT FITTED RIGHT NOT FITTED 0
NONE
NONE
15600
12
4.427000
51148
TRUE
1 0 8 72 0 0 0 0

15798

#HDR
-1
-1
#GR
µM
%T
2.38419e-05
0.0
2.000000
0.002000
12515
8
35.1775
-1.357202
#DATA
2.000000	 0.248789
2.084000	 0.412377
2.168000	 0.542431
2.252000	 0.381890
2.336000	 0.159775
2.420000	 -0.050988
2.504000	 0.102788
2.588000	 0.004493
2.672000	 0.027180
2.756000	 0.142217
2.840000	 0.049244
2.924000	 0.004642
3.008000	 -0.081534
3.092000	 -0.022269
3.176000	 -0.079703
3.260000	 0.005411
3.344000	 0.104982
3.428000	 -0.052155
3.512000	 0.037777
3.596000	 0.091921
3.680000	 -0.002240
3.764000	 0.055343
3.848000	 -0.008056
3.932000	 -0.020387
4.016000	 -0.038408
4.100000	 0.002723
4.184000	 0.140051
4.268000	 0.266309
4.352000	 0.721742
4.436000	 1.705215
4.520000	 3.872203
4.604000	 7.083571
4.688000	 11.1788
4.772000	 15.5341
4.856000	 19.719
4.940000	 23.0412
5.024000	 25.8348
5.108000	 27.9231
5.192000	 29.5799
5.276000	 30.7998
5.359999	 31.7427
5.444000	 32.3746
5.528000	 33.1158
5.612000	 33.4163
5.696000	 33.9232
5.780000	 34.0202
5.864000	 34.275
5.948000	 34.4847
6.032000	 34.4434
6.116000	 34.8418
6.200000	 34.6866
6.284000	 34.8216
6.368000	 35.087
6.452000	 34.8416
6.536000	 34.99
6.620000	 35.1594
6.704000	 34.8515
6.788000	 34.7462
6.872000	 34.94
6.956000	 34.9147
7.040000	 34.6007
7.124000	 34.7566
7.208000	 34.9114
7.292000	 34.5638
7.376000	 34.423
7.460000	 34.5011
7.544000	 34.7231
7.628000	 34.4455
7.712000	 34.2826
7.796000	 34.3332
7.880000	 34.5435
7.964000	 34.4169
8.048000	 34.0533
8.132000	 33.9586
8.216000	 34.1566
8.300000	 34.1887
8.384000	 34.0926
8.468000	 33.7643
8.552000	 33.6224
8.635999	 33.757
8.719999	 33.9264
8.804000	 33.8934
8.888000	 33.7015
8.972000	 33.3139
9.056000	 33.3639
9.140000	 33.4605
9.224000	 33.5949
9.308000	 33.3895
9.391999	 33.085
9.475999	 32.8574
9.560000	 32.8459
9.644000	 32.9347
9.728000	 33.1658
9.812000	 33.1946
9.896000	 33.1391
9.980000	 32.777
10.064	32.5042
10.148	32.423
10.232	32.3774
10.316	32.5981
10.4	32.6148
10.484	32.5395
10.568	32.4541
10.652	32.1973
10.736	32.0638
10.82	31.8806
10.904	31.8267
10.988	31.8455
11.072	32.0554
11.156	32.0203
11.24	31.9219
11.324	31.8563
11.408	31.498
11.492	31.265
11.576	31.0548
11.66	31.0223
11.744	31.165
11.828	31.1844
11.912	31.3959
11.996	31.5545
12.08	31.2216
12.164	30.9107
12.248	30.9681
12.332	30.8307
12.416	30.5288
12.5	30.3909
12.584	30.3533
12.668	30.4336
12.752	30.5116
12.836	30.5618
12.92	30.5145
13.004	30.5542
13.088	30.4682
13.172	30.0809
13.256	30.0336
13.34	29.9853
13.424	29.6587
13.508	29.4314
13.592	29.3975
13.676	29.412
13.76	29.5924
13.844	29.8669
13.928	29.977
14.012	29.8397
14.096	29.693
14.18	29.6419
14.264	29.542
14.348	29.3696
14.432	29.1909
14.516	29.033
14.6	28.827
14.684	28.6119
14.768	28.5172
14.852	28.5166
14.936	28.499
15.02	28.4872
15.104	28.5586
15.188	28.6904
15.272	28.7948
15.356	28.7652
15.44	28.6764
15.524	28.7289
15.608	28.8018
15.692	28.6075
15.776	28.2289
15.86	27.9145
15.944	27.7052
16.028	27.5843
16.112	27.5318
16.196	27.4569
16.28	27.3509
16.364	27.3038
16.448	27.3369
16.532	27.3623
16.616	27.3282
16.7	27.2919
16.784	27.3075
16.868	27.3648
16.952	27.4644
17.036	27.5988
17.12	27.6732
17.204	27.5915
17.288	27.3778
17.372	27.1335
17.456	26.9345
17.54	26.8031
17.624	26.701
17.708	26.5554
17.792	26.3305
17.876	26.047
17.96	25.7438
18.044	25.4576
18.128	25.2426
18.212	25.1726
18.296	25.2817
18.38	25.5096
18.464	25.7391
18.548	25.901
18.632	26.0105
18.716	26.0936
18.8	26.128
18.884	26.0893
18.968	26.0024
19.052	25.8985
19.136	25.7612
19.22	25.5574
19.304	25.3067
19.388	25.0873
19.472	24.961
19.556	24.9265
19.64	24.9319
19.724	24.9128
19.808	24.828
19.892	24.6846
19.976	24.524
20.06	24.3827
20.144	24.2791
20.228	24.2292
20.312	24.2465
20.396	24.308
20.48	24.3339
20.564	24.2358
20.648	24.0106
20.732	23.762
20.816	23.6114
20.9	23.5937
20.984	23.6517
21.068	23.7164
21.152	23.7743
21.236	23.8568
21.32	23.975
21.404	24.0865
21.488	24.1237
21.572	24.0479
21.656	23.8621
21.74	23.5924
21.824	23.2709
21.908	22.9349
21.992	22.6345
22.076	22.4227
22.16	22.3277
22.244	22.3406
22.328	22.4237
22.412	22.5469
22.496	22.6981
22.58	22.8688
22.664	23.0347
22.748	23.1531
22.832	23.1912
22.916	23.1536
23	23.0858
23.084	23.0361
23.168	23.0111
23.252	22.9614
23.336	22.814
23.42	22.513
23.504	22.063
23.588	21.5173
23.672	20.9368
23.756	20.3696
23.84	19.855
23.924	19.4408
24.008	19.1963
24.092	19.1981
24.176	19.4786
24.26	19.9871
24.344	20.5783
24.428	21.0764
24.512	21.335
24.596	21.3333
24.68	21.1824
24.764	21.0727
24.848	21.1971
24.932	21.6925
25.016	22.5613
25.1	23.6555
25.184	24.7385
25.268	25.58
25.352	26.0201
25.436	25.9674
25.52	25.4268
25.604	24.4893
25.688	23.3234
25.772	22.1611
25.856	21.2367
25.94	20.6444
26.024	20.2951
26.108	19.9579
26.192	19.64
26.276	19.6229
26.36	20.4081
26.444	22.2995
26.528	25.1474
26.612	28.1851
26.696	30.4305
26.78	31.1157
26.864	30.051
26.948	27.5917
27.028	24.4632