File: Bakgrunnsmateriale/MATLAB/FTIR/ftir_data/LPE453/Mapping_121/LPE453_t60_cm-1.asc
PE IR       SPECTRUM    SPECTRUM    ASCII       PEDS        1.60
  -1
LP5A55~1.ASC
17/05/16
19:16:04.00
17/05/16
19:16:04.00
tln
$LPE453_t0060$<tbV0>[2.6,0.0,8.0,0.0,27,1,0]
370
64

2002,4.07
MIRTGS : RIGHTBACK : INTERNAL 2
MIR : ON : INTERNAL 2
OPTKBR

0.200000
8
8.000000
FILLER
RATIO
SPECTRUM
UNLOCKED 256

DOUBLE
64
COMBINED
1
0
0

1.000000
RATIO

1
0
TRUE
51149
0
LEFT NOT FITTED RIGHT NOT FITTED 0
NONE
NONE
15600
12
4.427000
51148
TRUE
1 0 8 72 0 0 0 0

15798

#HDR
-1
-1
#GR
CM-1
%T
2.38419e-05
0.0
5000
-1.000000
4631
8
26.7492
-6.593942
#DATA
5000	0.173497
4984	-0.168681
4968	0.077104
4952	0.116539
4936	0.183010
4920	0.339746
4904	0.200533
4888	0.750517
4872	-0.005769
4856	0.305557
4840	0.206971
4824	-0.240612
4808	0.152206
4792	-0.201559
4776	-0.020933
4760	0.719380
4744	0.645494
4728	0.014114
4712	0.669336
4696	0.799393
4680	1.007699
4664	0.590658
4648	-0.413846
4632	0.843882
4616	0.591826
4600	-0.024533
4584	0.230860
4568	-0.193929
4552	-0.165438
4536	0.232815
4520	-0.081515
4504	-0.129365
4488	11.2643
4472	1.786613
4456	0.029540
4440	-0.486278
4424	-0.633668
4408	-0.466537
4392	0.034928
4376	-0.304245
4360	0.046515
4344	0.263404
4328	-0.155377
4312	0.328397
4296	-0.032520
4280	0.270295
4264	0.453734
4248	0.128293
4232	0.316667
4216	-0.017023
4200	-0.039863
4184	0.002527
4168	0.231647
4152	0.224804
4136	0.067496
4120	0.013899
4104	0.139093
4088	0.103878
4072	0.132060
4056	-0.012230
4040	-0.056695
4024	0.008606
4008	0.053167
3992	-0.062417
3976	0.052094
3960	0.128912
3944	-0.045895
3928	0.046515
3912	0.145125
3896	0.074362
3880	0.163435
3864	0.046586
3848	-0.105404
3832	-0.038027
3816	0.055551
3800	0.072312
3784	0.044727
3768	-0.026226
3752	-0.027847
3736	0.026988
3720	0.044751
3704	0.143599
3688	0.067114
3672	0.081682
3656	-0.133776
3640	-0.143456
3624	0.124955
3608	0.196814
3592	0.164866
3576	-0.020503
3560	0.045394
3544	0.065708
3528	0.140929
3512	-0.034999
3496	0.070619
3480	-0.124788
3464	0.002837
3448	0.073528
3432	-0.061321
3416	0.126504
3400	-0.001573
3384	0.011515
3368	-0.048279
3352	-0.029754
3336	0.075507
3320	-0.061011
3304	0.120306
3288	-0.071072
3272	-0.020217
3256	0.077748
3240	-0.034880
3224	-0.008463
3208	0.177979
3192	0.070428
3176	0.009083
3160	0.083255
3144	-0.031948
3128	0.137519
3112	-0.038981
3096	0.000190
3080	0.111961
3064	0.014209
3048	0.083947
3032	0.100612
3016	-0.187849
3000	-0.022554
2984	0.079846
2968	0.042915
2952	0.139331
2936	-0.010728
2920	-0.054526
2904	0.154948
2888	-0.007295
2872	0.001382
2856	0.040912
2840	0.095033
2824	-0.011229
2808	-0.021862
2792	-0.019264
2776	0.112342
2760	0.022935
2744	0.045657
2728	-0.023412
2712	0.017547
2696	0.022816
2680	0.012636
2664	0.024342
2648	-0.004577
2632	0.000596
2616	0.105237
2600	-0.067377
2584	0.037837
2568	0.019645
2552	-0.067996
2536	-0.009512
2520	0.097274
2504	0.039315
2488	0.064754
2472	0.076913
2456	0.032615
2440	0.134587
2424	-0.230574
2408	0.224828
2392	-0.004792
2376	0.045061
2360	0.029277
2344	-0.103640
2328	-0.051236
2312	0.022363
2296	0.042271
2280	0.128293
2264	0.201392
2248	0.450325
2232	0.637435
2216	0.919866
2200	1.363563
2184	2.090644
2168	2.944207
2152	3.847980
2136	5.098104
2120	6.489276
2104	7.904338
2088	9.553647
2072	11.1151
2056	12.6811
2040	14.257
2024	15.7355
2008	17.0696
1992	18.3961
1976	19.4327
1960	20.5712
1944	21.3644
1928	22.3347
1912	22.9427
1896	23.6046
1880	24.1692
1864	24.5841
1848	25.0099
1832	25.3808
1816	25.5192
1800	25.8811
1784	25.993
1768	26.1817
1752	26.3156
1736	26.4316
1720	26.5126
1704	26.5676
1688	26.6758
1672	26.6234
1656	26.7213
1640	26.5758
1624	26.7446
1608	26.7311
1592	26.5849
1576	26.6465
1560	26.6139
1544	26.56
1528	26.538
1512	26.4296
1496	26.5612
1480	26.2462
1464	26.3258
1448	26.4031
1432	26.1963
1416	26.3296
1400	26.2607
1384	26.0793
1368	26.1535
1352	25.9236
1336	26.0129
1320	25.8397
1304	25.7648
1288	25.6512
1272	25.5762
1256	25.5609
1240	25.3777
1224	25.3585
1208	25.3539
1192	25.2419
1176	25.1437
1160	25.2261
1144	24.8428
1128	24.8933
1112	24.5627
1096	24.2194
1080	24.4859
1064	24.1313
1048	24.0526
1032	24.0238
1016	23.7013
1000	23.7752
984	 23.3321
968	 23.0852
952	 23.121
936	 22.7381
920	 22.7413
904	 22.3554
888	 21.9053
872	 21.7717
856	 21.6184
840	 21.2162
824	 21.2248
808	 20.7496
792	 20.3459
776	 19.9821
760	 19.649
744	 19.7058
728	 19.0059
712	 18.663
696	 18.5229
680	 17.8906
664	 17.85
648	 17.3226
632	 17.0431
616	 16.7213
600	 16.3697
584	 15.5478
568	 15.325
552	 14.6067
536	 14.4179
520	 13.9522
504	 13.6733
488	 13.2581
472	 12.6461
456	 12.2476
440	 10.2453
424	 12.8148
408	 12.6426
392	 18.336
376	 8.088183
370	 -6.593942