File: Bakgrunnsmateriale/MATLAB/FTIR/ftir_data/LPE453/Mapping_121/LPE453_t85_cm-1.asc
PE IR       SPECTRUM    SPECTRUM    ASCII       PEDS        1.60
  -1
LP6BDA~1.ASC
17/05/16
21:18:41.00
17/05/16
21:18:41.00
tln
$LPE453_t0085$<tbV0>[-5.2,5.2,8.0,0.0,27,1,0]
370
64

2002,4.07
MIRTGS : RIGHTBACK : INTERNAL 2
MIR : ON : INTERNAL 2
OPTKBR

0.200000
8
8.000000
FILLER
RATIO
SPECTRUM
UNLOCKED 256

DOUBLE
64
COMBINED
1
0
0

1.000000
RATIO

1
0
TRUE
51149
0
LEFT NOT FITTED RIGHT NOT FITTED 0
NONE
NONE
15600
12
4.427000
51148
TRUE
1 0 8 72 0 0 0 0

15798

#HDR
-1
-1
#GR
CM-1
%T
2.38419e-05
0.0
5000
-1.000000
4631
8
36.8858
-9.361505
#DATA
5000	0.027561
4984	0.605416
4968	-0.120186
4952	0.007200
4936	0.383472
4920	0.350356
4904	-0.190830
4888	0.072860
4872	0.267124
4856	-0.165009
4840	0.134277
4824	0.278282
4808	-0.021791
4792	0.389051
4776	0.320148
4760	-0.124001
4744	0.230407
4728	-0.158715
4712	0.325965
4696	0.381898
4680	1.121377
4664	0.626420
4648	0.805711
4632	-0.120782
4616	-0.241756
4600	0.118947
4584	-1.364469
4568	-0.979876
4552	-0.950551
4536	-1.109671
4520	-0.245165
4504	0.260376
4488	15.5957
4472	-0.409340
4456	-0.540280
4440	-0.007271
4424	-0.551819
4408	0.032281
4392	-0.124096
4376	0.279712
4360	-0.163936
4344	0.525379
4328	0.661659
4312	0.603652
4296	-0.253963
4280	0.145673
4264	0.306868
4248	0.139689
4232	-0.213050
4216	0.041913
4200	0.173234
4184	0.513577
4168	0.018167
4152	0.148081
4136	0.112843
4120	-0.041389
4104	0.278282
4088	0.017857
4072	0.100445
4056	0.268292
4040	-0.119853
4024	-0.111436
4008	0.119924
3992	-0.054287
3976	-0.004982
3960	0.077128
3944	0.126242
3928	-0.112414
3912	-0.008988
3896	0.132036
3880	0.060844
3864	0.007843
3848	-0.019097
3832	0.029969
3816	0.004863
3800	0.137948
3784	-0.022959
3768	-0.052523
3752	0.143098
3736	0.064325
3720	0.080561
3704	-0.026035
3688	-0.082755
3672	0.123548
3656	0.137567
3640	-0.007581
3624	0.032544
3608	0.061726
3592	0.014233
3576	0.032806
3560	0.039148
3544	-0.039792
3528	-0.001025
3512	0.041460
3496	0.069999
3480	0.003314
3464	0.011444
3448	0.033569
3432	-0.039339
3416	0.171947
3400	0.047159
3384	0.040984
3368	0.037622
3352	0.079846
3336	0.014090
3320	0.023198
3304	0.144314
3288	0.012063
3272	-0.010037
3256	0.035500
3240	-0.034356
3224	0.053620
3208	0.058078
3192	-0.026965
3176	0.027251
3160	0.230908
3144	0.090360
3128	0.123524
3112	0.135111
3096	-0.027513
3080	-0.040769
3064	-0.070929
3048	0.067520
3032	0.175714
3016	0.031614
3000	0.012588
2984	0.071811
2968	0.006055
2952	0.023579
2936	-0.109648
2920	0.041007
2904	0.134682
2888	-0.144052
2872	0.028920
2856	0.044226
2840	-0.013184
2824	-0.050997
2808	-0.059413
2792	0.117969
2776	-0.000834
2760	-0.013542
2744	0.051331
2728	0.097560
2712	0.082111
2696	0.034976
2680	-0.108742
2664	0.129222
2648	0.043463
2632	-0.059986
2616	-0.018382
2600	-0.017881
2584	0.086665
2568	0.072145
2552	-0.021982
2536	0.088191
2520	0.073766
2504	0.008726
2488	-0.031876
2472	0.026464
2456	0.096201
2440	0.101208
2424	0.027441
2408	0.159072
2392	0.005555
2376	0.169944
2360	0.157284
2344	0.336742
2328	0.337409
2312	0.572991
2296	0.627589
2280	1.092863
2264	1.396417
2248	2.120327
2232	2.884244
2216	3.845405
2200	5.113363
2184	6.564116
2168	8.337593
2152	10.1966
2136	12.2525
2120	14.3852
2104	16.5685
2088	18.5797
2072	20.6185
2056	22.4969
2040	24.3376
2024	26.0836
2008	27.5357
1992	28.8438
1976	30.1405
1960	31.0507
1944	31.8644
1928	32.7824
1912	33.4108
1896	33.9042
1880	34.3637
1864	34.9654
1848	35.1427
1832	35.3986
1816	35.7851
1800	36.0136
1784	35.9446
1768	36.2189
1752	36.39
1736	36.2582
1720	36.4126
1704	36.6905
1688	36.5241
1672	36.3415
1656	36.5974
1640	36.8813
1624	36.4486
1608	36.5597
1592	36.8311
1576	36.6415
1560	36.3543
1544	36.5633
1528	36.7245
1512	36.3308
1496	36.3423
1480	36.5523
1464	36.3996
1448	35.9481
1432	36.3177
1416	36.4681
1400	36
1384	36.0718
1368	36.2989
1352	36.2224
1336	35.6229
1320	36.0434
1304	36.3381
1288	35.822
1272	35.5794
1256	35.9713
1240	35.8815
1224	35.3708
1208	35.3487
1192	35.8044
1176	35.4085
1160	35.041
1144	35.2594
1128	35.5246
1112	34.9036
1096	34.7175
1080	35.2163
1064	35.0138
1048	34.258
1032	34.3834
1016	34.7846
1000	34.1234
984	 33.9026
968	 34.1949
952	 34.2341
936	 33.4396
920	 33.3122
904	 33.7459
888	 33.1152
872	 32.3435
856	 32.7529
840	 33.1458
824	 32.0415
808	 31.4516
792	 32.3616
776	 31.9261
760	 31.0105
744	 30.7353
728	 31.3778
712	 30.6347
696	 29.4138
680	 29.9698
664	 30.4879
648	 29.0822
632	 28.5497
616	 28.4779
600	 28.4154
584	 27.075
568	 27.0457
552	 27.5978
536	 27.0513
520	 25.201
504	 25.7859
488	 25.1168
472	 24.7474
456	 22.9383
440	 22.5842
424	 22.9922
408	 23.1924
392	 16.4103
376	 14.7965
370	 -9.361505