File: Bakgrunnsmateriale/MATLAB/FTIR/ftir_data/LPE453/Mapping_121/LPE453_t20_cm-1.asc
PE IR       SPECTRUM    SPECTRUM    ASCII       PEDS        1.60
  -1
LP5855~1.ASC
17/05/16
15:56:17.00
17/05/16
15:56:17.00
tln
$LPE453_t0020$<tbV0>[-7.8,-10.4,8.0,0.0,27,1,0]
370
64

2002,4.07
MIRTGS : RIGHTBACK : INTERNAL 2
MIR : ON : INTERNAL 2
OPTKBR

0.200000
8
8.000000
FILLER
RATIO
SPECTRUM
UNLOCKED 256

DOUBLE
64
COMBINED
1
0
0

1.000000
RATIO

1
0
TRUE
51149
0
LEFT NOT FITTED RIGHT NOT FITTED 0
NONE
NONE
15600
12
4.427000
51148
TRUE
1 0 8 72 0 0 0 0

15798

#HDR
-1
-1
#GR
CM-1
%T
2.38419e-05
0.0
5000
-1.000000
4631
8
34.5035
-15.9177
#DATA
5000	-0.224494
4984	-0.083589
4968	0.552654
4952	0.518345
4936	0.095319
4920	0.350880
4904	0.464725
4888	0.472688
4872	-0.167179
4856	0.087118
4840	0.452899
4824	-0.148296
4808	0.212097
4792	0.163340
4776	0.273799
4760	-0.048708
4744	0.444340
4728	0.331521
4712	-0.152993
4696	-0.036740
4680	0.268507
4664	0.152921
4648	0.081396
4632	0.300574
4616	0.200915
4600	0.020980
4584	-0.231838
4568	-0.951719
4552	-0.401163
4536	-0.203204
4520	15.701
4504	1.875495
4488	-1.105618
4472	-0.969314
4456	-0.567197
4440	0.076866
4424	0.226354
4408	0.003886
4392	0.085401
4376	0.435233
4360	0.057744
4344	0.295448
4328	-0.204801
4312	0.138854
4296	-0.052690
4280	-0.110650
4264	0.002503
4248	0.656533
4232	0.265526
4216	-0.141882
4200	0.092697
4184	0.043511
4168	0.243163
4152	0.043153
4136	0.150227
4120	0.182437
4104	0.142335
4088	0.225591
4072	0.168037
4056	0.044059
4040	-0.062751
4024	-0.033378
4008	-0.038647
3992	0.136065
3976	0.153398
3960	0.140380
3944	0.136232
3928	0.025963
3912	0.047969
3896	-0.072884
3880	-0.007963
3864	-0.017380
3848	-0.008773
3832	0.140690
3816	0.185632
3800	0.010728
3784	0.068140
3768	0.303435
3752	0.021982
3736	0.069665
3720	0.139832
3704	-0.022697
3688	0.058889
3672	0.179862
3656	0.071763
3640	0.139355
3624	0.228095
3608	-0.035214
3592	0.014185
3576	0.098204
3560	0.068259
3544	0.102877
3528	0.036501
3512	-0.008654
3496	0.175595
3480	0.119805
3464	0.225043
3448	-0.066876
3432	0.026655
3416	0.074434
3400	-0.015258
3384	0.061917
3368	0.028204
3352	0.133109
3336	0.014305
3320	-0.030517
3304	0.088119
3288	0.055241
3272	0.057244
3256	0.015735
3240	0.033617
3224	0.111031
3208	0.001430
3192	-0.013637
3176	0.066590
3160	0.053381
3144	0.017070
3128	0.094532
3112	-0.072813
3096	0.019741
3080	0.019073
3064	0.133705
3048	0.001215
3032	0.093317
3016	-0.016427
3000	0.012350
2984	0.065875
2968	0.007796
2952	-0.029563
2936	0.047183
2920	0.057268
2904	0.205612
2888	0.045061
2872	0.276255
2856	0.016880
2840	0.153136
2824	-0.021553
2808	-0.021028
2792	0.022912
2776	0.077795
2760	-0.042009
2744	-0.011181
2728	-0.025391
2712	0.037169
2696	0.064492
2680	0.030159
2664	0.128579
2648	0.009727
2632	0.051498
2616	0.121021
2600	0.058579
2584	0.119638
2568	0.062823
2552	-0.032663
2536	-0.083875
2520	0.063729
2504	0.195312
2488	0.085973
2472	0.112938
2456	0.154733
2440	-0.092744
2424	0.039529
2408	0.060510
2392	0.208950
2376	0.137877
2360	0.154399
2344	0.378823
2328	0.544476
2312	0.637602
2296	0.967574
2280	1.272559
2264	1.524829
2248	2.178955
2232	2.970767
2216	3.771066
2200	4.983162
2184	6.034874
2168	7.357859
2152	8.786320
2136	10.2824
2120	12.0529
2104	13.5652
2088	15.1641
2072	17.0773
2056	18.4139
2040	19.2755
2024	20.3541
2008	21.6911
1992	22.6886
1976	23.1609
1960	24.0369
1944	25.0022
1928	25.3533
1912	25.6599
1896	26.1934
1880	26.9273
1864	26.9519
1848	27.0744
1832	27.4701
1816	27.9924
1800	27.9859
1784	27.747
1768	28.3992
1752	28.8575
1736	28.5775
1720	28.3722
1704	28.8881
1688	29.413
1672	28.9104
1656	28.8264
1640	29.3543
1624	29.7572
1608	29.3625
1592	28.9463
1576	29.68
1560	30.2666
1544	29.9799
1528	29.3586
1512	29.7953
1496	30.4276
1480	30.1621
1464	29.6773
1448	29.9031
1432	30.7486
1416	30.7561
1400	30.1378
1384	30.4144
1368	31.2037
1352	31.0573
1336	30.6776
1320	30.5856
1304	31.4276
1288	31.6252
1272	30.8283
1256	30.9479
1240	31.8408
1224	32.2165
1208	31.4961
1192	31.241
1176	32.0565
1160	32.7045
1144	32.1944
1128	31.6821
1112	32.6735
1096	33.4286
1080	32.4821
1064	31.9357
1048	32.6061
1032	33.4929
1016	32.8739
1000	32.3302
984	 33.0911
968	 33.9474
952	 33.744
936	 32.9846
920	 33.0506
904	 34.1216
888	 34.151
872	 33.3115
856	 32.8672
840	 34.1604
824	 34.3015
808	 33.3406
792	 33.1192
776	 33.7186
760	 34.4087
744	 33.113
728	 32.4178
712	 33.4018
696	 33.9199
680	 33.2557
664	 32.0057
648	 32.4417
632	 32.985
616	 32.5592
600	 31.5243
584	 31.0151
568	 32.6767
552	 31.782
536	 31.3537
520	 29.7196
504	 29.8334
488	 29.9572
472	 30.2154
456	 29.069
440	 28.8205
424	 27.3833
408	 26.4431
392	 32.6324
376	 12.9823
370	 -15.9177