File: Bakgrunnsmateriale/MATLAB/FTIR/ftir_data/LPE453/Mapping_121/LPE453_t40_cm-1.asc
PE IR       SPECTRUM    SPECTRUM    ASCII       PEDS        1.60
  -1
LP5955~1.ASC
17/05/16
17:36:16.00
17/05/16
17:36:16.00
tln
$LPE453_t0040$<tbV0>[-2.6,-5.2,8.0,0.0,27,1,0]
370
64

2002,4.07
MIRTGS : RIGHTBACK : INTERNAL 2
MIR : ON : INTERNAL 2
OPTKBR

0.200000
8
8.000000
FILLER
RATIO
SPECTRUM
UNLOCKED 256

DOUBLE
64
COMBINED
1
0
0

1.000000
RATIO

1
0
TRUE
51149
0
LEFT NOT FITTED RIGHT NOT FITTED 0
NONE
NONE
15600
12
4.427000
51148
TRUE
1 0 8 72 0 0 0 0

15798

#HDR
-1
-1
#GR
CM-1
%T
2.38419e-05
0.0
5000
-1.000000
4631
8
35.535
-13.3731
#DATA
5000	0.362753
4984	0.086116
4968	0.774812
4952	0.363707
4936	-0.271368
4920	0.023555
4904	0.304841
4888	0.720930
4872	0.399351
4856	0.265693
4840	0.307512
4824	0.326132
4808	0.209021
4792	-0.045371
4776	0.357341
4760	-0.061845
4744	0.186085
4728	0.109601
4712	0.078296
4696	0.204133
4680	0.475215
4664	0.738620
4648	0.880551
4632	0.354766
4616	0.432300
4600	0.076341
4584	0.244045
4568	-1.858758
4552	-0.778436
4536	-1.745700
4520	26.9664
4504	1.802873
4488	-3.085732
4472	-1.314449
4456	-1.848149
4440	-0.757241
4424	-0.391435
4408	0.343084
4392	0.149583
4376	0.398230
4360	0.681161
4344	0.074434
4328	0.140070
4312	0.402784
4296	0.163841
4280	0.409555
4264	-0.058221
4248	-0.231170
4232	0.138401
4216	0.174665
4200	0.327682
4184	0.258970
4168	-0.017976
4152	-0.028991
4136	0.058913
4120	0.244879
4104	0.366854
4088	-0.085401
4072	0.126981
4056	0.134658
4040	-0.052118
4024	0.112867
4008	0.084781
3992	0.213527
3976	0.383400
3960	0.107622
3944	0.271582
3928	0.085878
3912	-0.095081
3896	0.070142
3880	-0.213599
3864	0.128173
3848	0.099587
3832	-0.022745
3816	0.096750
3800	0.033545
3784	0.009369
3768	0.029635
3752	0.054335
3736	0.072383
3720	0.046825
3704	0.074434
3688	0.125098
3672	-0.069499
3656	-0.018358
3640	0.000333
3624	0.055098
3608	0.065398
3592	-0.004911
3576	0.002145
3560	0.059604
3544	0.015854
3528	0.023269
3512	-0.025200
3496	0.105834
3480	-0.026416
3464	0.244975
3448	-0.029182
3432	0.072813
3416	0.031447
3400	0.030851
3384	0.131440
3368	0.054121
3352	0.183200
3336	0.032877
3320	0.102400
3304	0.167775
3288	0.060701
3272	-0.102829
3256	0.057363
3240	0.163507
3224	0.018405
3208	0.045585
3192	0.261282
3176	0.008440
3160	-0.049066
3144	-0.027370
3128	0.225210
3112	0.212454
3096	0.037336
3080	0.012731
3064	-0.088500
3048	0.105524
3032	0.029134
3016	0.074577
3000	-0.099182
2984	0.026583
2968	0.054001
2952	0.077486
2936	-0.103020
2920	-0.084114
2904	0.034785
2888	0.173902
2872	-0.082516
2856	-0.010800
2840	0.085997
2824	-0.055265
2808	-0.009489
2792	0.072121
2776	-0.015020
2760	0.075316
2744	-0.042581
2728	0.162839
2712	-0.055623
2696	0.078105
2680	0.095582
2664	0.088882
2648	0.109767
2632	-0.061821
2616	0.087642
2600	-0.012803
2584	0.173473
2568	0.077629
2552	0.165438
2536	-0.002002
2520	0.135874
2504	0.086045
2488	-0.034928
2472	0.146031
2456	0.029134
2440	-0.006794
2424	0.190663
2408	0.117993
2392	0.045752
2376	-0.113511
2360	0.080180
2344	0.072360
2328	0.187349
2312	0.160193
2296	0.235557
2280	0.414800
2264	0.536203
2248	0.913405
2232	1.567101
2216	2.180647
2200	3.043627
2184	4.097723
2168	5.386567
2152	6.819200
2136	8.631706
2120	10.4034
2104	12.3586
2088	14.3952
2072	16.3925
2056	18.192
2040	19.9485
2024	21.6397
2008	23.0978
1992	24.369
1976	25.7441
1960	26.8272
1944	27.7539
1928	28.5707
1912	29.3375
1896	30.0032
1880	30.532
1864	30.9297
1848	31.4082
1832	31.6899
1816	31.9956
1800	32.2222
1784	32.489
1768	32.5314
1752	32.6382
1736	32.917
1720	33.157
1704	32.9881
1688	33.14
1672	32.9777
1656	33.1749
1640	33.099
1624	33.092
1608	33.2225
1592	33.1443
1576	33.1551
1560	33.0939
1544	33.2196
1528	32.9973
1512	33.2065
1496	33.0171
1480	33.1702
1464	32.8777
1448	32.9144
1432	33.0127
1416	32.8872
1400	32.5526
1384	32.7295
1368	32.684
1352	32.6339
1336	32.6176
1320	32.5725
1304	32.4785
1288	32.4483
1272	32.3528
1256	32.2953
1240	32.0616
1224	32.1266
1208	32.1408
1192	31.9617
1176	31.9749
1160	31.9609
1144	31.7065
1128	31.502
1112	31.6464
1096	31.493
1080	31.5029
1064	31.3965
1048	31.4479
1032	30.7496
1016	30.7473
1000	30.8598
984	 30.2626
968	 30.4624
952	 30.6491
936	 30.1139
920	 29.7688
904	 29.8078
888	 29.3939
872	 29.0605
856	 29.3483
840	 29.1341
824	 28.3812
808	 28.5426
792	 28.4304
776	 27.698
760	 27.5129
744	 27.8409
728	 26.744
712	 26.4336
696	 26.7499
680	 25.8283
664	 25.6891
648	 25.4181
632	 24.6677
616	 23.8253
600	 24.2991
584	 23.6702
568	 23.5605
552	 22.8553
536	 22.4322
520	 20.6372
504	 21.2824
488	 21.5068
472	 19.6408
456	 20.0615
440	 19.4368
424	 21.477
408	 19.894
392	 13.9508
376	 17.0766
370	 -13.3731