File: Bakgrunnsmateriale/MATLAB/FTIR/ftir_data/LPE453/Mapping_121/LPE453_t59_cm-1.asc
PE IR       SPECTRUM    SPECTRUM    ASCII       PEDS        1.60
  -1
LPE9D9~1.ASC
17/05/16
19:11:27.00
17/05/16
19:11:27.00
tln
$LPE453_t0059$<tbV0>[5.2,0.0,8.0,0.0,27,1,0]
370
64

2002,4.07
MIRTGS : RIGHTBACK : INTERNAL 2
MIR : ON : INTERNAL 2
OPTKBR

0.200000
8
8.000000
FILLER
RATIO
SPECTRUM
UNLOCKED 256

DOUBLE
64
COMBINED
1
0
0

1.000000
RATIO

1
0
TRUE
51149
0
LEFT NOT FITTED RIGHT NOT FITTED 0
NONE
NONE
15600
12
4.427000
51148
TRUE
1 0 8 72 0 0 0 0

15798

#HDR
-1
-1
#GR
CM-1
%T
2.38419e-05
0.0
5000
-1.000000
4631
8
25.8045
-2.477788
#DATA
5000	0.574278
4984	-0.075125
4968	0.599455
4952	0.087809
4936	-0.021505
4920	0.405883
4904	0.021910
4888	0.258970
4872	0.565314
4856	0.512909
4840	0.397658
4824	-0.045824
4808	0.132346
4792	0.244545
4776	0.354003
4760	0.319528
4744	0.929450
4728	0.432085
4712	0.718498
4696	-0.423192
4680	2.116322
4664	0.206136
4648	-0.075459
4632	0.433659
4616	0.655579
4600	0.268077
4584	-0.602555
4568	-0.958037
4552	-1.128506
4536	-0.637054
4520	-0.883722
4504	-2.477788
4488	20.1257
4472	3.647661
4456	-0.228071
4440	-1.025056
4424	-0.325298
4408	0.279808
4392	0.697946
4376	0.438809
4360	0.546503
4344	0.660681
4328	0.321912
4312	0.277781
4296	0.059413
4280	0.167322
4264	0.518751
4248	-0.001621
4232	0.176644
4216	0.198507
4200	0.179982
4184	0.915002
4168	-0.161552
4152	0.278663
4136	0.197410
4120	0.324892
4104	0.340795
4088	0.324702
4072	0.150084
4056	0.209879
4040	0.043940
4024	0.043129
4008	-0.076365
3992	0.091338
3976	-0.220870
3960	0.023031
3944	0.231909
3928	-0.099468
3912	0.071144
3896	0.022912
3880	0.015354
3864	0.032258
3848	0.036025
3832	0.129985
3816	0.125193
3800	0.203800
3784	-0.085902
3768	0.214743
3752	0.039076
3736	-0.101900
3720	0.210285
3704	0.042414
3688	-0.018882
3672	0.016474
3656	0.138449
3640	-0.022149
3624	0.108337
3608	0.053262
3592	0.042676
3576	0.103902
3560	0.014162
3544	-0.050377
3528	0.036525
3512	0.015544
3496	0.042510
3480	0.164175
3464	0.110840
3448	0.067877
3432	-0.058650
3416	0.107002
3400	0.020241
3384	-0.027751
3368	0.109577
3352	0.043869
3336	0.028109
3320	0.037145
3304	-0.009441
3288	0.032019
3272	0.157451
3256	0.154399
3240	0.037646
3224	0.040721
3208	0.158262
3192	0.002288
3176	-0.018954
3160	0.086617
3144	0.129532
3128	0.159907
3112	0.114583
3096	0.005888
3080	-0.050258
3064	-0.039815
3048	0.141954
3032	0.135636
3016	0.043439
3000	-0.033831
2984	0.157523
2968	-0.098109
2952	-0.007057
2936	-0.011420
2920	0.059556
2904	0.056552
2888	0.089383
2872	-0.034618
2856	0.210332
2840	0.155830
2824	0.012850
2808	0.070095
2792	-0.040626
2776	-0.046038
2760	0.044250
2744	0.012731
2728	0.022625
2712	0.092124
2696	0.110936
2680	-0.013208
2664	0.008440
2648	0.115823
2632	0.042700
2616	0.009250
2600	-0.045084
2584	-0.011491
2568	0.109100
2552	-0.043416
2536	-0.020051
2520	0.137186
2504	0.014901
2488	-0.006127
2472	-0.099205
2456	-0.010418
2440	0.012850
2424	0.052642
2408	0.153756
2392	-0.086164
2376	-0.031280
2360	-0.014734
2344	0.018882
2328	-0.017333
2312	-0.069212
2296	0.023913
2280	0.125789
2264	0.128626
2248	0.325059
2232	0.555515
2216	0.686311
2200	1.193141
2184	1.751732
2168	2.423882
2152	3.418779
2136	4.437518
2120	5.693340
2104	7.092857
2088	8.431935
2072	10.235
2056	11.4973
2040	13.0697
2024	14.3972
2008	16.016
1992	17.2022
1976	18.294
1960	19.3824
1944	20.3269
1928	21.0808
1912	21.8743
1896	22.4835
1880	23.0639
1864	23.5812
1848	23.8734
1832	24.2967
1816	24.6352
1800	24.7954
1784	25.0488
1768	25.2236
1752	25.3373
1736	25.4384
1720	25.5806
1704	25.7542
1688	25.7424
1672	25.6494
1656	25.704
1640	25.7472
1624	25.8025
1608	25.6592
1592	25.7403
1576	25.5716
1560	25.7031
1544	25.6157
1528	25.6462
1512	25.6176
1496	25.6386
1480	25.5549
1464	25.4345
1448	25.1671
1432	25.4667
1416	25.2354
1400	25.1128
1384	25.2027
1368	25.0211
1352	25.1453
1336	24.9733
1320	24.9869
1304	24.8454
1288	24.7564
1272	24.6113
1256	24.5357
1240	24.5645
1224	24.3626
1208	24.4237
1192	24.3213
1176	24.2277
1160	24.09
1144	24.0701
1128	23.729
1112	23.6218
1096	23.6727
1080	23.3148
1064	23.2343
1048	23.0121
1032	22.9844
1016	22.9522
1000	22.7999
984	 22.5684
968	 22.2323
952	 21.9865
936	 21.9153
920	 21.6077
904	 21.2388
888	 21.2191
872	 20.9845
856	 20.7943
840	 20.5128
824	 20.0639
808	 19.6947
792	 19.4945
776	 18.9749
760	 18.8735
744	 18.2026
728	 18.0188
712	 18.1909
696	 17.5385
680	 17.2946
664	 16.675
648	 16.5617
632	 15.9667
616	 15.6025
600	 15.4159
584	 15.1986
568	 14.9157
552	 14.0506
536	 13.9424
520	 13.3761
504	 12.6793
488	 12.244
472	 11.9685
456	 9.944677
440	 11.5694
424	 11.835
408	 12.6
392	 4.808783
376	 25.1475
370	 2.681374