File: Bakgrunnsmateriale/MATLAB/FTIR/ftir_data/LPE453/Mapping_121/LPE453_t37.asc
PE IR       SPECTRUM    SPECTRUM    ASCII       PEDS        1.60
  -1
LPDF95~1.ASC
17/05/16
17:22:26.00
17/05/16
17:22:52.00
tln
$LPE453_t0037$<tbV0>[5.2,-5.2,8.0,0.0,27,1,0]
27.028
64

2002,4.07
MIRTGS : RIGHTBACK : INTERNAL 2
MIR : ON : INTERNAL 2
OPTKBR

0.200000
8
8.000000
FILLER
RATIO
SPECTRUM
UNLOCKED 256

DOUBLE
64
COMBINED
1
0
0

0.002000
RATIO

1
0
TRUE
51149
0
LEFT NOT FITTED RIGHT NOT FITTED 0
NONE
NONE
15600
12
4.427000
51148
TRUE
1 0 8 72 0 0 0 0

15798

#HDR
-1
-1
#GR
µM
%T
2.38419e-05
0.0
2.000000
0.002000
12515
8
24.9512
-45.4029
#DATA
2.000000	 -0.066399
2.084000	 0.291677
2.168000	 0.594729
2.252000	 -0.495412
2.336000	 0.034515
2.420000	 -0.030326
2.504000	 0.181255
2.588000	 0.098846
2.672000	 0.099133
2.756000	 0.195432
2.840000	 0.043368
2.924000	 0.047017
3.008000	 0.129383
3.092000	 0.034243
3.176000	 0.192031
3.260000	 0.078214
3.344000	 0.096544
3.428000	 0.004977
3.512000	 -0.042147
3.596000	 0.082419
3.680000	 -0.042718
3.764000	 0.018605
3.848000	 0.078702
3.932000	 0.065910
4.016000	 0.070714
4.100000	 0.099397
4.184000	 -0.050180
4.268000	 -0.068217
4.352000	 -0.063667
4.436000	 0.095205
4.520000	 0.455692
4.604000	 1.540661
4.688000	 3.737525
4.772000	 6.271330
4.856000	 9.404359
4.940000	 12.694
5.024000	 15.325
5.108000	 17.515
5.192000	 19.1675
5.276000	 20.5372
5.359999	 21.4828
5.444000	 22.1919
5.528000	 22.8951
5.612000	 23.2271
5.696000	 23.2849
5.780000	 23.5764
5.864000	 23.8153
5.948000	 23.8291
6.032000	 23.8741
6.116000	 24.0609
6.200000	 23.9176
6.284000	 23.9806
6.368000	 23.6878
6.452000	 23.9226
6.536000	 23.843
6.620000	 23.9994
6.704000	 23.6361
6.788000	 23.5709
6.872000	 23.5203
6.956000	 23.1955
7.040000	 23.3735
7.124000	 23.4471
7.208000	 23.1302
7.292000	 23.3265
7.376000	 23.0549
7.460000	 23.044
7.544000	 23.1521
7.628000	 22.9339
7.712000	 23.0303
7.796000	 22.9312
7.880000	 22.7003
7.964000	 22.7657
8.048000	 22.6509
8.132000	 22.4453
8.216000	 22.5227
8.300000	 22.3315
8.384000	 22.3282
8.468000	 22.4374
8.552000	 22.2945
8.635999	 21.9278
8.719999	 22.1244
8.804000	 22.0498
8.888000	 21.7778
8.972000	 21.7728
9.056000	 21.7443
9.140000	 21.6279
9.224000	 21.6251
9.308000	 21.5408
9.391999	 21.6223
9.475999	 21.5523
9.560000	 21.32
9.644000	 20.9535
9.728000	 21.0525
9.812000	 20.9916
9.896000	 20.5517
9.980000	 20.5501
10.064	20.6217
10.148	20.7116
10.232	20.4916
10.316	20.0576
10.4	20.0954
10.484	20.1415
10.568	20.0006
10.652	19.8087
10.736	19.6011
10.82	19.5481
10.904	19.6226
10.988	19.7323
11.072	19.5563
11.156	19.2826
11.24	19.1712
11.324	19.0963
11.408	19.3074
11.492	19.2487
11.576	18.9296
11.66	18.7727
11.744	18.5451
11.828	18.3893
11.912	18.3565
11.996	18.3622
12.08	18.3682
12.164	18.1714
12.248	17.9845
12.332	17.8375
12.416	17.8625
12.5	17.9878
12.584	17.8015
12.668	17.53
12.752	17.4008
12.836	17.3764
12.92	17.3395
13.004	17.2488
13.088	17.2687
13.172	17.4408
13.256	17.4153
13.34	17.2038
13.424	17.0424
13.508	16.8505
13.592	16.5431
13.676	16.3785
13.76	16.4266
13.844	16.3735
13.928	16.1791
14.012	16.0265
14.096	15.9953
14.18	15.9197
14.264	15.7786
14.348	15.8757
14.432	16.155
14.516	16.208
14.6	15.9662
14.684	15.7666
14.768	15.7536
14.852	15.6974
14.936	15.4919
15.02	15.2988
15.104	15.1718
15.188	15.0393
15.272	14.9025
15.356	14.8587
15.44	14.8868
15.524	14.8594
15.608	14.8182
15.692	14.7978
15.776	14.689
15.86	14.5076
15.944	14.3546
16.028	14.2133
16.112	14.0605
16.196	13.9682
16.28	13.9512
16.364	13.8592
16.448	13.6053
16.532	13.4138
16.616	13.4921
16.7	13.6663
16.784	13.6846
16.868	13.5662
16.952	13.4579
17.036	13.3852
17.12	13.2673
17.204	13.0836
17.288	12.9496
17.372	12.9644
17.456	13.0442
17.54	13.0233
17.624	12.8538
17.708	12.6092
17.792	12.3617
17.876	12.1551
17.96	12.0439
18.044	12.0601
18.128	12.1541
18.212	12.2394
18.296	12.2841
18.38	12.313
18.464	12.3213
18.548	12.2546
18.632	12.0918
18.716	11.8892
18.8	11.7364
18.884	11.6958
18.968	11.7861
19.052	11.9638
19.136	12.1141
19.22	12.1053
19.304	11.8967
19.388	11.5715
19.472	11.2552
19.556	11.0288
19.64	10.9163
19.724	10.9078
19.808	10.9578
19.892	10.9692
19.976	10.8347
20.06	10.5241
20.144	10.1271
20.228	9.798742
20.312	9.658998
20.396	9.730125
20.48	9.948377
20.564	10.2133
20.648	10.4539
20.732	10.6432
20.816	10.7811
20.9	10.8651
20.984	10.8733
21.068	10.7848
21.152	10.6139
21.236	10.4253
21.32	10.3161
21.404	10.3593
21.488	10.5466
21.572	10.769
21.656	10.8483
21.74	10.6264
21.824	10.0584
21.908	9.264101
21.992	8.483066
22.076	7.959641
22.16	7.822072
22.244	8.010495
22.328	8.336987
22.412	8.602229
22.496	8.689828
22.58	8.599628
22.664	8.391074
22.748	8.129009
22.832	7.866626
22.916	7.663959
23	7.597273
23.084	7.737401
23.168	8.107159
23.252	8.640872
23.336	9.193132
23.42	9.630987
23.504	9.879419
23.588	9.953687
23.672	9.922393
23.756	9.842439
23.84	9.698304
23.924	9.421396
24.008	8.932970
24.092	8.201705
24.176	7.309506
24.26	6.442894
24.344	5.836017
24.428	5.652123
24.512	5.949581
24.596	6.609737
24.68	7.357239
24.764	7.851212
24.848	7.769823
24.932	6.940505
25.016	5.432322
25.1	3.439797
25.184	1.329203
25.268	-0.481323
25.352	-1.663420
25.436	-1.949765
25.52	-1.189884
25.604	0.627805
25.688	3.315810
25.772	6.463605
25.856	9.515479
25.94	11.8196
26.024	12.8216
26.108	12.3042
26.192	10.3032
26.276	7.051040
26.36	2.974516
26.444	-1.487386
26.528	-6.076493
26.612	-10.6564
26.696	-15.4744
26.78	-21.1311
26.864	-28.1339
26.948	-36.5635
27.028	-45.4029