File: Bakgrunnsmateriale/MATLAB/FTIR/ftir_data/LPE453/Mapping_121/LPE453_e126_cm-1.asc
PE IR       SPECTRUM    SPECTRUM    ASCII       PEDS        1.60
  -1
LP09BB~1.ASC
17/05/16
21:38:07.00
17/05/16
21:38:07.00
tln
$LPE453_e0126$<ebV0>[-23.3,12.1,10.0,0.0,27,1,0]
370
64

2002,4.07
MIRTGS : RIGHTBACK : INTERNAL 2
MIR : ON : INTERNAL 2
OPTKBR

0.200000
8
8.000000
FILLER
SINGLE
SPECTRUM
UNLOCKED 256

DOUBLE

COMBINED
1
0
0

1.000000
BACKG

1
0
TRUE
51149
0
LEFT NOT FITTED RIGHT NOT FITTED 0
NONE
NONE
15600
12
4.427000
51148
TRUE
1 0 8 72 0 0 0 0

15798

#HDR
-1
-1
#GR
CM-1
EGY
2.38419e-05
0.0
5000
-1.000000
4631
8
2.420759
0.009417
#DATA
5000	0.769877
4984	0.778770
4968	0.780558
4952	0.786066
4936	0.795435
4920	0.800395
4904	0.808262
4888	0.812005
4872	0.823450
4856	0.828552
4840	0.835680
4824	0.845766
4808	0.857877
4792	0.867319
4776	0.878524
4760	0.887060
4744	0.888919
4728	0.895380
4712	0.901675
4696	0.906205
4680	0.910544
4664	0.920605
4648	0.906538
4632	0.909876
4616	0.921702
4600	0.928187
4584	0.939559
4568	0.950837
4552	0.967025
4536	0.983548
4520	1.013040
4504	0.863313
4488	0.957107
4472	0.999712
4456	1.014518
4440	1.015114
4424	1.017642
4408	1.016783
4392	1.026606
4376	1.033067
4360	1.045250
4344	1.057815
4328	1.075959
4312	1.093912
4296	1.111745
4280	1.130843
4264	1.147484
4248	1.161813
4232	1.170706
4216	1.180243
4200	1.188516
4184	1.198410
4168	1.203751
4152	1.213479
4136	1.224637
4120	1.236653
4104	1.255416
4088	1.272463
4072	1.294875
4056	1.316380
4040	1.339125
4024	1.355695
4008	1.370263
3992	1.388692
3976	1.397275
3960	1.402521
3944	1.412630
3928	1.418685
3912	1.422643
3896	1.427602
3880	1.431393
3864	1.440715
3848	1.453542
3832	1.474189
3816	1.483702
3800	1.504397
3784	1.529097
3768	1.539158
3752	1.534700
3736	1.548504
3720	1.562094
3704	1.565051
3688	1.558756
3672	1.555562
3656	1.561379
3640	1.569151
3624	1.568722
3608	1.574182
3592	1.584100
3576	1.595449
3560	1.601028
3544	1.608157
3528	1.611042
3512	1.613497
3496	1.606202
3480	1.600623
3464	1.594471
3448	1.579999
3432	1.573467
3416	1.576781
3400	1.583003
3384	1.592826
3368	1.608633
3352	1.630210
3336	1.652956
3320	1.673316
3304	1.695299
3288	1.720929
3272	1.736378
3256	1.750063
3240	1.760673
3224	1.769185
3208	1.771950
3192	1.775574
3176	1.777672
3160	1.784753
3144	1.798462
3128	1.812577
3112	1.833248
3096	1.862788
3080	1.894021
3064	1.916313
3048	1.940393
3032	1.957535
3016	1.942348
3000	2.003097
2984	2.006697
2968	1.941323
2952	1.902174
2936	1.798462
2920	1.787519
2904	1.927518
2888	1.977562
2872	1.965522
2856	1.906871
2840	2.047324
2824	2.105355
2808	2.140927
2792	2.167582
2776	2.201223
2760	2.220129
2744	2.230119
2728	2.235913
2712	2.230310
2696	2.224397
2680	2.215242
2664	2.204942
2648	2.200698
2632	2.197504
2616	2.197575
2600	2.203440
2584	2.215266
2568	2.239918
2552	2.259564
2536	2.277922
2520	2.289843
2504	2.296733
2488	2.300095
2472	2.293944
2456	2.281379
2440	2.263569
2424	2.248287
2408	2.235865
2392	2.226567
2376	2.216815
2360	2.211618
2344	2.237057
2328	2.257847
2312	2.290916
2296	2.311921
2280	2.333116
2264	2.345728
2248	2.349090
2232	2.349615
2216	2.338314
2200	2.327871
2184	2.316570
2168	2.306485
2152	2.302598
2136	2.303862
2120	2.305293
2104	2.306437
2088	2.306294
2072	2.322411
2056	2.355599
2040	2.386379
2024	2.408194
2008	2.416944
1992	2.420687
1976	2.409934
1960	2.396559
1944	2.382373
1928	2.369999
1912	2.350926
1896	2.334475
1880	2.339911
1864	2.342486
1848	2.353906
1832	2.365612
1816	2.384829
1800	2.391695
1784	2.391600
1768	2.374100
1752	2.348899
1736	2.292227
1720	2.269911
1704	2.241539
1688	2.215051
1672	2.193474
1656	2.145314
1640	2.120971
1624	2.069902
1608	1.941037
1592	1.982927
1576	1.952767
1560	1.896190
1544	1.923799
1528	2.072381
1512	2.054715
1496	1.675224
1480	1.927351
1464	1.905608
1448	1.755499
1432	1.841139
1416	1.815772
1400	1.704311
1384	1.758027
1368	1.787877
1352	1.786708
1336	1.797366
1320	1.821565
1304	1.823997
1288	1.825571
1272	1.777553
1256	1.730513
1240	1.807451
1224	1.787090
1208	1.723599
1192	1.716613
1176	1.676321
1160	1.607704
1144	1.576232
1128	1.518058
1112	1.437020
1096	1.404356
1080	1.404762
1064	1.415443
1048	1.287508
1032	1.357436
1016	1.345610
1000	1.379013
984	 1.360559
968	 1.324009
952	 1.267743
936	 1.233410
920	 1.198577
904	 1.146197
888	 1.103997
872	 1.024222
856	 1.077413
840	 1.045799
824	 0.835371
808	 0.934219
792	 0.946164
776	 0.963783
760	 0.951337
744	 0.929450
728	 0.888872
712	 0.843930
696	 0.778341
680	 0.723600
664	 0.696015
648	 0.656461
632	 0.612378
616	 0.569677
600	 0.514793
584	 0.499367
568	 0.484204
552	 0.459098
536	 0.431418
520	 0.394010
504	 0.354862
488	 0.300717
472	 0.247192
456	 0.194907
440	 0.148320
424	 0.099205
408	 0.054717
392	 0.029468
376	 0.011682
370	 0.009417