File: Bakgrunnsmateriale/MATLAB/FTIR/ftir_data/LPE453/Mapping_121/LPE453_t94_cm-1.asc
PE IR       SPECTRUM    SPECTRUM    ASCII       PEDS        1.60
  -1
LPEB5B~1.ASC
17/05/16
22:06:40.00
17/05/16
22:06:40.00
tln
$LPE453_t0094$<tbV0>[0.0,7.8,8.0,0.0,27,1,0]
370
64

2002,4.07
MIRTGS : RIGHTBACK : INTERNAL 2
MIR : ON : INTERNAL 2
OPTKBR

0.200000
8
8.000000
FILLER
RATIO
SPECTRUM
UNLOCKED 256

DOUBLE
64
COMBINED
1
0
0

1.000000
RATIO

1
0
TRUE
51149
0
LEFT NOT FITTED RIGHT NOT FITTED 0
NONE
NONE
15600
12
4.427000
51148
TRUE
1 0 8 72 0 0 0 0

15798

#HDR
-1
-1
#GR
CM-1
%T
2.38419e-05
0.0
5000
-1.000000
4631
8
35.4467
-18.2271
#DATA
5000	0.232148
4984	0.084042
4968	0.065398
4952	0.150084
4936	-0.121808
4920	0.170111
4904	-0.157141
4888	-0.042271
4872	0.343775
4856	0.344014
4840	0.126242
4824	-0.269508
4808	0.488948
4792	0.138688
4776	0.130009
4760	0.361442
4744	-0.267982
4728	0.110197
4712	-0.181198
4696	0.339603
4680	-0.296902
4664	-0.791454
4648	0.586104
4632	0.461673
4616	0.971651
4600	-1.008367
4584	0.525474
4568	0.472450
4552	-1.434111
4536	-1.271772
4520	0.601649
4504	3.744244
4488	13.7834
4472	-1.045560
4456	-0.780749
4440	-0.395178
4424	-0.359177
4408	0.428223
4392	0.456047
4376	0.134325
4360	0.506353
4344	0.048923
4328	0.373578
4312	0.009870
4296	-0.021362
4280	0.025725
4264	-0.108718
4248	0.132918
4232	0.368237
4216	0.180673
4200	0.430488
4184	0.238990
4168	-0.132989
4152	0.028038
4136	0.427341
4120	-0.015139
4104	-0.082254
4088	0.155568
4072	0.010108
4056	0.161075
4040	0.397467
4024	0.082850
4008	0.166249
3992	0.019240
3976	0.104069
3960	0.095582
3944	0.171136
3928	-0.074148
3912	0.106835
3896	0.242853
3880	0.004124
3864	0.218200
3848	0.290346
3832	-0.001430
3816	0.177669
3800	0.146102
3784	0.088977
3768	0.086522
3752	-0.022029
3736	0.014185
3720	0.125956
3704	0.088667
3688	0.024127
3672	0.161218
3656	0.036978
3640	-0.068974
3624	-0.070548
3608	0.015878
3592	0.134253
3576	-0.014972
3560	-0.170373
3544	0.100350
3528	-0.076174
3512	0.027370
3496	0.236201
3480	-0.008368
3464	-0.016069
3448	0.011825
3432	-0.096964
3416	-0.011467
3400	0.049376
3384	0.130319
3368	-0.007033
3352	0.120162
3336	-0.049853
3320	0.016975
3304	0.284171
3288	0.201535
3272	0.146007
3256	-0.019240
3240	0.029850
3224	0.072932
3208	-0.092554
3192	-0.033116
3176	0.072336
3160	0.028085
3144	0.002002
3128	0.119972
3112	0.031757
3096	0.004148
3080	-0.018191
3064	0.041437
3048	0.004935
3032	0.053691
3016	-0.067996
3000	0.049471
2984	-0.088191
2968	0.127148
2952	0.047850
2936	-0.043869
2920	0.108885
2904	-0.009083
2888	-0.071883
2872	0.121378
2856	-0.016880
2840	0.025153
2824	0.059771
2808	-0.041031
2792	-0.040125
2776	0.113797
2760	-0.033164
2744	-0.016927
2728	0.129532
2712	-0.021433
2696	0.086498
2680	0.055336
2664	0.019526
2648	0.014710
2632	-0.014281
2616	0.085306
2600	0.131773
2584	0.072836
2568	-0.000762
2552	0.120806
2536	0.004291
2520	-0.003457
2504	0.045037
2488	0.100994
2472	0.065898
2456	-0.006175
2440	0.008463
2424	0.117135
2408	0.032567
2392	0.157594
2376	0.125217
2360	0.072336
2344	0.102114
2328	0.390315
2312	0.559186
2296	0.705170
2280	0.980949
2264	1.393842
2248	2.069497
2232	2.709150
2216	3.713726
2200	4.766845
2184	6.231331
2168	7.868695
2152	9.754872
2136	11.543
2120	13.5767
2104	15.7257
2088	17.714
2072	19.5777
2056	21.4578
2040	23.2705
2024	24.8098
2008	26.0788
1992	27.4733
1976	28.671
1960	29.4291
1944	30.2989
1928	31.2459
1912	31.795
1896	32.1687
1880	32.894
1864	33.4332
1848	33.3001
1832	33.7429
1816	34.1563
1800	34.1654
1784	34.2279
1768	34.6407
1752	34.6012
1736	34.458
1720	34.8857
1704	35.1226
1688	34.759
1672	34.6457
1656	35.181
1640	35.1597
1624	34.7826
1608	35.0161
1592	35.2943
1576	34.8738
1560	34.687
1544	35.2609
1528	35.2779
1512	34.7522
1496	34.9845
1480	35.3967
1464	35.1127
1448	34.5706
1432	35.0782
1416	35.1231
1400	34.535
1384	34.6321
1368	35.2046
1352	34.781
1336	34.2365
1320	34.6308
1304	34.9188
1288	34.2882
1272	34.1548
1256	34.7596
1240	34.4779
1224	34.0423
1208	34.1716
1192	34.6864
1176	34.1329
1160	33.6462
1144	34.2108
1128	34.383
1112	33.5452
1096	33.5119
1080	34.13
1064	33.8025
1048	33.2118
1032	33.5535
1016	33.715
1000	33.0351
984	 32.6144
968	 33.2273
952	 33.1941
936	 32.16
920	 32.2843
904	 32.8181
888	 31.9228
872	 31.2051
856	 31.8837
840	 32.0252
824	 30.9934
808	 30.5837
792	 31.1256
776	 30.9773
760	 29.9699
744	 30.2446
728	 30.3531
712	 29.5712
696	 28.673
680	 29.1335
664	 29.2589
648	 28.045
632	 27.8399
616	 28.0536
600	 27.4816
584	 26.1435
568	 25.8018
552	 26.5207
536	 25.439
520	 25.1873
504	 25.0301
488	 23.1409
472	 24.0502
456	 22.8518
440	 22.9168
424	 20.8993
408	 22.8241
392	 19.6478
376	 -2.913618
370	 -18.2271