File: Bakgrunnsmateriale/MATLAB/FTIR/ftir_data/LPE453/Mapping_121/LPE453_t98.asc
PE IR       SPECTRUM    SPECTRUM    ASCII       PEDS        1.60
  -1
LPE7B9~1.ASC
17/05/16
22:25:07.00
17/05/16
22:25:33.00
tln
$LPE453_t0098$<tbV0>[-10.4,7.8,8.0,0.0,27,1,0]
27.028
64

2002,4.07
MIRTGS : RIGHTBACK : INTERNAL 2
MIR : ON : INTERNAL 2
OPTKBR

0.200000
8
8.000000
FILLER
RATIO
SPECTRUM
UNLOCKED 256

DOUBLE
64
COMBINED
1
0
0

0.002000
RATIO

1
0
TRUE
51149
0
LEFT NOT FITTED RIGHT NOT FITTED 0
NONE
NONE
15600
12
4.427000
51148
TRUE
1 0 8 72 0 0 0 0

15798

#HDR
-1
-1
#GR
µM
%T
2.38419e-05
0.0
2.000000
0.002000
12515
8
37.5861
-13.1265
#DATA
2.000000	 0.151920
2.084000	 0.105002
2.168000	 1.501297
2.252000	 0.037637
2.336000	 0.098072
2.420000	 -0.030703
2.504000	 -0.171109
2.588000	 0.009572
2.672000	 0.098195
2.756000	 0.143249
2.840000	 0.061712
2.924000	 0.043420
3.008000	 -0.046981
3.092000	 0.131985
3.176000	 0.003497
3.260000	 0.068935
3.344000	 -0.199532
3.428000	 0.045454
3.512000	 0.061394
3.596000	 -0.027617
3.680000	 0.010668
3.764000	 0.091179
3.848000	 -0.038342
3.932000	 0.112576
4.016000	 -0.029936
4.100000	 0.115773
4.184000	 0.024064
4.268000	 0.160816
4.352000	 0.902193
4.436000	 1.949751
4.520000	 4.179342
4.604000	 7.780284
4.688000	 12.3617
4.772000	 17.5066
4.856000	 22.1344
4.940000	 25.8402
5.024000	 29.2566
5.108000	 31.2003
5.192000	 33.2685
5.276000	 34.2656
5.359999	 35.2837
5.444000	 35.7865
5.528000	 36.4025
5.612000	 36.2657
5.696000	 37.0001
5.780000	 36.3243
5.864000	 37.4289
5.948000	 36.7723
6.032000	 37.0783
6.116000	 37.4974
6.200000	 36.5112
6.284000	 37.2933
6.368000	 37.1748
6.452000	 36.4226
6.536000	 37.2055
6.620000	 37.0721
6.704000	 36.1505
6.788000	 36.9913
6.872000	 36.9764
6.956000	 36.3329
7.040000	 36.2117
7.124000	 37.0485
7.208000	 36.7795
7.292000	 35.8204
7.376000	 36.156
7.460000	 36.8193
7.544000	 36.5526
7.628000	 35.7991
7.712000	 35.7676
7.796000	 36.4846
7.880000	 36.5813
7.964000	 35.8108
8.048000	 35.4116
8.132000	 35.885
8.216000	 36.4706
8.300000	 36.2827
8.384000	 35.4688
8.468000	 35.1278
8.552000	 35.642
8.635999	 36.127
8.719999	 36.1827
8.804000	 35.6168
8.888000	 35.0457
8.972000	 35.03
9.056000	 35.5606
9.140000	 35.9353
9.224000	 36.1254
9.308000	 35.3652
9.391999	 34.8585
9.475999	 34.6003
9.560000	 34.7063
9.644000	 35.5034
9.728000	 35.6486
9.812000	 35.395
9.896000	 34.812
9.980000	 34.4111
10.064	34.1575
10.148	34.4266
10.232	35.0483
10.316	35.2954
10.4	35.2003
10.484	34.793
10.568	34.3665
10.652	33.9406
10.736	33.8063
10.82	33.8953
10.904	34.2586
10.988	34.5908
11.072	34.8058
11.156	34.6651
11.24	34.2824
11.324	33.8202
11.408	33.3224
11.492	33.0269
11.576	33.2679
11.66	33.4112
11.744	33.8342
11.828	34.2825
11.912	34.2528
11.996	34.1374
12.08	33.7055
12.164	33.1303
12.248	32.8037
12.332	32.5559
12.416	32.3591
12.5	32.4744
12.584	32.8221
12.668	33.0939
12.752	33.3576
12.836	33.5243
12.92	33.4026
13.004	33.177
13.088	32.9187
13.172	32.6246
13.256	32.1944
13.34	31.8837
13.424	31.7128
13.508	31.7091
13.592	31.9435
13.676	32.2769
13.76	32.5124
13.844	32.5107
13.928	32.5287
14.012	32.6127
14.096	32.5808
14.18	32.3229
14.264	31.9879
14.348	31.6566
14.432	31.326
14.516	31.0649
14.6	30.8823
14.684	30.8011
14.768	30.9117
14.852	31.0564
14.936	31.0542
15.02	31.0397
15.104	31.1535
15.188	31.3686
15.272	31.5582
15.356	31.626
15.44	31.5456
15.524	31.2665
15.608	30.8891
15.692	30.6654
15.776	30.5699
15.86	30.3837
15.944	30.1106
16.028	29.861
16.112	29.6619
16.196	29.5843
16.28	29.6524
16.364	29.6939
16.448	29.6146
16.532	29.5869
16.616	29.786
16.7	30.1561
16.784	30.4738
16.868	30.515
16.952	30.2456
17.036	29.89
17.12	29.7038
17.204	29.6878
17.288	29.647
17.372	29.4846
17.456	29.2936
17.54	29.1744
17.624	29.0876
17.708	28.9354
17.792	28.7038
17.876	28.4701
17.96	28.2973
18.044	28.1681
18.128	28.0297
18.212	27.916
18.296	27.9449
18.38	28.162
18.464	28.4448
18.548	28.6361
18.632	28.7235
18.716	28.8086
18.8	28.9384
18.884	29.0666
18.968	29.1394
19.052	29.1347
19.136	29.0385
19.22	28.8459
19.304	28.5976
19.388	28.376
19.472	28.237
19.556	28.1665
19.64	28.0954
19.724	27.9496
19.808	27.6949
19.892	27.3554
19.976	26.9895
20.06	26.6424
20.144	26.347
20.228	26.1535
20.312	26.1253
20.396	26.2834
20.48	26.5584
20.564	26.8205
20.648	26.976
20.732	27.031
20.816	27.069
20.9	27.166
20.984	27.335
21.068	27.5254
21.152	27.6669
21.236	27.7081
21.32	27.6442
21.404	27.5167
21.488	27.3918
21.572	27.3231
21.656	27.3162
21.74	27.3203
21.824	27.257
21.908	27.0736
21.992	26.7787
22.076	26.4306
22.16	26.0921
22.244	25.7779
22.328	25.4493
22.412	25.0465
22.496	24.5431
22.58	23.9823
22.664	23.4555
22.748	23.061
22.832	22.8549
22.916	22.83
23	22.9258
23.084	23.0648
23.168	23.1893
23.252	23.2823
23.336	23.3449
23.42	23.3916
23.504	23.4344
23.588	23.4831
23.672	23.5535
23.756	23.6704
23.84	23.8353
23.924	24.0208
24.008	24.1528
24.092	24.121
24.176	23.8534
24.26	23.3576
24.344	22.7392
24.428	22.1393
24.512	21.6502
24.596	21.2365
24.68	20.7655
24.764	20.0989
24.848	19.1705
24.932	18.0417
25.016	16.8999
25.1	15.9776
25.184	15.4818
25.268	15.5239
25.352	16.1344
25.436	17.2341
25.52	18.7009
25.604	20.4529
25.688	22.3787
25.772	24.3655
25.856	26.3199
25.94	28.1878
26.024	29.8735
26.108	31.173
26.192	31.9077
26.276	31.9078
26.36	31.0215
26.444	29.1834
26.528	26.5004
26.612	23.2358
26.696	19.8783
26.78	17.0866
26.864	15.5097
26.948	15.6316
27.028	17.4504