File: Bakgrunnsmateriale/MATLAB/FTIR/ftir_data/LPE453/Mapping_121/LPE453_t89_cm-1.asc
PE IR       SPECTRUM    SPECTRUM    ASCII       PEDS        1.60
  -1
LP6BDC~1.ASC
17/05/16
21:43:36.00
17/05/16
21:43:36.00
tln
$LPE453_t0089$<tbV0>[13.0,7.8,8.0,0.0,27,1,0]
370
64

2002,4.07
MIRTGS : RIGHTBACK : INTERNAL 2
MIR : ON : INTERNAL 2
OPTKBR

0.200000
8
8.000000
FILLER
RATIO
SPECTRUM
UNLOCKED 256

DOUBLE
64
COMBINED
1
0
0

1.000000
RATIO

1
0
TRUE
51149
0
LEFT NOT FITTED RIGHT NOT FITTED 0
NONE
NONE
15600
12
4.427000
51148
TRUE
1 0 8 72 0 0 0 0

15798

#HDR
-1
-1
#GR
CM-1
%T
2.38419e-05
0.0
5000
-1.000000
4631
8
24.8751
-7.317805
#DATA
5000	-0.293803
4984	0.034999
4968	-0.005769
4952	0.211834
4936	0.029802
4920	0.399899
4904	0.171113
4888	-0.498628
4872	0.259256
4856	0.014185
4840	0.271368
4824	0.045251
4808	0.258159
4792	0.257349
4776	0.379228
4760	0.398468
4744	0.099682
4728	0.432682
4712	0.249338
4696	0.591635
4680	0.108170
4664	0.666737
4648	-0.359654
4632	0.493502
4616	-0.589203
4600	-0.274252
4584	1.724314
4568	-0.181722
4552	0.710988
4536	0.583004
4520	-0.274729
4504	-4.470300
4488	0.591850
4472	0.972437
4456	0.509023
4440	-0.233483
4424	0.762534
4408	0.160264
4392	0.320219
4376	0.404787
4360	-0.121140
4344	0.201702
4328	0.270605
4312	-0.167131
4296	-0.113821
4280	-0.364017
4264	0.134205
4248	0.000739
4232	0.265026
4216	0.073242
4200	0.293517
4184	0.085806
4168	0.370192
4152	0.002813
4136	0.217771
4120	0.337123
4104	0.106739
4088	0.141286
4072	0.230598
4056	0.122380
4040	0.121665
4024	0.269699
4008	0.003218
3992	-0.086975
3976	-0.172114
3960	0.286245
3944	0.095605
3928	-0.051522
3912	-0.003004
3896	0.055360
3880	-0.044751
3864	0.207281
3848	0.015664
3832	0.097250
3816	-0.002193
3800	-0.012421
3784	0.089454
3768	0.142836
3752	0.176048
3736	-0.097060
3720	0.067067
3704	-0.056171
3688	0.018405
3672	0.050783
3656	-0.033807
3640	0.133275
3624	0.059437
3608	0.128197
3592	0.093841
3576	0.037240
3560	0.127291
3544	0.104594
3528	0.142908
3512	-0.031399
3496	0.050044
3480	0.144457
3464	0.047707
3448	0.075531
3432	0.002813
3416	0.193834
3400	-0.046920
3384	0.073575
3368	0.088334
3352	0.045228
3336	0.027036
3320	-0.040984
3304	0.116991
3288	-0.034093
3272	0.005030
3256	0.060629
3240	0.080060
3224	0.035905
3208	-0.095868
3192	-0.066304
3176	-0.027012
3160	-0.024652
3144	-0.071334
3128	0.166344
3112	-0.019121
3096	-0.037407
3080	0.095129
3064	0.024533
3048	0.099492
3032	0.059437
3016	0.151515
3000	0.104618
2984	-0.014805
2968	-0.169277
2952	-0.013589
2936	0.122761
2920	0.087499
2904	0.039076
2888	0.141310
2872	-0.062227
2856	0.093007
2840	0.017499
2824	0.133371
2808	0.119328
2792	-0.013256
2776	0.018358
2760	0.054693
2744	-0.075221
2728	0.053954
2712	0.095272
2696	0.005578
2680	0.062584
2664	0.071501
2648	0.075125
2632	0.011038
2616	0.043272
2600	0.040316
2584	-0.006771
2568	-0.019121
2552	0.025892
2536	0.062417
2520	-0.016617
2504	0.078773
2488	-0.014877
2472	-0.062298
2456	-0.047898
2440	0.181055
2424	0.008010
2408	0.015044
2392	0.027012
2376	0.063681
2360	0.022315
2344	-0.112843
2328	-0.003600
2312	0.052881
2296	0.084424
2280	0.132822
2264	0.217914
2248	0.350832
2232	0.572323
2216	0.857615
2200	1.335835
2184	1.701188
2168	2.565574
2152	3.432464
2136	4.364037
2120	5.501389
2104	6.728434
2088	8.015298
2072	9.357070
2056	10.5561
2040	11.9607
2024	13.1499
2008	14.379
1992	15.4176
1976	16.3589
1960	17.3639
1944	18.1626
1928	18.9076
1912	19.5911
1896	20.1615
1880	20.7739
1864	21.1732
1848	21.6103
1832	21.9922
1816	22.2421
1800	22.6146
1784	22.8013
1768	23.1519
1752	23.2836
1736	23.3153
1720	23.6536
1704	23.7008
1688	23.8803
1672	24.0082
1656	24.141
1640	24.2595
1624	24.3588
1608	24.4028
1592	24.5044
1576	24.4225
1560	24.5632
1544	24.5647
1528	24.6385
1512	24.5995
1496	24.6741
1480	24.7609
1464	24.8252
1448	24.8207
1432	24.7587
1416	24.7961
1400	24.8004
1384	24.7421
1368	24.6248
1352	24.6849
1336	24.6957
1320	24.7369
1304	24.7609
1288	24.6287
1272	24.5275
1256	24.5852
1240	24.6416
1224	24.4633
1208	24.4947
1192	24.4273
1176	24.2866
1160	24.3838
1144	24.4548
1128	24.1257
1112	24.0898
1096	23.9968
1080	24.0992
1064	23.9092
1048	23.8442
1032	23.754
1016	23.7813
1000	23.4414
984	 23.4001
968	 23.2874
952	 23.227
936	 23.0647
920	 22.8709
904	 22.8584
888	 22.4509
872	 22.2794
856	 22.0601
840	 21.9249
824	 21.6397
808	 21.4435
792	 21.1698
776	 20.9558
760	 20.9413
744	 20.9039
728	 20.2492
712	 19.9597
696	 19.9234
680	 19.3804
664	 18.7809
648	 18.8958
632	 18.8383
616	 18.0755
600	 17.4808
584	 17.7385
568	 16.9595
552	 16.5584
536	 16.6169
520	 15.5911
504	 15.066
488	 14.542
472	 14.2353
456	 13.4456
440	 12.3549
424	 13.663
408	 11.8758
392	 -0.798988
376	 2.008962
370	 14.822