File: Bakgrunnsmateriale/MATLAB/FTIR/ftir_data/LPE453/Mapping_121/LPE453_t14.asc
PE IR       SPECTRUM    SPECTRUM    ASCII       PEDS        1.60
  -1
LPD799~1.ASC
17/05/16
15:28:37.00
17/05/16
15:29:03.00
tln
$LPE453_t0014$<tbV0>[7.8,-10.4,8.0,0.0,27,1,0]
27.028
64

2002,4.07
MIRTGS : RIGHTBACK : INTERNAL 2
MIR : ON : INTERNAL 2
OPTKBR

0.200000
8
8.000000
FILLER
RATIO
SPECTRUM
UNLOCKED 256

DOUBLE
64
COMBINED
1
0
0

0.002000
RATIO

1
0
TRUE
51149
0
LEFT NOT FITTED RIGHT NOT FITTED 0
NONE
NONE
15600
12
4.427000
51148
TRUE
1 0 8 72 0 0 0 0

15798

#HDR
-1
-1
#GR
µM
%T
2.38419e-05
0.0
2.000000
0.002000
12515
8
32.4616
-6.658506
#DATA
2.000000	 -0.105190
2.084000	 0.174737
2.168000	 0.365871
2.252000	 0.435646
2.336000	 -0.045127
2.420000	 -0.157596
2.504000	 -0.125420
2.588000	 0.044879
2.672000	 -0.075873
2.756000	 0.015960
2.840000	 -0.078680
2.924000	 -0.060061
3.008000	 0.101740
3.092000	 0.116215
3.176000	 0.114443
3.260000	 0.018376
3.344000	 0.154144
3.428000	 0.024462
3.512000	 0.179955
3.596000	 -0.010718
3.680000	 0.071692
3.764000	 0.120673
3.848000	 0.147988
3.932000	 0.034144
4.016000	 0.084186
4.100000	 0.078569
4.184000	 0.019945
4.268000	 0.026414
4.352000	 0.127474
4.436000	 0.608298
4.520000	 1.820132
4.604000	 4.130872
4.688000	 7.547980
4.772000	 11.9024
4.856000	 16.083
4.940000	 20.017
5.024000	 23.0798
5.108000	 25.509
5.192000	 27.4337
5.276000	 28.8424
5.359999	 29.8573
5.444000	 30.5135
5.528000	 31.0859
5.612000	 31.3822
5.696000	 31.6629
5.780000	 31.9913
5.864000	 32.1238
5.948000	 32.2732
6.032000	 32.3348
6.116000	 32.3167
6.200000	 32.1744
6.284000	 32.1551
6.368000	 32.3836
6.452000	 32.1925
6.536000	 32.2331
6.620000	 32.1712
6.704000	 31.9694
6.788000	 32.0089
6.872000	 31.7496
6.956000	 32.0845
7.040000	 31.8282
7.124000	 31.6453
7.208000	 31.7004
7.292000	 31.6419
7.376000	 31.3426
7.460000	 31.585
7.544000	 31.4168
7.628000	 31.2363
7.712000	 31.1925
7.796000	 31.2209
7.880000	 31.0761
7.964000	 30.7655
8.048000	 31.0294
8.132000	 31.0652
8.216000	 30.8863
8.300000	 30.7796
8.384000	 30.8384
8.468000	 30.9038
8.552000	 30.7997
8.635999	 30.4892
8.719999	 30.4304
8.804000	 30.5852
8.888000	 30.6385
8.972000	 30.5489
9.056000	 30.129
9.140000	 30.1841
9.224000	 30.3148
9.308000	 30.2287
9.391999	 29.9009
9.475999	 29.9028
9.560000	 30.0953
9.644000	 30.0762
9.728000	 30.1203
9.812000	 29.8492
9.896000	 29.377
9.980000	 29.5369
10.064	29.7447
10.148	29.7238
10.232	29.5842
10.316	29.2466
10.4	28.9567
10.484	29.0733
10.568	29.1896
10.652	29.2117
10.736	29.1689
10.82	28.9901
10.904	28.7318
10.988	28.4237
11.072	28.3781
11.156	28.297
11.24	28.4164
11.324	28.4545
11.408	28.3862
11.492	28.1293
11.576	27.6572
11.66	27.5461
11.744	27.5967
11.828	27.6348
11.912	27.6815
11.996	27.7623
12.08	27.7497
12.164	27.4155
12.248	27.0999
12.332	26.9283
12.416	26.8724
12.5	26.914
12.584	27.0727
12.668	27.2562
12.752	27.2716
12.836	27.0412
12.92	26.7033
13.004	26.5421
13.088	26.3597
13.172	26.2204
13.256	26.2556
13.34	25.9255
13.424	25.7441
13.508	26.0623
13.592	26.3133
13.676	26.3817
13.76	26.4382
13.844	26.1117
13.928	25.6793
14.012	25.4353
14.096	25.2453
14.18	25.1332
14.264	24.9935
14.348	24.8476
14.432	24.743
14.516	24.7802
14.6	25.0381
14.684	25.2022
14.768	25.0476
14.852	24.8533
14.936	24.6918
15.02	24.4514
15.104	24.3237
15.188	24.3308
15.272	24.1625
15.356	23.8178
15.44	23.6545
15.524	23.6937
15.608	23.6714
15.692	23.7129
15.776	23.9498
15.86	24.0957
15.944	24.0361
16.028	23.9356
16.112	23.7749
16.196	23.5206
16.28	23.3439
16.364	23.2722
16.448	23.1025
16.532	22.8507
16.616	22.7508
16.7	22.8257
16.784	22.8813
16.868	22.8285
16.952	22.7693
17.036	22.8129
17.12	22.8955
17.204	22.838
17.288	22.6097
17.372	22.3617
17.456	22.2022
17.54	22.1248
17.624	22.1041
17.708	22.1124
17.792	22.0852
17.876	21.9792
17.96	21.8315
18.044	21.6993
18.128	21.5814
18.212	21.433
18.296	21.2366
18.38	21.0485
18.464	20.9732
18.548	21.0798
18.632	21.3248
18.716	21.5717
18.8	21.6912
18.884	21.6451
18.968	21.4634
19.052	21.1893
19.136	20.8662
19.22	20.5623
19.304	20.3636
19.388	20.3186
19.472	20.3974
19.556	20.5142
19.64	20.5776
19.724	20.5086
19.808	20.2603
19.892	19.8562
19.976	19.3925
20.06	18.9874
20.144	18.7183
20.228	18.6139
20.312	18.6827
20.396	18.9152
20.48	19.2572
20.564	19.6109
20.648	19.8844
20.732	20.0439
20.816	20.0972
20.9	20.0447
20.984	19.8732
21.068	19.6047
21.152	19.3413
21.236	19.2215
21.32	19.3064
21.404	19.5138
21.488	19.6755
21.572	19.6772
21.656	19.5527
21.74	19.4459
21.824	19.4897
21.908	19.6941
21.992	19.9446
22.076	20.0913
22.16	20.0317
22.244	19.7504
22.328	19.3015
22.412	18.7851
22.496	18.3312
22.58	18.0419
22.664	17.9611
22.748	18.0448
22.832	18.1718
22.916	18.2063
23	18.0605
23.084	17.7307
23.168	17.3064
23.252	16.9133
23.336	16.6534
23.42	16.562
23.504	16.599
23.588	16.6779
23.672	16.722
23.756	16.7033
23.84	16.6677
23.924	16.7424
24.008	17.0691
24.092	17.7397
24.176	18.7727
24.26	20.0864
24.344	21.4944
24.428	22.7607
24.512	23.6401
24.596	23.9349
24.68	23.5489
24.764	22.5421
24.848	21.0875
24.932	19.4422
25.016	17.8591
25.1	16.4915
25.184	15.4189
25.268	14.678
25.352	14.3095
25.436	14.4114
25.52	15.1153
25.604	16.5174
25.688	18.6462
25.772	21.3542
25.856	24.2725
25.94	26.8545
26.024	28.4447
26.108	28.4762
26.192	26.7379
26.276	23.4114
26.36	19.0586
26.444	14.3668
26.528	9.909462
26.612	5.973354
26.696	2.587567
26.78	-0.392572
26.864	-3.012178
26.948	-5.164753
27.028	-6.658506