File: Bakgrunnsmateriale/MATLAB/FTIR/ftir_data/LPE453/Mapping_121/LPE453_t15_cm-1.asc
PE IR       SPECTRUM    SPECTRUM    ASCII       PEDS        1.60
  -1
LPE7DB~1.ASC
17/05/16
15:33:14.00
17/05/16
15:33:14.00
tln
$LPE453_t0015$<tbV0>[5.2,-10.4,8.0,0.0,27,1,0]
370
64

2002,4.07
MIRTGS : RIGHTBACK : INTERNAL 2
MIR : ON : INTERNAL 2
OPTKBR

0.200000
8
8.000000
FILLER
RATIO
SPECTRUM
UNLOCKED 256

DOUBLE
64
COMBINED
1
0
0

1.000000
RATIO

1
0
TRUE
51149
0
LEFT NOT FITTED RIGHT NOT FITTED 0
NONE
NONE
15600
12
4.427000
51148
TRUE
1 0 8 72 0 0 0 0

15798

#HDR
-1
-1
#GR
CM-1
%T
2.38419e-05
0.0
5000
-1.000000
4631
8
38.163
-16.8547
#DATA
5000	-0.042343
4984	0.067806
4968	-0.389647
4952	0.253844
4936	0.310158
4920	-0.077199
4904	0.025868
4888	0.287818
4872	0.352072
4856	0.163865
4840	0.492906
4824	0.505924
4808	0.144100
4792	0.423336
4776	-0.038313
4760	0.675249
4744	-0.272965
4728	0.180649
4712	0.460743
4696	-0.023937
4680	0.522565
4664	0.717711
4648	0.920295
4632	0.777339
4616	1.061081
4600	0.389838
4584	-0.657010
4568	-1.672983
4552	-1.487088
4536	-1.650118
4520	10.7613
4504	-0.600075
4488	-1.622200
4472	-1.338601
4456	-1.383256
4440	-1.637363
4424	-0.221848
4408	0.287151
4392	0.729346
4376	0.816082
4360	0.402259
4344	0.396919
4328	0.443673
4312	-0.046491
4296	0.274443
4280	-0.135421
4264	-0.121998
4248	0.324797
4232	0.258421
4216	0.356268
4200	0.211238
4184	0.398874
4168	0.332713
4152	0.061011
4136	0.010848
4120	-0.049662
4104	0.051283
4088	-0.107121
4072	0.404024
4056	0.113296
4040	0.271773
4024	0.102686
4008	0.208044
3992	0.155639
3976	0.242447
3960	0.047588
3944	0.117611
3928	-0.037550
3912	0.200653
3896	-0.050139
3880	-0.097680
3864	0.052762
3848	0.014281
3832	0.183200
3816	-0.026297
3800	-0.017952
3784	0.173783
3768	0.123167
3752	0.260400
3736	0.146460
3720	0.006127
3704	0.133490
3688	0.035953
3672	-0.031995
3656	0.172400
3640	0.019931
3624	-0.000619
3608	0.169754
3592	-0.054764
3576	0.120282
3560	0.182986
3544	-0.044202
3528	-0.003337
3512	0.243735
3496	0.121235
3480	0.123238
3464	-0.088095
3448	0.062608
3432	-0.100255
3416	-0.053119
3400	0.084996
3384	-0.135087
3368	0.120353
3352	0.145792
3336	0.057220
3320	0.037574
3304	0.045895
3288	0.011444
3272	0.027084
3256	0.145792
3240	-0.093150
3224	0.081968
3208	0.145316
3192	0.008964
3176	-0.089859
3160	0.017142
3144	0.084233
3128	0.001931
3112	0.118112
3096	0.053620
3080	0.005030
3064	-0.037217
3048	-0.007009
3032	0.074744
3016	0.045943
3000	0.091838
2984	-0.043439
2968	0.073218
2952	0.045275
2936	0.133371
2920	0.115561
2904	0.024771
2888	0.077176
2872	0.054979
2856	-0.054526
2840	-0.012063
2824	0.070548
2808	0.062251
2792	-0.020527
2776	0.041174
2760	0.057363
2744	0.061774
2728	-0.046658
2712	0.096845
2696	0.013637
2680	0.035500
2664	0.073289
2648	0.184392
2632	-0.026631
2616	0.116348
2600	0.018453
2584	0.138568
2568	-0.035238
2552	-0.067377
2536	0.092220
2520	0.042629
2504	0.007939
2488	0.079369
2472	-0.000953
2456	-0.005817
2440	0.004768
2424	0.041317
2408	-0.058054
2392	0.186395
2376	0.018668
2360	-0.037622
2344	0.016880
2328	-0.002503
2312	-0.001764
2296	0.138854
2280	0.090241
2264	0.300955
2248	0.522875
2232	0.829267
2216	1.135587
2200	1.782917
2184	2.615165
2168	3.456711
2152	4.727649
2136	5.831146
2120	7.543826
2104	9.227299
2088	10.9036
2072	12.6601
2056	14.3367
2040	16.066
2024	17.5239
2008	19.0125
1992	20.3146
1976	21.6105
1960	22.6753
1944	23.7616
1928	24.3678
1912	25.2724
1896	25.7113
1880	26.3331
1864	26.8995
1848	27.1457
1832	27.5172
1816	27.8787
1800	28.1248
1784	28.2862
1768	28.5951
1752	28.6255
1736	28.7338
1720	28.7782
1704	29.0556
1688	29.0533
1672	28.9854
1656	29.0704
1640	29.0653
1624	28.9779
1608	28.897
1592	28.852
1576	29.0071
1560	29.1744
1544	29.0032
1528	28.9257
1512	28.775
1496	28.8854
1480	28.7601
1464	28.5545
1448	28.6498
1432	28.5717
1416	28.4574
1400	28.3271
1384	28.4902
1368	28.324
1352	28.1214
1336	28.2211
1320	27.8756
1304	27.9883
1288	27.9005
1272	27.7983
1256	27.7496
1240	27.6919
1224	27.5507
1208	27.6457
1192	27.4991
1176	27.6955
1160	27.4929
1144	27.3883
1128	27.2839
1112	27.0407
1096	27.2501
1080	26.7735
1064	26.9183
1048	26.737
1032	26.3924
1016	26.5849
1000	26.0243
984	 25.6975
968	 25.9831
952	 25.5961
936	 25.3785
920	 25.1873
904	 24.8326
888	 24.7995
872	 24.9937
856	 24.2728
840	 24.0484
824	 23.9418
808	 23.4643
792	 23.5078
776	 23.4993
760	 22.8396
744	 22.4323
728	 23.1571
712	 22.0611
696	 21.8335
680	 21.6236
664	 20.9485
648	 21.0431
632	 20.3847
616	 19.7409
600	 19.4201
584	 19.382
568	 18.5804
552	 18.2402
536	 18.2343
520	 17.5941
504	 16.9651
488	 16.4886
472	 15.9959
456	 15.0557
440	 14.6898
424	 14.2545
408	 17.8668
392	 -9.671902
376	 -16.8547
370	 -4.545116