File: Bakgrunnsmateriale/MATLAB/FTIR/ftir_data/LPE453/Mapping_121/LPE453_t71_cm-1.asc
PE IR       SPECTRUM    SPECTRUM    ASCII       PEDS        1.60
  -1
LPDAD0~1.ASC
17/05/16
20:13:31.00
17/05/16
20:13:31.00
tln
$LPE453_t0071$<tbV0>[2.6,2.6,8.0,0.0,27,1,0]
370
64

2002,4.07
MIRTGS : RIGHTBACK : INTERNAL 2
MIR : ON : INTERNAL 2
OPTKBR

0.200000
8
8.000000
FILLER
RATIO
SPECTRUM
UNLOCKED 256

DOUBLE
64
COMBINED
1
0
0

1.000000
RATIO

1
0
TRUE
51149
0
LEFT NOT FITTED RIGHT NOT FITTED 0
NONE
NONE
15600
12
4.427000
51148
TRUE
1 0 8 72 0 0 0 0

15798

#HDR
-1
-1
#GR
CM-1
%T
2.38419e-05
0.0
5000
-1.000000
4631
8
29.7876
-31.8484
#DATA
5000	0.293374
4984	0.726199
4968	-0.336074
4952	0.548768
4936	0.035762
4920	-0.058770
4904	0.365591
4888	0.053143
4872	0.167298
4856	-0.168299
4840	0.692653
4824	0.043201
4808	0.350570
4792	0.125217
4776	-0.044894
4760	-0.359702
4744	-0.079178
4728	-0.607728
4712	0.647354
4696	2.230930
4680	-0.038528
4664	1.480317
4648	1.146793
4632	0.368523
4616	0.667262
4600	0.340461
4584	0.212502
4568	0.461030
4552	0.034689
4536	-0.419449
4520	-0.649046
4504	-0.131249
4488	20.8035
4472	0.066542
4456	-1.336789
4440	-1.230144
4424	-0.361323
4408	0.266957
4392	0.663852
4376	0.637936
4360	0.646805
4344	0.330996
4328	0.252723
4312	-0.064563
4296	-0.023508
4280	0.063991
4264	-0.293374
4248	0.180387
4232	0.236535
4216	0.289869
4200	0.395250
4184	-0.181460
4168	0.146365
4152	0.123834
4136	0.130724
4120	-0.063896
4104	0.100445
4088	0.061655
4072	-0.101280
4056	0.115799
4040	0.082445
4024	-0.013399
4008	0.120353
3992	0.249958
3976	-0.021767
3960	0.099182
3944	0.036644
3928	0.129675
3912	0.089073
3896	0.050878
3880	0.046110
3864	0.062346
3848	0.098824
3832	0.166130
3816	0.151991
3800	0.197696
3784	0.134873
3768	0.051331
3752	0.048160
3736	0.050806
3720	0.018572
3704	0.176739
3688	0.069808
3672	0.026178
3656	0.031328
3640	-0.075268
3624	0.043201
3608	0.175762
3592	0.038957
3576	0.149822
3560	-0.041031
3544	0.199747
3528	0.043821
3512	-0.060963
3496	0.146126
3480	-0.039124
3464	-0.180792
3448	0.058174
3432	0.066995
3416	0.065350
3400	0.103640
3384	-0.037217
3368	0.063705
3352	-0.014734
3336	0.094580
3320	0.045204
3304	0.082564
3288	0.060629
3272	-0.005483
3256	0.075435
3240	0.012946
3224	0.053548
3208	0.187325
3192	-0.029993
3176	0.045680
3160	0.055384
3144	0.035238
3128	0.021791
3112	0.095105
3096	-0.065445
3080	0.209760
3064	0.046825
3048	0.015401
3032	0.060987
3016	0.059700
3000	0.098252
2984	-0.006103
2968	-0.032138
2952	-0.079894
2936	0.110530
2920	0.071859
2904	-0.008511
2888	0.058197
2872	-0.033020
2856	-0.008964
2840	0.089335
2824	0.094318
2808	-0.072884
2792	0.055480
2776	-0.050568
2760	-0.003361
2744	0.027656
2728	-0.035047
2712	-0.002694
2696	0.007033
2680	-0.019717
2664	0.026011
2648	-0.062704
2632	0.122857
2616	-0.009536
2600	0.029754
2584	-0.034856
2568	-0.018715
2552	0.139713
2536	-0.004792
2520	0.061535
2504	0.022435
2488	0.127935
2472	0.130724
2456	-0.039076
2440	-0.009083
2424	-0.148653
2408	0.083422
2392	-0.007176
2376	-0.001168
2360	-0.079631
2344	-0.000715
2328	-0.034475
2312	0.163412
2296	0.183796
2280	0.260806
2264	0.683546
2248	0.726604
2232	1.125597
2216	1.723980
2200	2.400422
2184	3.293371
2168	4.564547
2152	5.709815
2136	7.246756
2120	8.723139
2104	10.6181
2088	12.3589
2072	13.9581
2056	15.7692
2040	17.3696
2024	18.969
2008	20.3601
1992	21.5847
1976	22.8775
1960	23.8661
1944	24.7104
1928	25.5335
1912	26.2146
1896	26.7955
1880	27.2153
1864	27.6673
1848	28.1538
1832	28.4839
1816	28.6722
1800	28.9462
1784	29.2312
1768	29.3181
1752	29.3564
1736	29.5054
1720	29.6666
1704	29.6399
1688	29.6836
1672	29.6827
1656	29.7404
1640	29.7363
1624	29.678
1608	29.5571
1592	29.7261
1576	29.6918
1560	29.6231
1544	29.6187
1528	29.4958
1512	29.4363
1496	29.5307
1480	29.2701
1464	29.2892
1448	29.3859
1432	29.1487
1416	29.2426
1400	29.2697
1384	29.0472
1368	29.0526
1352	29.0316
1336	28.9538
1320	28.94
1304	28.8777
1288	28.7153
1272	28.7325
1256	28.5987
1240	28.5269
1224	28.4695
1208	28.3409
1192	28.3353
1176	28.2534
1160	28.0372
1144	27.8896
1128	27.9278
1112	27.5665
1096	27.6201
1080	27.5073
1064	27.3306
1048	27.1499
1032	26.985
1016	26.7842
1000	26.8828
984	 26.6581
968	 26.431
952	 26.2416
936	 25.8335
920	 25.772
904	 25.5534
888	 25.2942
872	 25.1234
856	 24.9955
840	 24.6038
824	 24.395
808	 23.9897
792	 23.7865
776	 23.4371
760	 23.2838
744	 22.6378
728	 22.6044
712	 22.0309
696	 21.8962
680	 21.5526
664	 21.0107
648	 21.0716
632	 20.3516
616	 19.6296
600	 19.8897
584	 18.9704
568	 18.838
552	 18.1577
536	 18.1271
520	 17.9312
504	 16.9354
488	 17.0146
472	 14.9729
456	 15.4876
440	 14.0189
424	 14.2465
408	 19.0785
392	 10.3174
376	 -6.789350
370	 -31.8484