File: Bakgrunnsmateriale/MATLAB/FTIR/ftir_data/LPE453/Mapping_121/LPE453_t102.asc
PE IR       SPECTRUM    SPECTRUM    ASCII       PEDS        1.60
  -1
LP9B76~1.ASC
17/05/16
22:44:10.00
17/05/16
22:44:36.00
tln
$LPE453_t0102$<tbV0>[7.8,10.4,8.0,0.0,27,1,0]
27.028
64

2002,4.07
MIRTGS : RIGHTBACK : INTERNAL 2
MIR : ON : INTERNAL 2
OPTKBR

0.200000
8
8.000000
FILLER
RATIO
SPECTRUM
UNLOCKED 256

DOUBLE
64
COMBINED
1
0
0

0.002000
RATIO

1
0
TRUE
51149
0
LEFT NOT FITTED RIGHT NOT FITTED 0
NONE
NONE
15600
12
4.427000
51148
TRUE
1 0 8 72 0 0 0 0

15798

#HDR
-1
-1
#GR
µM
%T
2.38419e-05
0.0
2.000000
0.002000
12515
8
35.2121
-11.6192
#DATA
2.000000	 0.204348
2.084000	 0.051867
2.168000	 0.222188
2.252000	 -0.451781
2.336000	 0.072805
2.420000	 -0.001731
2.504000	 0.105380
2.588000	 0.005325
2.672000	 0.102488
2.756000	 0.169000
2.840000	 0.111636
2.924000	 0.112108
3.008000	 0.133829
3.092000	 0.078493
3.176000	 0.059122
3.260000	 -0.041101
3.344000	 0.060392
3.428000	 -0.056225
3.512000	 0.190894
3.596000	 0.087799
3.680000	 -0.041445
3.764000	 0.100773
3.848000	 0.044867
3.932000	 -0.034983
4.016000	 -0.062810
4.100000	 0.035422
4.184000	 0.097702
4.268000	 0.412272
4.352000	 0.729824
4.436000	 1.914652
4.520000	 4.028741
4.604000	 7.487165
4.688000	 11.5624
4.772000	 16.009
4.856000	 20.1242
4.940000	 23.389
5.024000	 26.2258
5.108000	 28.3062
5.192000	 29.9055
5.276000	 31.1336
5.359999	 31.9638
5.444000	 32.6989
5.528000	 33.1042
5.612000	 33.4181
5.696000	 33.7187
5.780000	 33.9728
5.864000	 34.1512
5.948000	 34.2667
6.032000	 34.5041
6.116000	 34.4727
6.200000	 34.5289
6.284000	 34.6463
6.368000	 34.5143
6.452000	 34.6988
6.536000	 34.7994
6.620000	 34.7094
6.704000	 34.6875
6.788000	 34.8515
6.872000	 34.7493
6.956000	 34.7288
7.040000	 35.038
7.124000	 34.9701
7.208000	 35.003
7.292000	 34.816
7.376000	 34.8798
7.460000	 35.0211
7.544000	 35.0035
7.628000	 34.9064
7.712000	 34.8842
7.796000	 34.9582
7.880000	 35.0027
7.964000	 35.025
8.048000	 34.9076
8.132000	 35.018
8.216000	 35.0704
8.300000	 35.1702
8.384000	 35.0913
8.468000	 35.156
8.552000	 35.0617
8.635999	 34.9321
8.719999	 35.0103
8.804000	 35.0819
8.888000	 35.1017
8.972000	 34.9153
9.056000	 34.9461
9.140000	 35.1472
9.224000	 34.9244
9.308000	 34.7387
9.391999	 35.0544
9.475999	 35.1803
9.560000	 34.9745
9.644000	 34.6785
9.728000	 34.5319
9.812000	 34.6676
9.896000	 34.9702
9.980000	 34.8772
10.064	34.8586
10.148	34.7066
10.232	34.4007
10.316	34.4382
10.4	34.5637
10.484	34.5483
10.568	34.3822
10.652	34.5926
10.736	34.4977
10.82	34.3654
10.904	34.1193
10.988	34.1307
11.072	34.0249
11.156	33.899
11.24	33.9011
11.324	33.9809
11.408	34.0986
11.492	34.1816
11.576	34.1523
11.66	34.1612
11.744	33.8955
11.828	33.6217
11.912	33.5384
11.996	33.3139
12.08	33.196
12.164	33.3779
12.248	33.633
12.332	33.6928
12.416	33.6227
12.5	33.4314
12.584	33.4422
12.668	33.2569
12.752	33.1756
12.836	33.0944
12.92	32.8261
13.004	32.6206
13.088	32.6215
13.172	32.7709
13.256	32.8673
13.34	32.7519
13.424	32.6962
13.508	32.8048
13.592	32.8944
13.676	32.6601
13.76	32.4814
13.844	32.4222
13.928	32.2197
14.012	32.0442
14.096	31.8997
14.18	31.7961
14.264	31.7061
14.348	31.6029
14.432	31.5952
14.516	31.734
14.6	31.9389
14.684	31.9988
14.768	31.933
14.852	31.9313
14.936	31.9017
15.02	31.7336
15.104	31.6135
15.188	31.5724
15.272	31.3822
15.356	31.0958
15.44	30.9637
15.524	30.9132
15.608	30.7376
15.692	30.6025
15.776	30.7136
15.86	30.8136
15.944	30.7045
16.028	30.6695
16.112	30.8754
16.196	31.1021
16.28	31.1918
16.364	31.1737
16.448	31.0969
16.532	31.0309
16.616	30.9847
16.7	30.843
16.784	30.5503
16.868	30.1721
16.952	29.7843
17.036	29.4824
17.12	29.3657
17.204	29.3781
17.288	29.3427
17.372	29.2032
17.456	29.0807
17.54	29.0724
17.624	29.0992
17.708	29.0281
17.792	28.8664
17.876	28.7498
17.96	28.7423
18.044	28.782
18.128	28.8323
18.212	28.9409
18.296	29.1189
18.38	29.2984
18.464	29.4188
18.548	29.461
18.632	29.3773
18.716	29.1028
18.8	28.6718
18.884	28.2473
18.968	27.9889
19.052	27.9073
19.136	27.8788
19.22	27.7773
19.304	27.5857
19.388	27.3762
19.472	27.2145
19.556	27.1063
19.64	27.0169
19.724	26.9258
19.808	26.8502
19.892	26.823
19.976	26.8564
20.06	26.9257
20.144	26.9924
20.228	27.0372
20.312	27.0792
20.396	27.1431
20.48	27.2095
20.564	27.2118
20.648	27.0994
20.732	26.898
20.816	26.7014
20.9	26.5982
20.984	26.6122
21.068	26.7093
21.152	26.8497
21.236	27.0076
21.32	27.1415
21.404	27.1748
21.488	27.0321
21.572	26.7089
21.656	26.2883
21.74	25.8901
21.824	25.5913
21.908	25.3855
21.992	25.2276
22.076	25.0967
22.16	25.0068
22.244	24.972
22.328	24.9693
22.412	24.953
22.496	24.9027
22.58	24.8566
22.664	24.8837
22.748	25.0306
22.832	25.2847
22.916	25.5785
23	25.8344
23.084	26.0044
23.168	26.0631
23.252	25.9878
23.336	25.7458
23.42	25.3263
23.504	24.7728
23.588	24.2007
23.672	23.7568
23.756	23.5559
23.84	23.6101
23.924	23.8174
24.008	24.003
24.092	23.9888
24.176	23.6826
24.26	23.1292
24.344	22.4671
24.428	21.8449
24.512	21.4109
24.596	21.1894
24.68	21.0943
24.764	20.9977
24.848	20.7829
24.932	20.3843
25.016	19.824
25.1	19.2019
25.184	18.6551
25.268	18.3072
25.352	18.2464
25.436	18.5448
25.52	19.2562
25.604	20.4047
25.688	21.9378
25.772	23.6807
25.856	25.3195
25.94	26.3782
26.024	26.2784
26.108	24.5431
26.192	20.9275
26.276	15.5365
26.36	8.865270
26.444	1.795579
26.528	-4.587529
26.612	-9.256020
26.696	-11.4758
26.78	-11.03
26.864	-8.304523
26.948	-4.129088
27.028	0.264859