File: Bakgrunnsmateriale/MATLAB/FTIR/ftir_data/LPE453/Mapping_121/LPE453_t117_cm-1.asc
PE IR       SPECTRUM    SPECTRUM    ASCII       PEDS        1.60
  -1
LP0AFC~1.ASC
17/05/17
00:13:59.00
17/05/17
00:13:59.00
tln
$LPE453_t0117$<tbV0>[-2.6,13.0,8.0,0.0,27,1,0]
370
64

2002,4.07
MIRTGS : RIGHTBACK : INTERNAL 2
MIR : ON : INTERNAL 2
OPTKBR

0.200000
8
8.000000
FILLER
RATIO
SPECTRUM
UNLOCKED 256

DOUBLE
64
COMBINED
1
0
0

1.000000
RATIO

1
0
TRUE
51149
0
LEFT NOT FITTED RIGHT NOT FITTED 0
NONE
NONE
15600
12
4.427000
51148
TRUE
1 0 8 72 0 0 0 0

15798

#HDR
-1
-1
#GR
CM-1
%T
2.38419e-05
0.0
5000
-1.000000
4631
8
35.1771
-1.403307
#DATA
5000	0.248789
4984	0.099325
4968	0.206899
4952	0.110650
4936	-0.264382
4920	0.334358
4904	0.028109
4888	-0.098586
4872	0.022697
4856	0.125455
4840	-0.012183
4824	0.486612
4808	-0.237321
4792	0.387692
4776	0.166940
4760	0.158524
4744	-0.661182
4728	-0.628352
4712	0.312566
4696	-0.028848
4680	0.635766
4664	2.060151
4648	0.081610
4632	0.273394
4616	0.251436
4600	1.227307
4584	0.995659
4568	-1.295566
4552	0.393533
4536	1.113533
4520	-1.250720
4504	3.967928
4488	0.843787
4472	-0.567984
4456	-0.037193
4440	0.366854
4424	0.304365
4408	0.240206
4392	0.248908
4376	0.063252
4360	-0.298428
4344	0.653600
4328	-0.045371
4312	0.168609
4296	-0.009775
4280	0.167465
4264	0.108504
4248	0.257873
4232	0.203013
4216	0.115299
4200	-0.036978
4184	-0.107121
4168	0.080537
4152	0.043511
4136	0.029850
4120	-0.071740
4104	0.266146
4088	0.064635
4072	0.237202
4056	0.077009
4040	0.005483
4024	0.049567
4008	-0.065422
3992	0.122475
3976	0.144791
3960	0.027966
3944	0.165319
3928	-0.058054
3912	-0.076508
3896	0.121021
3880	0.137972
3864	0.004434
3848	-0.033187
3832	0.080466
3816	-0.058746
3800	0.135135
3784	0.037145
3768	0.042295
3752	-0.059008
3736	0.053930
3720	-0.009799
3704	0.076198
3688	-0.025963
3672	-0.009346
3656	-0.123333
3640	0.105929
3624	0.187373
3608	-0.092887
3592	0.081276
3576	0.013399
3560	0.221037
3544	0.056815
3528	0.063228
3512	0.194954
3496	0.104928
3480	-0.013160
3464	0.039529
3448	-0.022983
3432	0.006961
3416	0.023460
3400	-0.022888
3384	0.068211
3368	-0.015544
3352	0.100731
3336	-0.049257
3320	-0.065064
3304	-0.041842
3288	-0.076532
3272	-0.022816
3256	0.192403
3240	-0.027918
3224	0.293874
3208	0.081157
3192	0.020170
3176	-0.096249
3160	0.162196
3144	0.114393
3128	0.053024
3112	-0.157403
3096	-0.009036
3080	0.054550
3064	-0.055122
3048	0.002622
3032	0.041818
3016	-0.038385
3000	0.097274
2984	0.106930
2968	0.082397
2952	0.069570
2936	0.046420
2920	0.004553
2904	0.042414
2888	0.018739
2872	0.013422
2856	0.075459
2840	0.044703
2824	0.046944
2808	0.021338
2792	-0.003194
2776	-0.037908
2760	0.121998
2744	0.015735
2728	0.045847
2712	-0.054240
2696	0.026106
2680	0.023579
2664	-0.044751
2648	-0.043559
2632	0.060582
2616	0.011157
2600	-0.026369
2584	0.046443
2568	-0.001621
2552	-0.015020
2536	0.028109
2520	0.120520
2504	-0.010538
2488	-0.003552
2472	0.090718
2456	-0.037074
2440	-0.002861
2424	-0.052428
2408	0.011491
2392	0.106024
2376	0.123620
2360	0.168395
2344	0.256681
2328	0.360059
2312	0.605654
2296	0.721645
2280	1.071667
2264	1.512598
2248	1.928353
2232	2.656054
2216	3.673052
2200	4.710364
2184	6.025671
2168	7.498455
2152	9.131455
2136	10.8506
2120	12.7789
2104	14.5671
2088	16.4268
2072	18.2504
2056	20.1062
2040	21.6465
2024	23.0652
2008	24.4411
1992	25.7081
1976	26.8519
1960	27.7984
1944	28.6311
1928	29.4752
1912	30.1893
1896	30.7803
1880	31.2858
1864	31.7955
1848	32.1438
1832	32.5855
1816	33.0013
1800	33.2729
1784	33.4093
1768	33.6389
1752	34.0087
1736	33.9987
1720	34.0219
1704	34.3086
1688	34.6417
1672	34.427
1656	34.4606
1640	34.761
1624	34.8657
1608	34.7034
1592	34.8127
1576	35.0353
1560	35.0194
1544	34.863
1528	35.0131
1512	35.1414
1496	34.9431
1480	34.6652
1464	34.8181
1448	34.8867
1432	34.8828
1416	34.5383
1400	34.8347
1384	34.8052
1368	34.5473
1352	34.3826
1336	34.6458
1320	34.6621
1304	34.2393
1288	34.3416
1272	34.4896
1256	34.4275
1240	34.0281
1224	34.0173
1208	34.2512
1192	34.0635
1176	33.6786
1160	33.7014
1144	33.8831
1128	33.8156
1112	33.2591
1096	33.4577
1080	33.5524
1064	33.0445
1048	32.8935
1032	33.0826
1016	33.2608
1000	32.6963
984	 32.4177
968	 32.6192
952	 32.5412
936	 32.1754
920	 31.8424
904	 32.0443
888	 31.8912
872	 31.3028
856	 31.0664
840	 31.3688
824	 30.9695
808	 30.6524
792	 30.3883
776	 30.54
760	 30.1333
744	 29.5935
728	 29.5218
712	 29.768
696	 29.3253
680	 28.5732
664	 28.5103
648	 28.6806
632	 28.0385
616	 27.4083
600	 27.3013
584	 27.6732
568	 26.7245
552	 25.2662
536	 26.0378
520	 25.5267
504	 24.7761
488	 24.3289
472	 23.8033
456	 22.851
440	 23.1307
424	 21.5383
408	 21.3317
392	 25.5122
376	 27.6402
370	 24.4632