File: Bakgrunnsmateriale/MATLAB/FTIR/ftir_data/LPE453/Mapping_121/LPE453_t07.asc
PE IR       SPECTRUM    SPECTRUM    ASCII       PEDS        1.60
  -1
LPD395~1.ASC
17/05/16
14:55:42.00
17/05/16
14:56:08.00
tln
$LPE453_t0007$<tbV0>[-2.6,-13.0,8.0,0.0,27,1,0]
27.028
64

2002,4.07
MIRTGS : RIGHTBACK : INTERNAL 2
MIR : ON : INTERNAL 2
OPTKBR

0.200000
8
8.000000
FILLER
RATIO
SPECTRUM
UNLOCKED 256

DOUBLE
64
COMBINED
1
0
0

0.002000
RATIO

1
0
TRUE
51149
0
LEFT NOT FITTED RIGHT NOT FITTED 0
NONE
NONE
15600
12
4.427000
51148
TRUE
1 0 8 72 0 0 0 0

15798

#HDR
-1
-1
#GR
µM
%T
2.38419e-05
0.0
2.000000
0.002000
12515
8
36.6263
-4.113595
#DATA
2.000000	 0.276041
2.084000	 0.217154
2.168000	 0.580116
2.252000	 0.154202
2.336000	 0.208778
2.420000	 0.231928
2.504000	 0.141017
2.588000	 -0.177353
2.672000	 0.280089
2.756000	 -0.050512
2.840000	 0.220125
2.924000	 0.065605
3.008000	 0.116860
3.092000	 0.101898
3.176000	 0.129269
3.260000	 -0.023437
3.344000	 -0.002344
3.428000	 0.092216
3.512000	 0.051470
3.596000	 0.074674
3.680000	 -0.044418
3.764000	 0.042798
3.848000	 0.056490
3.932000	 0.042035
4.016000	 0.105880
4.100000	 0.062991
4.184000	 0.048511
4.268000	 0.262871
4.352000	 0.561877
4.436000	 1.441656
4.520000	 3.665909
4.604000	 7.018775
4.688000	 11.6397
4.772000	 16.4111
4.856000	 21.2079
4.940000	 24.845
5.024000	 28.0858
5.108000	 30.2109
5.192000	 32.1925
5.276000	 33.1339
5.359999	 34.3588
5.444000	 34.6416
5.528000	 35.4385
5.612000	 35.3649
5.696000	 36.0034
5.780000	 35.6469
5.864000	 36.3795
5.948000	 36.1299
6.032000	 36.2312
6.116000	 36.3809
6.200000	 35.9124
6.284000	 36.2788
6.368000	 35.9998
6.452000	 35.8727
6.536000	 36.2136
6.620000	 36.1286
6.704000	 35.7906
6.788000	 36.194
6.872000	 35.9286
6.956000	 35.4647
7.040000	 35.7718
7.124000	 35.9193
7.208000	 35.3956
7.292000	 35.3646
7.376000	 35.6857
7.460000	 35.5674
7.544000	 35.0016
7.628000	 34.9811
7.712000	 35.6073
7.796000	 35.5777
7.880000	 34.8159
7.964000	 34.6522
8.048000	 35.0885
8.132000	 35.5533
8.216000	 35.2355
8.300000	 34.6136
8.384000	 34.6478
8.468000	 35.0323
8.552000	 35.3537
8.635999	 34.9299
8.719999	 34.4133
8.804000	 34.506
8.888000	 34.7002
8.972000	 35.1391
9.056000	 35.0932
9.140000	 34.6775
9.224000	 34.0461
9.308000	 34.1171
9.391999	 34.5378
9.475999	 34.9218
9.560000	 34.8956
9.644000	 34.4211
9.728000	 33.8821
9.812000	 33.7575
9.896000	 34.0927
9.980000	 34.4328
10.064	34.5868
10.148	34.5917
10.232	34.107
10.316	33.8427
10.4	33.4625
10.484	33.4249
10.568	33.7208
10.652	34.0268
10.736	34.3277
10.82	34.2635
10.904	33.8027
10.988	33.2464
11.072	32.8561
11.156	33.0845
11.24	33.1802
11.324	33.5018
11.408	33.5466
11.492	33.5159
11.576	33.4797
11.66	33.2739
11.744	32.7925
11.828	32.3407
11.912	32.1946
11.996	32.2929
12.08	32.4217
12.164	32.7818
12.248	33.056
12.332	33.1913
12.416	32.8767
12.5	32.8171
12.584	32.6188
12.668	32.2055
12.752	31.9086
12.836	31.71
12.92	31.5765
13.004	31.6687
13.088	32.0665
13.172	32.5396
13.256	32.5662
13.34	32.2823
13.424	31.8216
13.508	31.5898
13.592	31.6833
13.676	31.5495
13.76	31.1817
13.844	30.892
13.928	30.7404
14.012	30.7423
14.096	31.0457
14.18	31.3917
14.264	31.3775
14.348	31.3084
14.432	31.3474
14.516	31.3304
14.6	31.3446
14.684	31.3011
14.768	31.1176
14.852	30.8604
14.936	30.5283
15.02	30.2068
15.104	29.9446
15.188	29.6604
15.272	29.4554
15.356	29.5551
15.44	29.9187
15.524	30.2161
15.608	30.2764
15.692	30.3142
15.776	30.4613
15.86	30.5741
15.944	30.5779
16.028	30.5229
16.112	30.4047
16.196	30.1924
16.28	29.94
16.364	29.7582
16.448	29.6536
16.532	29.5053
16.616	29.2612
16.7	29.0161
16.784	28.8323
16.868	28.6634
16.952	28.5138
17.036	28.4843
17.12	28.6032
17.204	28.7732
17.288	28.9148
17.372	29.0065
17.456	29.0512
17.54	29.1008
17.624	29.2005
17.708	29.2903
17.792	29.2817
17.876	29.1775
17.96	28.9939
18.044	28.7156
18.128	28.437
18.212	28.3201
18.296	28.3462
18.38	28.3348
18.464	28.2262
18.548	28.1425
18.632	28.1273
18.716	28.0603
18.8	27.8899
18.884	27.7635
18.968	27.8326
19.052	28.0403
19.136	28.1688
19.22	28.0781
19.304	27.854
19.388	27.6935
19.472	27.6859
19.556	27.742
19.64	27.7085
19.724	27.5222
19.808	27.2398
19.892	26.9502
19.976	26.7081
20.06	26.5368
20.144	26.4392
20.228	26.3961
20.312	26.3921
20.396	26.4369
20.48	26.5416
20.564	26.6727
20.648	26.7529
20.732	26.7252
20.816	26.6193
20.9	26.5276
20.984	26.5159
21.068	26.5782
21.152	26.6798
21.236	26.8133
21.32	26.9865
21.404	27.1676
21.488	27.2873
21.572	27.2932
21.656	27.1962
21.74	27.0498
21.824	26.8835
21.908	26.664
21.992	26.3454
22.076	25.9488
22.16	25.5873
22.244	25.3954
22.328	25.4182
22.412	25.5699
22.496	25.6772
22.58	25.5904
22.664	25.2587
22.748	24.7544
22.832	24.1999
22.916	23.7085
23	23.3337
23.084	23.0701
23.168	22.8818
23.252	22.7372
23.336	22.6212
23.42	22.5528
23.504	22.5617
23.588	22.6714
23.672	22.879
23.756	23.1485
23.84	23.4755
23.924	23.8992
24.008	24.4742
24.092	25.228
24.176	26.129
24.26	27.0972
24.344	28.002
24.428	28.697
24.512	29.0363
24.596	28.9375
24.68	28.4025
24.764	27.5254
24.848	26.4708
24.932	25.4308
25.016	24.5289
25.1	23.7574
25.184	22.9219
25.268	21.7534
25.352	20.0795
25.436	17.9788
25.52	15.8344
25.604	14.1754
25.688	13.4216
25.772	13.6358
25.856	14.495
25.94	15.4213
26.024	15.8267
26.108	15.4047
26.192	14.284
26.276	12.9273
26.36	11.9498
26.444	11.7315
26.528	12.2396
26.612	13.0214
26.696	13.5172
26.78	13.3764
26.864	12.6254
26.948	11.6491
27.028	10.9938