File: Bakgrunnsmateriale/MATLAB/FTIR/ftir_data/LPE453/Mapping_121/LPE453_t62_cm-1.asc
PE IR       SPECTRUM    SPECTRUM    ASCII       PEDS        1.60
  -1
LP5A50~1.ASC
17/05/16
19:25:17.00
17/05/16
19:25:17.00
tln
$LPE453_t0062$<tbV0>[-2.6,0.0,8.0,0.0,27,1,0]
370
64

2002,4.07
MIRTGS : RIGHTBACK : INTERNAL 2
MIR : ON : INTERNAL 2
OPTKBR

0.200000
8
8.000000
FILLER
RATIO
SPECTRUM
UNLOCKED 256

DOUBLE
64
COMBINED
1
0
0

1.000000
RATIO

1
0
TRUE
51149
0
LEFT NOT FITTED RIGHT NOT FITTED 0
NONE
NONE
15600
12
4.427000
51148
TRUE
1 0 8 72 0 0 0 0

15798

#HDR
-1
-1
#GR
CM-1
%T
2.38419e-05
0.0
5000
-1.000000
4631
8
32.0322
-6.486630
#DATA
5000	-0.057744
4984	0.453901
4968	0.060367
4952	0.448775
4936	0.090646
4920	-0.008606
4904	0.171923
4888	-0.230407
4872	0.525808
4856	0.209474
4840	0.431561
4824	-0.261712
4808	0.523591
4792	0.293803
4776	0.195980
4760	0.675106
4744	0.169706
4728	-1.200985
4712	0.635051
4696	-0.044107
4680	1.882672
4664	0.353050
4648	-0.245189
4632	0.575399
4616	0.976943
4600	0.481200
4584	0.355243
4568	0.873780
4552	0.712823
4536	-0.163578
4520	-0.510168
4504	-1.226902
4488	11.4624
4472	1.906681
4456	-0.928544
4440	-0.711870
4424	-0.814437
4408	0.013136
4392	0.476002
4376	1.178908
4360	0.032591
4344	0.723266
4328	0.272798
4312	0.702238
4296	-0.104022
4280	0.078797
4264	-0.089430
4248	0.110530
4232	-0.105333
4216	0.149941
4200	0.354671
4184	0.284051
4168	0.397467
4152	0.153732
4136	0.377631
4120	0.308394
4104	0.231623
4088	-0.019288
4072	0.153183
4056	0.145673
4040	-0.084209
4024	-0.101304
4008	0.064277
3992	0.138092
3976	0.098061
3960	0.093865
3944	0.171470
3928	-0.014472
3912	0.116062
3896	-0.019240
3880	0.064730
3864	0.132870
3848	0.059747
3832	-0.032377
3816	0.045871
3800	0.119280
3784	0.033950
3768	0.286865
3752	0.064587
3736	0.105619
3720	0.061392
3704	0.083112
3688	-0.073289
3672	-0.095486
3656	0.034570
3640	0.024271
3624	-0.107240
3608	0.091528
3592	-0.201654
3576	0.083947
3560	0.084519
3544	0.107383
3528	-0.047421
3512	0.173115
3496	0.003552
3480	0.018668
3464	0.189709
3448	0.173354
3432	-0.026035
3416	0.060153
3400	-0.018310
3384	-0.010943
3368	0.068783
3352	0.105714
3336	-0.027132
3320	0.140595
3304	0.158572
3288	0.078845
3272	0.023674
3256	-0.093030
3240	0.097632
3224	0.235009
3208	0.057291
3192	-0.067877
3176	0.125861
3160	0.000476
3144	0.060248
3128	-0.172901
3112	-0.163412
3096	-0.005006
3080	-0.006794
3064	0.051546
3048	0.143933
3032	-0.048089
3016	-0.022506
3000	0.081062
2984	0.187444
2968	0.111794
2952	-0.006651
2936	0.105619
2920	-0.065159
2904	-0.038886
2888	0.084710
2872	-0.018095
2856	0.009274
2840	0.086140
2824	-0.096368
2808	0.141739
2792	0.059890
2776	0.011277
2760	-0.014281
2744	0.041580
2728	0.026798
2712	0.088047
2696	0.088667
2680	-0.034737
2664	-0.008273
2648	0.045776
2632	0.058341
2616	0.107026
2600	0.050187
2584	-0.047063
2568	0.049161
2552	0.021386
2536	-0.049734
2520	0.080752
2504	-0.083923
2488	0.064611
2472	-0.010108
2456	-0.052142
2440	0.109577
2424	0.000739
2408	-0.112700
2392	0.215601
2376	0.087547
2360	0.088524
2344	0.149774
2328	0.164985
2312	0.189137
2296	0.223088
2280	0.365710
2264	0.655794
2248	0.951576
2232	1.316308
2216	2.035021
2200	2.910494
2184	3.973507
2168	5.074930
2152	6.407904
2136	8.222675
2120	10.031
2104	11.9199
2088	13.7864
2072	15.6005
2056	17.4488
2040	19.0856
2024	20.772
2008	22.1717
1992	23.5498
1976	24.7457
1960	25.8569
1944	26.8474
1928	27.6205
1912	28.2945
1896	29.0181
1880	29.4835
1864	29.8051
1848	30.3996
1832	30.5965
1816	30.8821
1800	31.1601
1784	31.3161
1768	31.4778
1752	31.6283
1736	31.5562
1720	31.7678
1704	31.9707
1688	31.8591
1672	31.7888
1656	31.9807
1640	31.7391
1624	31.9913
1608	31.9704
1592	31.8157
1576	31.8867
1560	32.0104
1544	31.8254
1528	31.8353
1512	31.9073
1496	31.5541
1480	31.5785
1464	31.8492
1448	31.5372
1432	31.4872
1416	31.723
1400	31.3972
1384	31.3034
1368	31.5327
1352	31.1899
1336	31.048
1320	31.3913
1304	31.0371
1288	30.7576
1272	31.2233
1256	31.0503
1240	30.5456
1224	31.021
1208	30.6982
1192	30.4867
1176	30.8008
1160	30.5386
1144	30.2351
1128	30.4
1112	30.3084
1096	29.5596
1080	30.1546
1064	29.7012
1048	29.2182
1032	29.4173
1016	29.6671
1000	28.8435
984	 28.9056
968	 28.961
952	 28.3628
936	 28.1824
920	 28.4966
904	 27.593
888	 27.5801
872	 27.7578
856	 27.146
840	 26.914
824	 26.9773
808	 26.4147
792	 25.9745
776	 26.0968
760	 25.6882
744	 25.1538
728	 25.3395
712	 24.5967
696	 23.7362
680	 24.2253
664	 23.6169
648	 23.1297
632	 22.8968
616	 22.7283
600	 21.885
584	 21.3652
568	 22.1809
552	 20.3628
536	 21.087
520	 20.8151
504	 19.6583
488	 18.4283
472	 18.6609
456	 16.8543
440	 19.3826
424	 17.0978
408	 15.6224
392	 16.5835
376	 24.5069
370	 5.348277