File: Bakgrunnsmateriale/MATLAB/FTIR/ftir_data/LPE453/Mapping_121/LPE453_t25_cm-1.asc
PE IR       SPECTRUM    SPECTRUM    ASCII       PEDS        1.60
  -1
LP68DB~1.ASC
17/05/16
16:26:29.00
17/05/16
16:26:29.00
tln
$LPE453_t0025$<tbV0>[7.8,-7.8,8.0,0.0,27,1,0]
370
64

2002,4.07
MIRTGS : RIGHTBACK : INTERNAL 2
MIR : ON : INTERNAL 2
OPTKBR

0.200000
8
8.000000
FILLER
RATIO
SPECTRUM
UNLOCKED 256

DOUBLE
64
COMBINED
1
0
0

1.000000
RATIO

1
0
TRUE
51149
0
LEFT NOT FITTED RIGHT NOT FITTED 0
NONE
NONE
15600
12
4.427000
51148
TRUE
1 0 8 72 0 0 0 0

15798

#HDR
-1
-1
#GR
CM-1
%T
2.38419e-05
0.0
5000
-1.000000
4631
8
64.823
-4.008865
#DATA
5000	0.300812
4984	-0.236034
4968	1.077556
4952	0.468277
4936	-0.136995
4920	0.271296
4904	-0.166606
4888	0.041222
4872	-0.105428
4856	0.234317
4840	0.171327
4824	-0.081443
4808	0.156855
4792	0.044465
4776	0.005412
4760	0.014257
4744	0.361299
4728	-0.130391
4712	-0.063037
4696	-0.213766
4680	1.006555
4664	-0.227236
4648	0.225567
4632	0.484132
4616	0.044894
4600	0.074148
4584	0.143980
4568	-0.240731
4552	0.774884
4536	1.197052
4520	3.691816
4504	-1.222038
4488	1.375007
4472	-0.525784
4456	0.819206
4440	0.160431
4424	-0.287818
4408	-0.293374
4392	0.370597
4376	0.050330
4360	0.305604
4344	-0.170183
4328	0.363945
4312	0.041508
4296	-0.172948
4280	0.243091
4264	0.393509
4248	-0.085401
4232	0.036859
4216	-0.175404
4200	0.207304
4184	0.356435
4168	-0.620365
4152	0.190377
4136	0.197792
4120	0.142335
4104	-0.107264
4088	-0.142765
4072	0.280976
4056	-0.016331
4040	-0.062131
4024	-0.127696
4008	0.103831
3992	0.321102
3976	0.067639
3960	0.248694
3944	0.018095
3928	-0.071620
3912	-0.171303
3896	-0.172495
3880	0.163912
3864	0.072836
3848	-0.094819
3832	0.122570
3816	0.195837
3800	0.248527
3784	-0.054979
3768	0.058341
3752	0.047397
3736	0.048494
3720	-0.004267
3704	0.200295
3688	0.037288
3672	0.024557
3656	-0.009012
3640	0.033998
3624	-0.001430
3608	0.125455
3592	0.013375
3576	-0.044584
3560	0.343394
3544	0.081777
3528	-0.060820
3512	0.026488
3496	0.150251
3480	-0.043869
3464	0.091290
3448	-0.029206
3432	0.023651
3416	0.015878
3400	0.112509
3384	-0.014114
3368	0.012588
3352	0.082159
3336	0.108218
3320	0.273847
3304	-0.021123
3288	0.036263
3272	-0.050306
3256	0.002217
3240	0.141692
3224	0.058126
3208	0.146484
3192	0.058770
3176	0.002741
3160	0.041651
3144	0.074911
3128	-0.183558
3112	0.022625
3096	0.158643
3080	-0.090909
3064	-0.006222
3048	-0.123357
3032	0.151729
3016	0.140452
3000	0.095987
2984	0.050878
2968	-0.058197
2952	-0.010800
2936	0.083374
2920	-0.030732
2904	0.043416
2888	0.115180
2872	0.017595
2856	0.036668
2840	-0.054621
2824	0.168967
2808	0.169634
2792	0.113224
2776	0.006699
2760	0.082063
2744	-0.033521
2728	0.082206
2712	0.027418
2696	-0.028491
2680	0.086283
2664	0.034976
2648	-0.023007
2632	0.170373
2616	0.003218
2600	0.159406
2584	0.021195
2568	0.049471
2552	0.000667
2536	0.003671
2520	0.008702
2504	0.101113
2488	0.129294
2472	0.025248
2456	0.094556
2440	0.046229
2424	0.197553
2408	0.148749
2392	-0.112557
2376	0.000572
2360	-0.059771
2344	-0.017762
2328	0.042128
2312	0.022912
2296	0.109457
2280	0.027275
2264	0.145792
2248	0.285887
2232	0.567841
2216	0.871348
2200	1.321148
2184	1.998877
2168	2.849984
2152	3.585338
2136	4.808950
2120	6.357789
2104	7.754278
2088	9.375691
2072	11.2583
2056	12.6307
2040	14.3082
2024	15.9154
2008	17.2674
1992	18.5642
1976	19.8882
1960	21.0693
1944	21.9997
1928	22.9584
1912	23.6686
1896	24.2378
1880	24.883
1864	25.3638
1848	25.8245
1832	26.1961
1816	26.5304
1800	26.7521
1784	26.995
1768	27.1223
1752	27.3354
1736	27.4386
1720	27.4799
1704	27.5951
1688	27.6152
1672	27.5987
1656	27.7956
1640	27.7982
1624	27.6094
1608	27.8704
1592	27.7842
1576	27.6139
1560	27.8141
1544	27.7565
1528	27.7124
1512	27.8056
1496	27.5127
1480	27.6213
1464	27.598
1448	27.5654
1432	27.5109
1416	27.1786
1400	27.2641
1384	27.2284
1368	27.0411
1352	27.1436
1336	27.0737
1320	26.9384
1304	26.8831
1288	26.7351
1272	26.7843
1256	26.6659
1240	26.6048
1224	26.5709
1208	26.4271
1192	26.3789
1176	26.1921
1160	26.0697
1144	26.1364
1128	26.0283
1112	25.7993
1096	25.9125
1080	25.6163
1064	25.386
1048	25.1407
1032	25.331
1016	24.9005
1000	24.8293
984	 24.8731
968	 24.7396
952	 24.292
936	 24.1961
920	 24.0789
904	 23.5964
888	 23.4639
872	 23.1409
856	 22.955
840	 22.8834
824	 22.4738
808	 22.3489
792	 21.8596
776	 21.5787
760	 21.294
744	 21.1886
728	 20.6691
712	 20.4473
696	 20.1286
680	 19.7581
664	 19.3049
648	 18.9523
632	 18.4922
616	 18.3107
600	 18.0861
584	 17.495
568	 16.6818
552	 16.5731
536	 16.1606
520	 15.7252
504	 15.9048
488	 13.041
472	 13.4337
456	 13.8845
440	 13.5892
424	 17.5623
408	 11.6489
392	 15.3003
376	 47.6914
370	 62.5605