File: Bakgrunnsmateriale/MATLAB/FTIR/ftir_data/LPE453/Mapping_121/LPE453_t81.asc
PE IR       SPECTRUM    SPECTRUM    ASCII       PEDS        1.60
  -1
LPC3BD~1.ASC
17/05/16
21:00:14.00
17/05/16
21:00:40.00
tln
$LPE453_t0081$<tbV0>[5.2,5.2,8.0,0.0,27,1,0]
27.028
64

2002,4.07
MIRTGS : RIGHTBACK : INTERNAL 2
MIR : ON : INTERNAL 2
OPTKBR

0.200000
8
8.000000
FILLER
RATIO
SPECTRUM
UNLOCKED 256

DOUBLE
64
COMBINED
1
0
0

0.002000
RATIO

1
0
TRUE
51149
0
LEFT NOT FITTED RIGHT NOT FITTED 0
NONE
NONE
15600
12
4.427000
51148
TRUE
1 0 8 72 0 0 0 0

15798

#HDR
-1
-1
#GR
µM
%T
2.38419e-05
0.0
2.000000
0.002000
12515
8
31.7959
-15.9125
#DATA
2.000000	 0.067949
2.084000	 0.499424
2.168000	 -0.901960
2.252000	 -0.669948
2.336000	 -0.039624
2.420000	 0.067804
2.504000	 0.156762
2.588000	 0.169306
2.672000	 0.051328
2.756000	 -0.046426
2.840000	 0.024951
2.924000	 0.021556
3.008000	 0.103468
3.092000	 -0.032864
3.176000	 0.013022
3.260000	 0.034447
3.344000	 -0.030684
3.428000	 -0.044852
3.512000	 0.039619
3.596000	 0.046110
3.680000	 0.009693
3.764000	 0.076177
3.848000	 0.069706
3.932000	 -0.003238
4.016000	 -0.139611
4.100000	 -0.066506
4.184000	 -0.034543
4.268000	 0.058166
4.352000	 0.177385
4.436000	 0.707192
4.520000	 2.169961
4.604000	 4.806293
4.688000	 8.490618
4.772000	 12.6658
4.856000	 16.8572
4.940000	 20.6215
5.024000	 23.5248
5.108000	 25.7452
5.192000	 27.4321
5.276000	 28.7259
5.359999	 29.5634
5.444000	 30.2697
5.528000	 30.697
5.612000	 30.9979
5.696000	 31.3161
5.780000	 31.4079
5.864000	 31.618
5.948000	 31.6311
6.032000	 31.7926
6.116000	 31.6719
6.200000	 31.5754
6.284000	 31.6753
6.368000	 31.6894
6.452000	 31.592
6.536000	 31.5676
6.620000	 31.3955
6.704000	 31.3001
6.788000	 31.3767
6.872000	 31.1063
6.956000	 31.2069
7.040000	 31.3023
7.124000	 31.2217
7.208000	 31.1141
7.292000	 31.0068
7.376000	 30.9374
7.460000	 30.9553
7.544000	 30.874
7.628000	 30.7828
7.712000	 30.8142
7.796000	 30.6779
7.880000	 30.6586
7.964000	 30.5777
8.048000	 30.6633
8.132000	 30.403
8.216000	 30.3846
8.300000	 30.2507
8.384000	 30.4164
8.468000	 30.2893
8.552000	 30.1309
8.635999	 29.9676
8.719999	 29.9353
8.804000	 30.0378
8.888000	 29.7972
8.972000	 29.7781
9.056000	 29.6651
9.140000	 29.5479
9.224000	 29.5806
9.308000	 29.4435
9.391999	 29.4006
9.475999	 29.4884
9.560000	 29.1756
9.644000	 29.2967
9.728000	 28.9916
9.812000	 28.974
9.896000	 28.9879
9.980000	 28.9481
10.064	28.9145
10.148	28.5629
10.232	28.6682
10.316	28.627
10.4	28.4447
10.484	28.5567
10.568	28.34
10.652	28.0734
10.736	28.0053
10.82	28.0119
10.904	27.9561
10.988	27.7609
11.072	27.7871
11.156	27.8033
11.24	27.4937
11.324	27.4873
11.408	27.4145
11.492	27.3056
11.576	27.1378
11.66	27.2164
11.744	27.1563
11.828	27.1392
11.912	26.9845
11.996	26.6609
12.08	26.5873
12.164	26.6218
12.248	26.648
12.332	26.5274
12.416	26.2026
12.5	26.1262
12.584	26.1829
12.668	25.9137
12.752	25.8268
12.836	25.8469
12.92	25.5731
13.004	25.4137
13.088	25.5026
13.172	25.5375
13.256	25.5535
13.34	25.5531
13.424	25.2672
13.508	25.1105
13.592	25.1483
13.676	25.0585
13.76	24.8027
13.844	24.4759
13.928	24.4477
14.012	24.6429
14.096	24.6429
14.18	24.5097
14.264	24.2602
14.348	24.0395
14.432	23.9296
14.516	23.7252
14.6	23.6239
14.684	23.664
14.768	23.6251
14.852	23.57
14.936	23.563
15.02	23.5164
15.104	23.4356
15.188	23.3955
15.272	23.3135
15.356	23.1265
15.44	22.9174
15.524	22.7154
15.608	22.6005
15.692	22.7027
15.776	22.8198
15.86	22.681
15.944	22.4207
16.028	22.2791
16.112	22.2477
16.196	22.2474
16.28	22.2321
16.364	22.0919
16.448	21.7797
16.532	21.4825
16.616	21.4007
16.7	21.4771
16.784	21.5082
16.868	21.3913
16.952	21.2085
17.036	21.1226
17.12	21.1759
17.204	21.2261
17.288	21.175
17.372	21.1125
17.456	21.155
17.54	21.2632
17.624	21.2664
17.708	21.0596
17.792	20.7309
17.876	20.4712
17.96	20.3546
18.044	20.3153
18.128	20.302
18.212	20.2996
18.296	20.2327
18.38	20.0496
18.464	19.8709
18.548	19.8789
18.632	20.0564
18.716	20.1958
18.8	20.1774
18.884	20.0918
18.968	20.0726
19.052	20.1211
19.136	20.1361
19.22	20.0421
19.304	19.8519
19.388	19.6232
19.472	19.3991
19.556	19.1975
19.64	19.0341
19.724	18.9361
19.808	18.9233
19.892	18.9641
19.976	18.9661
20.06	18.8353
20.144	18.5561
20.228	18.2227
20.312	17.9806
20.396	17.9171
20.48	17.9988
20.564	18.1095
20.648	18.1663
20.732	18.1865
20.816	18.2434
20.9	18.3682
20.984	18.5041
21.068	18.5569
21.152	18.4838
21.236	18.3341
21.32	18.2059
21.404	18.1582
21.488	18.154
21.572	18.0936
21.656	17.8866
21.74	17.5174
21.824	17.0699
21.908	16.675
21.992	16.4196
22.076	16.3027
22.16	16.2496
22.244	16.1856
22.328	16.0903
22.412	15.9908
22.496	15.9227
22.58	15.8939
22.664	15.898
22.748	15.9408
22.832	16.0392
22.916	16.1947
23	16.3491
23.084	16.3852
23.168	16.1747
23.252	15.6825
23.336	15.0086
23.42	14.3421
23.504	13.8863
23.588	13.7406
23.672	13.8621
23.756	14.1108
23.84	14.36
23.924	14.5577
24.008	14.7573
24.092	15.0741
24.176	15.5656
24.26	16.1709
24.344	16.6827
24.428	16.8549
24.512	16.5546
24.596	15.8188
24.68	14.8702
24.764	14.0606
24.848	13.7208
24.932	14.0974
25.016	15.2446
25.1	17.0298
25.184	19.1399
25.268	21.151
25.352	22.6184
25.436	23.1393
25.52	22.493
25.604	20.6936
25.688	18.0081
25.772	14.9223
25.856	11.9485
25.94	9.346750
26.024	6.953949
26.108	4.231261
26.192	0.763313
26.276	-3.467086
26.36	-7.930550
26.444	-11.8706
26.528	-14.5968
26.612	-15.8371
26.696	-15.5866
26.78	-14.0412
26.864	-11.4092
26.948	-8.072715
27.028	-5.098295