File: Bakgrunnsmateriale/MATLAB/FTIR/ftir_data/LPE453/Mapping_121/LPE453_t10.asc
PE IR       SPECTRUM    SPECTRUM    ASCII       PEDS        1.60
  -1
LPC799~1.ASC
17/05/16
15:09:32.00
17/05/16
15:09:58.00
tln
$LPE453_t0010$<tbV0>[-10.4,-13.0,8.0,0.0,27,1,0]
27.028
64

2002,4.07
MIRTGS : RIGHTBACK : INTERNAL 2
MIR : ON : INTERNAL 2
OPTKBR

0.200000
8
8.000000
FILLER
RATIO
SPECTRUM
UNLOCKED 256

DOUBLE
64
COMBINED
1
0
0

0.002000
RATIO

1
0
TRUE
51149
0
LEFT NOT FITTED RIGHT NOT FITTED 0
NONE
NONE
15600
12
4.427000
51148
TRUE
1 0 8 72 0 0 0 0

15798

#HDR
-1
-1
#GR
µM
%T
2.38419e-05
0.0
2.000000
0.002000
12515
8
70.5062
-5.079082
#DATA
2.000000	 0.144243
2.084000	 0.242383
2.168000	 0.124940
2.252000	 0.865677
2.336000	 0.019193
2.420000	 0.088918
2.504000	 0.302428
2.588000	 -0.012234
2.672000	 0.106141
2.756000	 0.011160
2.840000	 -0.011990
2.924000	 -0.019573
3.008000	 0.057955
3.092000	 -0.067114
3.176000	 0.081658
3.260000	 0.076719
3.344000	 0.081776
3.428000	 -0.098242
3.512000	 -0.014047
3.596000	 -0.026517
3.680000	 -0.039061
3.764000	 0.052244
3.848000	 -0.030232
3.932000	 0.097603
4.016000	 -0.094753
4.100000	 -0.019621
4.184000	 0.204947
4.268000	 0.188180
4.352000	 0.669905
4.436000	 1.431029
4.520000	 3.274407
4.604000	 6.295579
4.688000	 10.3056
4.772000	 14.5529
4.856000	 18.797
4.940000	 22.3094
5.024000	 25.1456
5.108000	 27.2878
5.192000	 29.0411
5.276000	 30.3666
5.359999	 31.3542
5.444000	 32.1142
5.528000	 32.897
5.612000	 33.4371
5.696000	 33.7367
5.780000	 34.3362
5.864000	 34.343
5.948000	 34.7679
6.032000	 34.8488
6.116000	 34.9154
6.200000	 35.1256
6.284000	 34.8128
6.368000	 35.1281
6.452000	 35.1959
6.536000	 35.0212
6.620000	 35.3971
6.704000	 35.1326
6.788000	 35.0986
6.872000	 35.1108
6.956000	 34.9676
7.040000	 35.0593
7.124000	 35.0336
7.208000	 35.0939
7.292000	 34.7198
7.376000	 34.6739
7.460000	 34.8937
7.544000	 34.7432
7.628000	 34.5131
7.712000	 34.4095
7.796000	 34.5009
7.880000	 34.398
7.964000	 34.1439
8.048000	 34.0755
8.132000	 34.1805
8.216000	 34.104
8.300000	 34.0408
8.384000	 33.8187
8.468000	 33.6657
8.552000	 33.8523
8.635999	 33.7322
8.719999	 33.5577
8.804000	 33.2994
8.888000	 33.1858
8.972000	 33.3298
9.056000	 33.8322
9.140000	 33.5236
9.224000	 33.0373
9.308000	 32.8228
9.391999	 32.8022
9.475999	 32.952
9.560000	 32.7596
9.644000	 32.9209
9.728000	 32.6098
9.812000	 32.1373
9.896000	 32.0138
9.980000	 32.1689
10.064	32.3333
10.148	32.573
10.232	32.5506
10.316	32.315
10.4	31.8775
10.484	31.726
10.568	31.9032
10.652	31.7499
10.736	31.7951
10.82	31.964
10.904	31.8165
10.988	31.4906
11.072	31.2013
11.156	31.1129
11.24	31.0609
11.324	31.2036
11.408	31.1121
11.492	31.0201
11.576	31.3074
11.66	31.1187
11.744	30.9209
11.828	30.7007
11.912	30.4667
11.996	30.1808
12.08	30.1313
12.164	30.2579
12.248	30.3354
12.332	30.6131
12.416	30.6372
12.5	30.6593
12.584	30.7384
12.668	30.5703
12.752	30.0652
12.836	29.5517
12.92	29.3856
13.004	29.5284
13.088	29.6277
13.172	29.6305
13.256	29.6668
13.34	29.8987
13.424	29.642
13.508	29.3785
13.592	29.6508
13.676	29.7054
13.76	29.5852
13.844	29.3209
13.928	28.9211
14.012	28.6208
14.096	28.526
14.18	28.5072
14.264	28.3517
14.348	28.2228
14.432	28.3833
14.516	28.7603
14.6	28.9197
14.684	28.7372
14.768	28.583
14.852	28.5307
14.936	28.4301
15.02	28.3125
15.104	28.1489
15.188	27.8938
15.272	27.724
15.356	27.6472
15.44	27.4477
15.524	27.1584
15.608	27.0251
15.692	27.1412
15.776	27.3437
15.86	27.4554
15.944	27.4763
16.028	27.5157
16.112	27.5957
16.196	27.6563
16.28	27.665
16.364	27.5623
16.448	27.2964
16.532	26.9629
16.616	26.7011
16.7	26.5361
16.784	26.4168
16.868	26.2896
16.952	26.191
17.036	26.2566
17.12	26.5206
17.204	26.8067
17.288	26.9207
17.372	26.8395
17.456	26.6699
17.54	26.5313
17.624	26.4866
17.708	26.5277
17.792	26.5974
17.876	26.6071
17.96	26.4897
18.044	26.2735
18.128	26.0649
18.212	25.9012
18.296	25.6758
18.38	25.2837
18.464	24.8079
18.548	24.4741
18.632	24.4258
18.716	24.6124
18.8	24.8892
18.884	25.1536
18.968	25.3661
19.052	25.5281
19.136	25.6658
19.22	25.8084
19.304	25.9391
19.388	25.9883
19.472	25.9036
19.556	25.7264
19.64	25.5668
19.724	25.4914
19.808	25.4589
19.892	25.3784
19.976	25.2055
20.06	24.9675
20.144	24.6997
20.228	24.4088
20.312	24.1109
20.396	23.8776
20.48	23.8117
20.564	23.9392
20.648	24.1512
20.732	24.2644
20.816	24.1635
20.9	23.8848
20.984	23.5658
21.068	23.3435
21.152	23.2881
21.236	23.42
21.32	23.7404
21.404	24.21
21.488	24.7073
21.572	25.0451
21.656	25.0638
21.74	24.7369
21.824	24.1975
21.908	23.6535
21.992	23.2692
22.076	23.1125
22.16	23.173
22.244	23.4246
22.328	23.8379
22.412	24.3414
22.496	24.78
22.58	24.9777
22.664	24.8307
22.748	24.3789
22.832	23.7865
22.916	23.2802
23	23.0258
23.084	23.0623
23.168	23.276
23.252	23.4706
23.336	23.4613
23.42	23.17
23.504	22.682
23.588	22.1941
23.672	21.8802
23.756	21.7863
23.84	21.7887
23.924	21.6692
24.008	21.2679
24.092	20.6314
24.176	20.0852
24.26	20.0225
24.344	20.7301
24.428	22.2145
24.512	24.1851
24.596	26.1565
24.68	27.6926
24.764	28.6471
24.848	29.2187
24.932	29.8483
25.016	30.9373
25.1	32.5791
25.184	34.5544
25.268	36.4262
25.352	37.7394
25.436	38.2003
25.52	37.8783
25.604	37.2175
25.688	37.2172
25.772	39.0912
25.856	43.6522
25.94	50.7194
26.024	58.9143
26.108	66.0528
26.192	70.0787
26.276	69.8289
26.36	65.6184
26.444	58.8177
26.528	51.1932
26.612	44.2238
26.696	38.7485
26.78	34.8571
26.864	32.0694
26.948	29.6984
27.028	27.4046