File: Bakgrunnsmateriale/MATLAB/FTIR/ftir_data/LPE453/Mapping_121/LPE453_t19_cm-1.asc
PE IR       SPECTRUM    SPECTRUM    ASCII       PEDS        1.60
  -1
LPE7D9~1.ASC
17/05/16
15:51:41.00
17/05/16
15:51:41.00
tln
$LPE453_t0019$<tbV0>[-5.2,-10.4,8.0,0.0,27,1,0]
370
64

2002,4.07
MIRTGS : RIGHTBACK : INTERNAL 2
MIR : ON : INTERNAL 2
OPTKBR

0.200000
8
8.000000
FILLER
RATIO
SPECTRUM
UNLOCKED 256

DOUBLE
64
COMBINED
1
0
0

1.000000
RATIO

1
0
TRUE
51149
0
LEFT NOT FITTED RIGHT NOT FITTED 0
NONE
NONE
15600
12
4.427000
51148
TRUE
1 0 8 72 0 0 0 0

15798

#HDR
-1
-1
#GR
CM-1
%T
2.38419e-05
0.0
5000
-1.000000
4631
8
41.6256
-1.298379
#DATA
5000	0.009632
4984	0.147652
4968	0.360703
4952	0.230908
4936	0.527000
4920	-0.012373
4904	0.415086
4888	-0.270700
4872	-0.052523
4856	-0.075483
4840	0.098490
4824	0.027728
4808	0.266599
4792	-0.264930
4776	0.165057
4760	-0.213360
4744	0.146818
4728	0.295710
4712	0.195121
4696	0.458121
4680	0.635790
4664	0.151419
4648	0.279760
4632	0.981211
4616	0.159859
4600	0.855803
4584	-0.665521
4568	-1.290488
4552	0.008201
4536	-0.037765
4520	6.010961
4504	1.212739
4488	-0.993871
4472	-0.230836
4456	-0.586938
4440	0.389885
4424	0.382113
4408	0.270605
4392	0.338840
4376	0.324463
4360	0.263738
4344	0.337076
4328	0.394630
4312	0.013256
4296	-0.017213
4280	0.232148
4264	0.051069
4248	-0.217795
4232	0.072622
4216	-0.179219
4200	0.310730
4184	0.561976
4168	0.312089
4152	-0.044536
4136	0.073242
4120	0.098133
4104	0.140976
4088	0.168681
4072	0.159358
4056	0.055241
4040	-0.003814
4024	0.135397
4008	0.085496
3992	0.200867
3976	0.156044
3960	0.211834
3944	0.139212
3928	0.229883
3912	0.249290
3896	-0.015234
3880	0.063467
3864	-0.030136
3848	0.067877
3832	0.178337
3816	-0.014638
3800	0.201272
3784	-0.021767
3768	-0.098037
3752	0.200676
3736	0.092887
3720	0.160789
3704	0.187301
3688	0.030183
3672	0.186347
3656	-0.033712
3640	0.013422
3624	-0.012063
3608	-0.000643
3592	0.127196
3576	0.111126
3560	-0.037431
3544	-0.042510
3528	-0.028133
3512	0.041007
3496	0.096631
3480	0.052666
3464	-0.099897
3448	0.022912
3432	0.061416
3416	0.065922
3400	0.028538
3384	0.119256
3368	0.107097
3352	0.100469
3336	-0.119686
3320	0.097513
3304	-0.023698
3288	0.270366
3272	0.334024
3256	0.131011
3240	0.059366
3224	-0.093030
3208	0.120115
3192	0.103878
3176	0.168943
3160	0.076746
3144	-0.167655
3128	0.219774
3112	0.001358
3096	0.076842
3080	0.114250
3064	0.083589
3048	0.043702
3032	0.140571
3016	-0.034451
3000	0.047206
2984	0.015187
2968	0.065588
2952	0.056266
2936	0.010561
2920	0.030136
2904	0.077128
2888	0.099587
2872	0.015711
2856	0.083422
2840	0.028991
2824	0.029373
2808	0.030732
2792	0.075030
2776	0.021648
2760	-0.110006
2744	0.022697
2728	0.116038
2712	0.028061
2696	0.040054
2680	0.140833
2664	-0.002717
2648	0.011062
2632	-0.088834
2616	0.059723
2600	-0.057363
2584	0.089955
2568	0.055837
2552	0.035071
2536	-0.020098
2520	-0.005125
2504	0.255298
2488	0.139617
2472	0.010943
2456	0.074362
2440	-0.043582
2424	-0.203537
2408	0.199460
2392	0.100159
2376	0.081014
2360	0.227952
2344	0.275111
2328	0.459694
2312	0.783824
2296	0.984239
2280	1.352334
2264	1.862001
2248	2.584600
2232	3.547024
2216	4.586291
2200	6.005764
2184	7.544517
2168	9.246993
2152	11.3227
2136	13.3534
2120	15.5925
2104	17.7499
2088	20.2023
2072	22.0276
2056	24.1344
2040	25.8734
2024	27.6097
2008	28.8554
1992	30.2557
1976	31.6223
1960	32.5581
1944	33.2575
1928	34.2254
1912	34.8787
1896	35.1502
1880	35.6927
1864	36.3729
1848	36.7055
1832	36.4654
1816	36.9219
1800	37.4569
1784	37.4697
1768	37.3257
1752	37.7551
1736	38.2041
1720	37.8512
1704	37.8654
1688	38.3317
1672	38.3199
1656	38.1849
1640	37.9525
1624	38.5031
1608	38.3903
1592	37.7842
1576	38.0869
1560	38.93
1544	38.4811
1528	37.8258
1512	38.1146
1496	38.4368
1480	38.2193
1464	37.5926
1448	38.0318
1432	38.327
1416	38.0466
1400	37.6675
1384	37.7328
1368	38.3523
1352	37.8401
1336	37.4523
1320	37.7507
1304	38.2043
1288	37.8608
1272	37.1447
1256	37.4805
1240	38.0685
1224	37.5845
1208	37.0425
1192	37.5232
1176	38.1507
1160	37.4194
1144	36.9482
1128	37.5286
1112	37.7673
1096	37.4132
1080	36.5486
1064	37.3785
1048	37.5698
1032	36.9808
1016	36.2085
1000	36.8018
984	 37.6852
968	 36.8288
952	 36.0737
936	 36.731
920	 37.1111
904	 36.2553
888	 35.3384
872	 36.1628
856	 36.6295
840	 35.501
824	 34.9311
808	 35.6017
792	 35.7893
776	 34.9289
760	 34.4902
744	 34.5729
728	 34.9463
712	 33.9696
696	 33.0598
680	 33.757
664	 34.3995
648	 33.0501
632	 32.0313
616	 32.3969
600	 32.5487
584	 31.9288
568	 31.0209
552	 31.86
536	 31.4022
520	 30.6008
504	 28.7474
488	 27.853
472	 30.5901
456	 29.5032
440	 27.7002
424	 27.0752
408	 21.5795
392	 31.5458
376	 40.1397
370	 8.553647