File: Bakgrunnsmateriale/MATLAB/FTIR/ftir_data/LPE453/Mapping_121/LPE453_t81_cm-1.asc
PE IR       SPECTRUM    SPECTRUM    ASCII       PEDS        1.60
  -1
LP5BD0~1.ASC
17/05/16
21:00:14.00
17/05/16
21:00:14.00
tln
$LPE453_t0081$<tbV0>[5.2,5.2,8.0,0.0,27,1,0]
370
64

2002,4.07
MIRTGS : RIGHTBACK : INTERNAL 2
MIR : ON : INTERNAL 2
OPTKBR

0.200000
8
8.000000
FILLER
RATIO
SPECTRUM
UNLOCKED 256

DOUBLE
64
COMBINED
1
0
0

1.000000
RATIO

1
0
TRUE
51149
0
LEFT NOT FITTED RIGHT NOT FITTED 0
NONE
NONE
15600
12
4.427000
51148
TRUE
1 0 8 72 0 0 0 0

15798

#HDR
-1
-1
#GR
CM-1
%T
2.38419e-05
0.0
5000
-1.000000
4631
8
31.7959
-15.8376
#DATA
5000	0.067949
4984	-0.225424
4968	0.116467
4952	-0.072717
4936	0.314879
4920	0.441098
4904	0.496053
4888	0.057053
4872	0.435853
4856	-0.248074
4840	0.141906
4824	0.092959
4808	0.233292
4792	0.310349
4776	0.159215
4760	-0.198101
4744	-0.211143
4728	0.753450
4712	-0.529980
4696	0.439953
4680	0.691723
4664	0.408005
4648	1.283264
4632	1.118183
4616	-0.887918
4600	-1.055073
4584	0.597810
4568	-0.116133
4552	0.165605
4536	0.237870
4520	0.051307
4504	-3.029513
4488	21.0454
4472	-1.261711
4456	0.138092
4440	-0.670409
4424	0.280451
4408	0.127792
4392	-0.002360
4376	0.570178
4360	0.391769
4344	0.358462
4328	0.146770
4312	0.375247
4296	0.019907
4280	-0.027346
4264	-0.109887
4248	0.177001
4232	0.234317
4216	0.105428
4200	0.081706
4184	0.389099
4168	0.130963
4152	-0.018978
4136	0.131177
4120	-0.073504
4104	0.123667
4088	0.141882
4072	0.048589
4056	0.152850
4040	-0.121593
4024	-0.084638
4008	0.106716
3992	0.141263
3976	-0.005054
3960	-0.063824
3944	-0.051617
3928	0.116252
3912	0.070405
3896	0.069808
3880	0.251674
3864	0.169634
3848	0.063991
3832	-0.040125
3816	0.010848
3800	0.041651
3784	0.109863
3768	0.083708
3752	-0.011324
3736	0.027680
3720	0.161361
3704	0.101900
3688	0.155830
3672	-0.060486
3656	0.069785
3640	-0.041079
3624	-0.047016
3608	0.139188
3592	0.100278
3576	0.178122
3560	0.068879
3544	0.016760
3528	0.013160
3512	-0.041007
3496	0.134420
3480	0.131821
3464	0.051450
3448	0.159001
3432	-0.021362
3416	0.016856
3400	0.087428
3384	0.077199
3368	0.032305
3352	-0.022840
3336	0.019192
3320	0.221514
3304	-0.035524
3288	0.020599
3272	0.086236
3256	0.114107
3240	0.021719
3224	-0.118088
3208	0.149178
3192	0.169396
3176	-0.056242
3160	-0.140285
3144	0.029587
3128	-0.029349
3112	0.064516
3096	-0.110673
3080	0.071787
3064	0.091338
3048	0.047278
3032	0.135445
3016	0.004720
3000	-0.051665
2984	-0.090146
2968	0.147366
2952	0.027203
2936	0.036597
2920	-0.046515
2904	0.063014
2888	-0.016641
2872	0.014376
2856	0.155520
2840	0.044298
2824	0.084495
2808	0.109219
2792	-0.000953
2776	0.029277
2760	0.085759
2744	-0.001430
2728	-0.014448
2712	0.015234
2696	0.048327
2680	0.015425
2664	0.023460
2648	0.078082
2632	-0.043416
2616	0.032901
2600	0.077533
2584	0.029134
2568	-0.054216
2552	0.015068
2536	0.024342
2520	0.110936
2504	-0.018429
2488	-0.116467
2472	0.039601
2456	0.059294
2440	-0.065779
2424	0.023984
2408	0.021719
2392	-0.036835
2376	0.040626
2360	0.087928
2344	0.081515
2328	-0.050878
2312	0.176787
2296	0.163888
2280	0.418949
2264	0.605154
2248	0.910353
2232	1.270127
2216	1.965332
2200	2.818036
2184	3.831076
2168	5.113196
2152	6.550526
2136	8.137798
2120	9.838366
2104	11.6736
2088	13.5123
2072	15.3503
2056	17.1952
2040	18.9387
2024	20.652
2008	22.0584
1992	23.3926
1976	24.5976
1960	25.6729
1944	26.5587
1928	27.3541
1912	28.1004
1896	28.7042
1880	29.261
1864	29.6069
1848	29.9931
1832	30.4063
1816	30.5524
1800	30.8974
1784	30.9832
1768	31.2773
1752	31.2991
1736	31.4445
1720	31.3858
1704	31.6389
1688	31.7067
1672	31.6402
1656	31.7801
1640	31.6868
1624	31.6523
1608	31.6155
1592	31.673
1576	31.7218
1560	31.6754
1544	31.6304
1528	31.5461
1512	31.3714
1496	31.3264
1480	31.321
1464	31.3137
1448	31.0516
1432	31.1694
1416	31.2361
1400	31.1861
1384	31.1862
1368	31.0312
1352	30.9199
1336	31.0477
1320	30.8352
1304	30.7607
1288	30.7587
1272	30.6587
1256	30.5703
1240	30.6128
1224	30.3751
1208	30.2964
1192	30.4016
1176	30.2592
1160	29.9701
1144	30.0055
1128	29.8511
1112	29.747
1096	29.5132
1080	29.4933
1064	29.4175
1048	29.2046
1032	29.1311
1016	28.9563
1000	28.9411
984	 28.5447
968	 28.5691
952	 28.5111
936	 28.0009
920	 28.0155
904	 27.7809
888	 27.4647
872	 27.3633
856	 27.2114
840	 27.0094
824	 26.6234
808	 26.3441
792	 26.0786
776	 25.6995
760	 25.5388
744	 25.2074
728	 24.8926
712	 24.6712
696	 24.0127
680	 23.6641
664	 23.4751
648	 22.9366
632	 22.7749
616	 22.2472
600	 21.441
584	 21.179
568	 21.2828
552	 20.3024
536	 20.1112
520	 20.0221
504	 18.9373
488	 18.0152
472	 18.426
456	 16.5933
440	 15.9258
424	 13.7408
408	 16.5683
392	 22.6302
376	 -15.7162
370	 -5.098295