File: Bakgrunnsmateriale/MATLAB/FTIR/ftir_data/LPE453/Mapping_121/LPE453_e123.asc
PE IR       SPECTRUM    SPECTRUM    ASCII       PEDS        1.60
  -1
LP8F73~1.ASC
17/05/16
16:11:26.00
17/05/16
16:11:52.00
tln
$LPE453_e0123$<ebV0>[-23.3,12.1,10.0,0.0,27,1,0]
27.028
64

2002,4.07
MIRTGS : RIGHTBACK : INTERNAL 2
MIR : ON : INTERNAL 2
OPTKBR

0.200000
8
8.000000
FILLER
SINGLE
SPECTRUM
UNLOCKED 256

DOUBLE

COMBINED
1
0
0

0.002000
BACKG

1
0
TRUE
51149
0
LEFT NOT FITTED RIGHT NOT FITTED 0
NONE
NONE
15600
12
4.427000
51148
TRUE
1 0 8 72 0 0 0 0

15798

#HDR
-1
-1
#GR
µM
EGY
2.38419e-05
0.0
2.000000
0.002000
12515
8
2.420977
0.006079
#DATA
2.000000	 0.765037
2.084000	 0.864435
2.168000	 0.930555
2.252000	 1.006981
2.336000	 1.125502
2.420000	 1.225929
2.504000	 1.384714
2.588000	 1.443323
2.672000	 1.536213
2.756000	 1.561350
2.840000	 1.608467
2.924000	 1.571868
3.008000	 1.666344
3.092000	 1.764296
3.176000	 1.790617
3.260000	 1.906800
3.344000	 2.010700
3.428000	 1.819972
3.512000	 1.989165
3.596000	 2.189636
3.680000	 2.230502
3.764000	 2.202209
3.848000	 2.201260
3.932000	 2.266239
4.016000	 2.301451
4.100000	 2.267188
4.184000	 2.225791
4.268000	 2.238605
4.352000	 2.312549
4.436000	 2.348282
4.520000	 2.336037
4.604000	 2.310260
4.688000	 2.299750
4.772000	 2.302606
4.856000	 2.345586
4.940000	 2.404740
5.024000	 2.420033
5.108000	 2.394201
5.192000	 2.367984
5.276000	 2.334112
5.359999	 2.339604
5.444000	 2.363725
5.528000	 2.387132
5.612000	 2.387963
5.696000	 2.360131
5.780000	 2.286563
5.864000	 2.245090
5.948000	 2.202505
6.032000	 2.155112
6.116000	 2.103502
6.200000	 1.973043
6.284000	 1.982243
6.368000	 1.947292
6.452000	 1.923332
6.536000	 2.062469
6.620000	 2.044422
6.704000	 1.662409
6.788000	 1.944606
6.872000	 1.759905
6.956000	 1.834998
7.040000	 1.827339
7.124000	 1.700839
7.208000	 1.759368
7.292000	 1.785590
7.376000	 1.788502
7.460000	 1.785252
7.544000	 1.817858
7.628000	 1.821801
7.712000	 1.823847
7.796000	 1.822104
7.880000	 1.745589
7.964000	 1.734181
8.048000	 1.807284
8.132000	 1.797536
8.216000	 1.759873
8.300000	 1.722121
8.384000	 1.715711
8.468000	 1.689759
8.552000	 1.649668
8.635999	 1.601743
8.719999	 1.583585
8.804000	 1.552423
8.888000	 1.505462
8.972000	 1.449945
9.056000	 1.411743
9.140000	 1.402477
9.224000	 1.408153
9.308000	 1.408901
9.391999	 1.417863
9.475999	 1.338552
9.560000	 1.305677
9.644000	 1.365648
9.728000	 1.347913
9.812000	 1.337961
9.896000	 1.360017
9.980000	 1.378245
10.064	1.377304
10.148	1.362741
10.232	1.345945
10.316	1.326094
10.4	1.299998
10.484	1.272501
10.568	1.251812
10.652	1.237483
10.736	1.222679
10.82	1.205904
10.904	1.186201
10.988	1.159809
11.072	1.143143
11.156	1.133847
11.24	1.114061
11.324	1.063244
11.408	1.015719
11.492	1.030790
11.576	1.067836
11.66	1.077287
11.744	1.071822
11.828	1.062073
11.912	1.041621
11.996	0.976253
12.08	0.866837
12.164	0.837728
12.248	0.900516
12.332	0.933784
12.416	0.934404
12.5	0.931453
12.584	0.938382
12.668	0.952674
12.752	0.963621
12.836	0.964624
12.92	0.960749
13.004	0.956291
13.088	0.952125
13.172	0.948617
13.256	0.944673
13.34	0.936197
13.424	0.927535
13.508	0.920495
13.592	0.910955
13.676	0.898190
13.76	0.885093
13.844	0.872416
13.928	0.860128
14.012	0.847823
14.096	0.835283
14.18	0.821473
14.264	0.805072
14.348	0.783726
14.432	0.754153
14.516	0.726660
14.6	0.718052
14.684	0.721421
14.768	0.720746
14.852	0.714959
14.936	0.707964
15.02	0.700410
15.104	0.692296
15.188	0.684282
15.272	0.675009
15.356	0.663816
15.44	0.652921
15.524	0.643159
15.608	0.633288
15.692	0.623484
15.776	0.614893
15.86	0.607222
15.944	0.599428
16.028	0.591256
16.112	0.582274
16.196	0.571498
16.28	0.558473
16.364	0.543637
16.448	0.529242
16.532	0.519767
16.616	0.516960
16.7	0.517235
16.784	0.516138
16.868	0.512416
16.952	0.507477
17.036	0.503124
17.12	0.500111
17.204	0.497642
17.288	0.494536
17.372	0.490610
17.456	0.486515
17.54	0.482681
17.624	0.478974
17.708	0.475273
17.792	0.471888
17.876	0.469102
17.96	0.466839
18.044	0.464357
18.128	0.460852
18.212	0.456178
18.296	0.450859
18.38	0.445440
18.464	0.440354
18.548	0.435465
18.632	0.430597
18.716	0.425557
18.8	0.420207
18.884	0.414639
18.968	0.408902
19.052	0.403388
19.136	0.398271
19.22	0.393641
19.304	0.389458
19.388	0.385398
19.472	0.381174
19.556	0.376323
19.64	0.370608
19.724	0.364149
19.808	0.357190
19.892	0.349978
19.976	0.342803
20.06	0.335787
20.144	0.328977
20.228	0.322230
20.312	0.315492
20.396	0.308649
20.48	0.301684
20.564	0.294548
20.648	0.287196
20.732	0.279889
20.816	0.272875
20.9	0.266457
20.984	0.260641
21.068	0.255190
21.152	0.249760
21.236	0.244187
21.32	0.238365
21.404	0.232424
21.488	0.226491
21.572	0.220625
21.656	0.214780
21.74	0.208743
21.824	0.202448
21.908	0.195969
21.992	0.189415
22.076	0.183059
22.16	0.177056
22.244	0.171558
22.328	0.166620
22.412	0.162139
22.496	0.157904
22.58	0.153679
22.664	0.149328
22.748	0.144710
22.832	0.139848
22.916	0.134872
23	0.129789
23.084	0.124660
23.168	0.119459
23.252	0.114314
23.336	0.109292
23.42	0.104502
23.504	0.099983
23.588	0.095739
23.672	0.091708
23.756	0.087840
23.84	0.084143
23.924	0.080441
24.008	0.076718
24.092	0.072918
24.176	0.069014
24.26	0.065045
24.344	0.061192
24.428	0.057620
24.512	0.054448
24.596	0.051662
24.68	0.049174
24.764	0.046775
24.848	0.044275
24.932	0.041729
25.016	0.039140
25.1	0.036725
25.184	0.034635
25.268	0.032865
25.352	0.031384
25.436	0.029963
25.52	0.028448
25.604	0.026739
25.688	0.024816
25.772	0.022821
25.856	0.020797
25.94	0.018949
26.024	0.017258
26.108	0.015764
26.192	0.014367
26.276	0.013068
26.36	0.011822
26.444	0.010699
26.528	0.009696
26.612	0.008831
26.696	0.008117
26.78	0.007534
26.864	0.007018
26.948	0.006520
27.028	0.006079