File: Bakgrunnsmateriale/MATLAB/FTIR/ftir_data/LPE453/Mapping_121/LPE453_t100.asc
PE IR       SPECTRUM    SPECTRUM    ASCII       PEDS        1.60
  -1
LP9376~1.ASC
17/05/16
22:34:57.00
17/05/16
22:35:23.00
tln
$LPE453_t0100$<tbV0>[13.0,10.4,8.0,0.0,27,1,0]
27.028
64

2002,4.07
MIRTGS : RIGHTBACK : INTERNAL 2
MIR : ON : INTERNAL 2
OPTKBR

0.200000
8
8.000000
FILLER
RATIO
SPECTRUM
UNLOCKED 256

DOUBLE
64
COMBINED
1
0
0

0.002000
RATIO

1
0
TRUE
51149
0
LEFT NOT FITTED RIGHT NOT FITTED 0
NONE
NONE
15600
12
4.427000
51148
TRUE
1 0 8 72 0 0 0 0

15798

#HDR
-1
-1
#GR
µM
%T
2.38419e-05
0.0
2.000000
0.002000
12515
8
24.5732
-10.2397
#DATA
2.000000	 0.186824
2.084000	 0.273853
2.168000	 1.667853
2.252000	 0.151690
2.336000	 -0.084842
2.420000	 0.118789
2.504000	 0.159229
2.588000	 0.042278
2.672000	 0.121545
2.756000	 0.054296
2.840000	 -0.062597
2.924000	 -0.021169
3.008000	 -0.011020
3.092000	 0.106806
3.176000	 0.051823
3.260000	 0.022016
3.344000	 -0.069313
3.428000	 0.024062
3.512000	 0.016052
3.596000	 0.035111
3.680000	 0.056894
3.764000	 0.122148
3.848000	 -0.021065
3.932000	 0.034305
4.016000	 -0.041299
4.100000	 0.087207
4.184000	 0.083960
4.268000	 -0.009616
4.352000	 0.082556
4.436000	 0.154347
4.520000	 0.891520
4.604000	 2.062532
4.688000	 4.256828
4.772000	 7.211225
4.856000	 10.182
4.940000	 13.0258
5.024000	 15.555
5.108000	 17.5193
5.192000	 19.0666
5.276000	 20.2888
5.359999	 21.2548
5.444000	 22.0201
5.528000	 22.5732
5.612000	 23.04
5.696000	 23.3602
5.780000	 23.7
5.864000	 23.8349
5.948000	 24.0973
6.032000	 24.1467
6.116000	 24.2786
6.200000	 24.4396
6.284000	 24.3969
6.368000	 24.4137
6.452000	 24.525
6.536000	 24.4373
6.620000	 24.496
6.704000	 24.3538
6.788000	 24.4367
6.872000	 24.401
6.956000	 24.298
7.040000	 24.3515
7.124000	 24.388
7.208000	 24.1544
7.292000	 24.2045
7.376000	 24.2528
7.460000	 24.125
7.544000	 24.1568
7.628000	 24.0375
7.712000	 24.0676
7.796000	 23.913
7.880000	 23.8452
7.964000	 23.7136
8.048000	 23.7566
8.132000	 23.601
8.216000	 23.71
8.300000	 23.7083
8.384000	 23.5904
8.468000	 23.5442
8.552000	 23.5446
8.635999	 23.5088
8.719999	 23.2931
8.804000	 23.1899
8.888000	 23.2926
8.972000	 23.2247
9.056000	 23.1711
9.140000	 23.174
9.224000	 23.1467
9.308000	 23.072
9.391999	 22.8479
9.475999	 22.9628
9.560000	 22.7496
9.644000	 22.7523
9.728000	 22.7886
9.812000	 22.4958
9.896000	 22.4747
9.980000	 22.426
10.064	22.4298
10.148	22.3188
10.232	22.2466
10.316	22.027
10.4	22.0186
10.484	22.1325
10.568	22.1022
10.652	21.8112
10.736	21.7434
10.82	21.5935
10.904	21.6725
10.988	21.6497
11.072	21.3736
11.156	21.3539
11.24	21.3113
11.324	21.341
11.408	21.0519
11.492	21.0076
11.576	21.0949
11.66	20.9647
11.744	20.7639
11.828	20.495
11.912	20.6354
11.996	20.677
12.08	20.3543
12.164	20.1487
12.248	20.1463
12.332	20.1022
12.416	20.0314
12.5	20.0725
12.584	20.0708
12.668	19.8228
12.752	19.5229
12.836	19.5226
12.92	19.5789
13.004	19.4115
13.088	19.3049
13.172	19.3432
13.256	19.3342
13.34	19.3766
13.424	19.4411
13.508	19.3187
13.592	19.0992
13.676	18.8736
13.76	18.7876
13.844	18.7593
13.928	18.6731
14.012	18.667
14.096	18.6533
14.18	18.644
14.264	18.6679
14.348	18.6385
14.432	18.3798
14.516	18.1125
14.6	18.0904
14.684	18.0302
14.768	17.9206
14.852	17.9253
14.936	17.9006
15.02	17.7342
15.104	17.5457
15.188	17.4608
15.272	17.4388
15.356	17.3808
15.44	17.2574
15.524	17.1183
15.608	17.0187
15.692	16.999
15.776	17.0696
15.86	17.0846
15.944	16.9022
16.028	16.6717
16.112	16.6149
16.196	16.7172
16.28	16.7829
16.364	16.6425
16.448	16.366
16.532	16.1773
16.616	16.1335
16.7	16.1404
16.784	16.1711
16.868	16.1925
16.952	16.1083
17.036	15.8992
17.12	15.6478
17.204	15.4363
17.288	15.318
17.372	15.314
17.456	15.3796
17.54	15.4261
17.624	15.4117
17.708	15.3816
17.792	15.3942
17.876	15.4063
17.96	15.2808
18.044	14.9577
18.128	14.5738
18.212	14.3375
18.296	14.2999
18.38	14.3357
18.464	14.3446
18.548	14.3637
18.632	14.4391
18.716	14.4952
18.8	14.4249
18.884	14.2594
18.968	14.1412
19.052	14.1254
19.136	14.099
19.22	13.9334
19.304	13.673
19.388	13.5024
19.472	13.5501
19.556	13.7733
19.64	14.0281
19.724	14.199
19.808	14.2438
19.892	14.1571
19.976	13.9346
20.06	13.5821
20.144	13.1473
20.228	12.7167
20.312	12.3822
20.396	12.2008
20.48	12.1852
20.564	12.311
20.648	12.5263
20.732	12.7553
20.816	12.9222
20.9	12.9827
20.984	12.9569
21.068	12.9181
21.152	12.9394
21.236	13.0361
21.32	13.1518
21.404	13.2071
21.488	13.1639
21.572	13.0581
21.656	12.963
21.74	12.9255
21.824	12.9205
21.908	12.8628
21.992	12.6887
22.076	12.4176
22.16	12.1401
22.244	11.9622
22.328	11.9166
22.412	11.959
22.496	12.0046
22.58	12.0014
22.664	11.9565
22.748	11.9226
22.832	11.9442
22.916	12.0235
23	12.1159
23.084	12.1539
23.168	12.0577
23.252	11.7578
23.336	11.2039
23.42	10.3975
23.504	9.391505
23.588	8.309000
23.672	7.313156
23.756	6.554126
23.84	6.114780
23.924	5.994926
24.008	6.119842
24.092	6.370792
24.176	6.638748
24.26	6.843955
24.344	6.924575
24.428	6.851244
24.512	6.649479
24.596	6.378459
24.68	6.093023
24.764	5.807311
24.848	5.464456
24.932	4.949528
25.016	4.151308
25.1	3.015883
25.184	1.579898
25.268	-0.004867
25.352	-1.502981
25.436	-2.579732
25.52	-2.901288
25.604	-2.251157
25.688	-0.626567
25.772	1.696205
25.856	4.232948
25.94	6.370978
26.024	7.544737
26.108	7.459044
26.192	6.111466
26.276	3.748017
26.36	0.778728
26.444	-2.315701
26.528	-5.111293
26.612	-7.287517
26.696	-8.722036
26.78	-9.504173
26.864	-9.869948
26.948	-10.0738
27.028	-10.2397