File: Bakgrunnsmateriale/MATLAB/FTIR/ftir_data/LPE453/Mapping_121/LPE453_t101_cm-1.asc
PE IR       SPECTRUM    SPECTRUM    ASCII       PEDS        1.60
  -1
LP0478~1.ASC
17/05/16
22:39:33.00
17/05/16
22:39:33.00
tln
$LPE453_t0101$<tbV0>[10.4,10.4,8.0,0.0,27,1,0]
370
64

2002,4.07
MIRTGS : RIGHTBACK : INTERNAL 2
MIR : ON : INTERNAL 2
OPTKBR

0.200000
8
8.000000
FILLER
RATIO
SPECTRUM
UNLOCKED 256

DOUBLE
64
COMBINED
1
0
0

1.000000
RATIO

1
0
TRUE
51149
0
LEFT NOT FITTED RIGHT NOT FITTED 0
NONE
NONE
15600
12
4.427000
51148
TRUE
1 0 8 72 0 0 0 0

15798

#HDR
-1
-1
#GR
CM-1
%T
2.38419e-05
0.0
5000
-1.000000
4631
8
30.1195
-1.157712
#DATA
5000	0.232505
4984	0.348591
4968	-0.320482
4952	-0.416684
4936	-0.190854
4920	0.011992
4904	-0.177168
4888	0.012183
4872	0.293374
4856	0.353360
4840	0.577402
4824	0.071525
4808	0.056266
4792	-0.124955
4776	0.639748
4760	0.195050
4744	0.096321
4728	0.484299
4712	-0.261449
4696	-0.206351
4680	1.367402
4664	0.799536
4648	0.621843
4632	1.191115
4616	0.408577
4600	1.204204
4584	0.022697
4568	-0.608777
4552	-0.775408
4536	-0.796675
4520	-0.893902
4504	2.284622
4488	6.577563
4472	1.161646
4456	-0.659203
4440	0.088429
4424	-0.108265
4408	-0.189304
4392	-0.115442
4376	0.267171
4360	0.285553
4344	0.321817
4328	-0.195240
4312	0.268769
4296	0.119471
4280	-0.284719
4264	0.316047
4248	0.195622
4232	0.274276
4216	0.251960
4200	-0.021314
4184	0.175642
4168	-0.105571
4152	0.285291
4136	0.110721
4120	0.021100
4104	0.181508
4088	-0.110220
4072	0.250720
4056	0.027751
4040	-0.113081
4024	0.242781
4008	-0.003123
3992	0.305891
3976	0.028347
3960	0.038576
3944	0.102663
3928	-0.054621
3912	0.109004
3896	0.096797
3880	-0.007963
3864	0.060224
3848	0.055456
3832	0.078773
3816	0.086855
3800	-0.026106
3784	0.063753
3768	-0.006103
3752	0.014400
3736	-0.009894
3720	0.051283
3704	0.055742
3688	-0.069141
3672	0.016641
3656	0.120401
3640	0.247550
3624	0.096869
3608	0.201201
3592	0.024724
3576	0.019931
3560	0.147366
3544	0.068759
3528	-0.077128
3512	0.189900
3496	-0.009870
3480	-0.104570
3464	0.179934
3448	0.019192
3432	0.124979
3416	0.139164
3400	-0.122261
3384	0.120282
3368	-0.002074
3352	-0.085949
3336	-0.038743
3320	0.037431
3304	0.076818
3288	0.015306
3272	0.031137
3256	0.101494
3240	-0.057196
3224	0.018334
3208	-0.108647
3192	0.126910
3176	0.041437
3160	-0.010538
3144	0.143218
3128	-0.057101
3112	-0.006651
3096	0.027966
3080	0.152254
3064	-0.023579
3048	0.111269
3032	0.055932
3016	0.124120
3000	0.074100
2984	0.010538
2968	0.049638
2952	0.175881
2936	0.030875
2920	-0.098586
2904	0.099563
2888	0.002360
2872	0.033545
2856	0.129103
2840	-0.064158
2824	0.027585
2808	0.024461
2792	0.068354
2776	0.100350
2760	0.039291
2744	0.027441
2728	0.112867
2712	0.064587
2696	0.031805
2680	-0.013208
2664	0.018596
2648	0.068306
2632	-0.111722
2616	0.055432
2600	0.110459
2584	0.048685
2568	0.006747
2552	-0.029683
2536	0.084304
2520	0.058078
2504	0.099396
2488	-0.044989
2472	0.005698
2456	0.091099
2440	0.029993
2424	-0.073194
2408	-0.106382
2392	-0.029444
2376	0.014114
2360	0.028109
2344	-0.009608
2328	0.258684
2312	0.068521
2296	0.223255
2280	0.342488
2264	0.565075
2248	0.882458
2232	1.320791
2216	1.966333
2200	2.623009
2184	3.414273
2168	4.623079
2152	5.978918
2136	7.228851
2120	8.799958
2104	10.3961
2088	12.1089
2072	13.7551
2056	15.35
2040	16.9212
2024	18.1759
2008	19.6367
1992	20.8366
1976	21.9951
1960	22.9987
1944	23.8429
1928	24.6877
1912	25.3774
1896	26.0296
1880	26.6197
1864	27.2043
1848	27.5603
1832	27.919
1816	28.3008
1800	28.5366
1784	28.8501
1768	28.9778
1752	29.1258
1736	29.2932
1720	29.5399
1704	29.473
1688	29.6838
1672	29.8177
1656	29.7978
1640	29.8582
1624	29.8499
1608	29.907
1592	29.9094
1576	29.9304
1560	30.0927
1544	29.9706
1528	29.9554
1512	30.0766
1496	29.9312
1480	30.0497
1464	29.9121
1448	29.9734
1432	29.9422
1416	29.8768
1400	29.9883
1384	29.9767
1368	29.854
1352	29.928
1336	29.9184
1320	29.8621
1304	29.7568
1288	29.8131
1272	29.8013
1256	29.6369
1240	29.7453
1224	29.7563
1208	29.7049
1192	29.6862
1176	29.5981
1160	29.5084
1144	29.47
1128	29.3692
1112	29.4879
1096	29.2966
1080	29.3185
1064	29.2069
1048	29.1072
1032	28.833
1016	28.9504
1000	28.8036
984	 28.711
968	 28.3703
952	 28.5638
936	 28.3247
920	 28.1492
904	 28.0436
888	 27.7885
872	 27.5865
856	 27.4529
840	 27.4215
824	 26.7817
808	 26.79
792	 26.937
776	 26.3066
760	 25.9385
744	 25.8169
728	 25.8324
712	 25.2845
696	 24.9933
680	 24.7605
664	 24.6305
648	 23.9347
632	 23.6089
616	 23.2075
600	 22.9645
584	 22.6269
568	 22.741
552	 21.867
536	 21.1199
520	 21.1513
504	 20.9741
488	 19.1588
472	 19.1721
456	 18.6856
440	 17.9468
424	 16.689
408	 14.1101
392	 27.1836
376	 0.297713
370	 22.0201