File: Bakgrunnsmateriale/MATLAB/FTIR/ftir_data/LPE453/Mapping_121/LPE453_t58.asc
PE IR       SPECTRUM    SPECTRUM    ASCII       PEDS        1.60
  -1
LPE7A9~1.ASC
17/05/16
19:06:51.00
17/05/16
19:07:17.00
tln
$LPE453_t0058$<tbV0>[7.8,0.0,8.0,0.0,27,1,0]
27.028
64

2002,4.07
MIRTGS : RIGHTBACK : INTERNAL 2
MIR : ON : INTERNAL 2
OPTKBR

0.200000
8
8.000000
FILLER
RATIO
SPECTRUM
UNLOCKED 256

DOUBLE
64
COMBINED
1
0
0

0.002000
RATIO

1
0
TRUE
51149
0
LEFT NOT FITTED RIGHT NOT FITTED 0
NONE
NONE
15600
12
4.427000
51148
TRUE
1 0 8 72 0 0 0 0

15798

#HDR
-1
-1
#GR
µM
%T
2.38419e-05
0.0
2.000000
0.002000
12515
8
24.3291
-13.6148
#DATA
2.000000	 -0.191450
2.084000	 -0.015482
2.168000	 0.934369
2.252000	 -0.608253
2.336000	 -0.058107
2.420000	 0.263898
2.504000	 -0.111004
2.588000	 -0.065241
2.672000	 0.121967
2.756000	 0.064964
2.840000	 0.052131
2.924000	 0.138682
3.008000	 -0.063930
3.092000	 -0.071693
3.176000	 0.142113
3.260000	 0.023464
3.344000	 0.161451
3.428000	 -0.020750
3.512000	 0.038057
3.596000	 0.053129
3.680000	 -0.136119
3.764000	 0.028578
3.848000	 0.018041
3.932000	 0.077291
4.016000	 0.038828
4.100000	 0.134127
4.184000	 -0.091220
4.268000	 0.124115
4.352000	 0.054863
4.436000	 0.152971
4.520000	 0.610210
4.604000	 1.726473
4.688000	 3.789261
4.772000	 6.596536
4.856000	 9.689278
4.940000	 12.9912
5.024000	 15.5614
5.108000	 17.9322
5.192000	 19.5885
5.276000	 20.8597
5.359999	 21.9596
5.444000	 22.5581
5.528000	 23.129
5.612000	 23.6504
5.696000	 23.7931
5.780000	 23.9666
5.864000	 24.0412
5.948000	 24.2221
6.032000	 24.3012
6.116000	 24.2396
6.200000	 24.1563
6.284000	 24.2444
6.368000	 24.203
6.452000	 24.1662
6.536000	 24.1664
6.620000	 24.117
6.704000	 24.0838
6.788000	 23.9317
6.872000	 23.884
6.956000	 23.894
7.040000	 23.9117
7.124000	 23.6306
7.208000	 23.7382
7.292000	 23.505
7.376000	 23.4798
7.460000	 23.5614
7.544000	 23.371
7.628000	 23.4963
7.712000	 23.2949
7.796000	 23.4
7.880000	 23.2051
7.964000	 23.1357
8.048000	 23.1181
8.132000	 23.0341
8.216000	 22.903
8.300000	 22.9191
8.384000	 22.9595
8.468000	 22.6825
8.552000	 22.6827
8.635999	 22.5608
8.719999	 22.4891
8.804000	 22.1974
8.888000	 22.145
8.972000	 22.2202
9.056000	 22.1699
9.140000	 22.0534
9.224000	 22.2456
9.308000	 21.8545
9.391999	 21.7698
9.475999	 21.6912
9.560000	 21.7463
9.644000	 21.6566
9.728000	 21.6067
9.812000	 21.5364
9.896000	 21.7101
9.980000	 21.3096
10.064	21.1397
10.148	20.8878
10.232	20.8855
10.316	20.7956
10.4	20.5424
10.484	20.4051
10.568	20.4324
10.652	20.2618
10.736	20.3134
10.82	20.2009
10.904	20.2529
10.988	20.0592
11.072	19.672
11.156	19.487
11.24	19.6116
11.324	19.6119
11.408	19.4187
11.492	19.2327
11.576	19.2016
11.66	19.1495
11.744	18.9731
11.828	18.9876
11.912	18.832
11.996	18.7615
12.08	18.5374
12.164	18.4406
12.248	18.3594
12.332	18.1819
12.416	18.1692
12.5	18.0543
12.584	17.8449
12.668	17.7786
12.752	17.6385
12.836	17.5578
12.92	17.5006
13.004	17.324
13.088	17.0984
13.172	17.2093
13.256	17.246
13.34	17.0986
13.424	17.0461
13.508	17.0711
13.592	17.0691
13.676	16.9517
13.76	16.7949
13.844	16.5604
13.928	16.3176
14.012	16.2389
14.096	16.2257
14.18	16.3214
14.264	16.387
14.348	16.2094
14.432	16.067
14.516	16.1838
14.6	16.2044
14.684	15.9672
14.768	15.8166
14.852	15.7683
14.936	15.5621
15.02	15.1788
15.104	14.9321
15.188	15.0633
15.272	15.3333
15.356	15.4467
15.44	15.3934
15.524	15.1855
15.608	14.8083
15.692	14.3177
15.776	13.9114
15.86	13.8789
15.944	14.2145
16.028	14.5802
16.112	14.7551
16.196	14.7081
16.28	14.4672
16.364	14.1893
16.448	14.0353
16.532	13.9735
16.616	13.893
16.7	13.7654
16.784	13.6341
16.868	13.5763
16.952	13.6487
17.036	13.7921
17.12	13.8778
17.204	13.8516
17.288	13.7429
17.372	13.5878
17.456	13.422
17.54	13.2726
17.624	13.1036
17.708	12.8609
17.792	12.5963
17.876	12.449
17.96	12.5046
18.044	12.7277
18.128	13.0026
18.212	13.19
18.296	13.1758
18.38	12.9557
18.464	12.6744
18.548	12.5307
18.632	12.6094
18.716	12.8171
18.8	12.9856
18.884	13.0246
18.968	12.9474
19.052	12.7914
19.136	12.5833
19.22	12.3722
19.304	12.2443
19.388	12.2573
19.472	12.3784
19.556	12.487
19.64	12.4618
19.724	12.2804
19.808	12.038
19.892	11.8774
19.976	11.8731
20.06	11.9732
20.144	12.0439
20.228	11.9755
20.312	11.7543
20.396	11.4653
20.48	11.2313
20.564	11.1369
20.648	11.1672
20.732	11.2083
20.816	11.1269
20.9	10.8715
20.984	10.5264
21.068	10.2531
21.152	10.167
21.236	10.2574
21.32	10.4066
21.404	10.505
21.488	10.5385
21.572	10.5769
21.656	10.6775
21.74	10.8138
21.824	10.8766
21.908	10.761
21.992	10.4565
22.076	10.0519
22.16	9.679288
22.244	9.438370
22.328	9.358555
22.412	9.441357
22.496	9.693899
22.58	10.122
22.664	10.7082
22.748	11.379
22.832	12.0138
22.916	12.5032
23	12.8051
23.084	12.9399
23.168	12.9664
23.252	12.9282
23.336	12.8236
23.42	12.6112
23.504	12.2554
23.588	11.7334
23.672	11.0451
23.756	10.2399
23.84	9.414804
23.924	8.739773
24.008	8.443980
24.092	8.761772
24.176	9.810635
24.26	11.5216
24.344	13.5616
24.428	15.4215
24.512	16.5545
24.596	16.5968
24.68	15.4979
24.764	13.5795
24.848	11.3941
24.932	9.630462
25.016	8.845417
25.1	9.275633
25.184	10.8344
25.268	13.1541
25.352	15.7361
25.436	18.032
25.52	19.6307
25.604	20.3419
25.688	20.0769
25.772	18.8349
25.856	16.6719
25.94	13.633
26.024	9.783855
26.108	5.287314
26.192	0.503237
26.276	-4.044017
26.36	-7.751904
26.444	-10.1405
26.528	-11.0466
26.612	-10.6829
26.696	-9.654777
26.78	-8.833880
26.864	-9.031959
26.948	-10.6946
27.028	-13.6148