File: Bakgrunnsmateriale/MATLAB/FTIR/ftir_data/LPE453/Mapping_121/LPE453_t75.asc
PE IR       SPECTRUM    SPECTRUM    ASCII       PEDS        1.60
  -1
LPDFAD~1.ASC
17/05/16
20:31:57.00
17/05/16
20:32:24.00
tln
$LPE453_t0075$<tbV0>[-7.8,2.6,8.0,0.0,27,1,0]
27.028
64

2002,4.07
MIRTGS : RIGHTBACK : INTERNAL 2
MIR : ON : INTERNAL 2
OPTKBR

0.200000
8
8.000000
FILLER
RATIO
SPECTRUM
UNLOCKED 256

DOUBLE
64
COMBINED
1
0
0

0.002000
RATIO

1
0
TRUE
51149
0
LEFT NOT FITTED RIGHT NOT FITTED 0
NONE
NONE
15600
12
4.427000
51148
TRUE
1 0 8 72 0 0 0 0

15798

#HDR
-1
-1
#GR
µM
%T
2.38419e-05
0.0
2.000000
0.002000
12515
8
45.4204
-12.7852
#DATA
2.000000	 0.034594
2.084000	 -0.287813
2.168000	 0.362972
2.252000	 -0.142302
2.336000	 0.207111
2.420000	 0.039332
2.504000	 0.100352
2.588000	 -0.169291
2.672000	 0.051225
2.756000	 -0.083418
2.840000	 0.084806
2.924000	 0.097309
3.008000	 -0.103461
3.092000	 -0.003993
3.176000	 0.044626
3.260000	 0.115379
3.344000	 0.082142
3.428000	 -0.063094
3.512000	 0.044987
3.596000	 -0.099805
3.680000	 0.054618
3.764000	 0.038396
3.848000	 0.025486
3.932000	 -0.060306
4.016000	 0.034187
4.100000	 0.024919
4.184000	 0.117614
4.268000	 0.154235
4.352000	 0.404285
4.436000	 1.331426
4.520000	 3.335197
4.604000	 6.592624
4.688000	 10.8369
4.772000	 15.7778
4.856000	 20.2553
4.940000	 23.9995
5.024000	 26.8842
5.108000	 29.1448
5.192000	 30.9538
5.276000	 31.9983
5.359999	 32.9795
5.444000	 33.4607
5.528000	 34.1088
5.612000	 34.2618
5.696000	 34.6633
5.780000	 34.4951
5.864000	 34.8702
5.948000	 34.753
6.032000	 35.0356
6.116000	 34.6574
6.200000	 35.1044
6.284000	 34.6854
6.368000	 34.804
6.452000	 34.888
6.536000	 34.4354
6.620000	 34.8023
6.704000	 34.7189
6.788000	 34.2846
6.872000	 34.8221
6.956000	 34.6557
7.040000	 34.2396
7.124000	 34.6286
7.208000	 34.6434
7.292000	 33.9336
7.376000	 34.1062
7.460000	 34.5307
7.544000	 34.0662
7.628000	 33.7729
7.712000	 34.0992
7.796000	 34.3364
7.880000	 33.8256
7.964000	 33.6727
8.048000	 33.9665
8.132000	 34.321
8.216000	 33.7563
8.300000	 33.342
8.384000	 33.6487
8.468000	 34.1033
8.552000	 33.861
8.635999	 33.2574
8.719999	 32.9541
8.804000	 33.4357
8.888000	 33.6691
8.972000	 33.5698
9.056000	 33.0248
9.140000	 32.8206
9.224000	 33.0679
9.308000	 33.4925
9.391999	 33.2908
9.475999	 33.0158
9.560000	 32.3629
9.644000	 32.339
9.728000	 32.6474
9.812000	 32.9477
9.896000	 32.9651
9.980000	 32.6984
10.064	32.1782
10.148	31.9262
10.232	32.0602
10.316	32.4556
10.4	32.496
10.484	32.3702
10.568	31.9816
10.652	31.677
10.736	31.3209
10.82	31.2257
10.904	31.6066
10.988	31.9257
11.072	31.8869
11.156	31.6983
11.24	31.2679
11.324	30.9748
11.408	30.8747
11.492	30.7911
11.576	30.9771
11.66	31.1718
11.744	31.3121
11.828	31.2627
11.912	31.0388
11.996	30.5401
12.08	30.2753
12.164	30.2473
12.248	30.0984
12.332	30.1978
12.416	30.4971
12.5	30.5345
12.584	30.4388
12.668	30.2654
12.752	30.1046
12.836	29.6977
12.92	29.4264
13.004	29.2857
13.088	29.1024
13.172	29.2603
13.256	29.6135
13.34	29.6948
13.424	29.6627
13.508	29.6456
13.592	29.4904
13.676	29.2897
13.76	28.9741
13.844	28.4849
13.928	28.1945
14.012	28.14
14.096	28.0985
14.18	28.075
14.264	28.1843
14.348	28.2967
14.432	28.2813
14.516	28.2604
14.6	28.32
14.684	28.3163
14.768	28.1534
14.852	27.8846
14.936	27.53
15.02	27.1797
15.104	27.0821
15.188	27.2425
15.272	27.3471
15.356	27.2816
15.44	27.2254
15.524	27.2951
15.608	27.4836
15.692	27.7278
15.776	27.8281
15.86	27.6332
15.944	27.2555
16.028	26.9249
16.112	26.7178
16.196	26.5356
16.28	26.326
16.364	26.1852
16.448	26.1765
16.532	26.1971
16.616	26.1547
16.7	26.0875
16.784	26.0364
16.868	26.0003
16.952	25.9875
17.036	26.0037
17.12	26.0344
17.204	26.0706
17.288	26.101
17.372	26.0722
17.456	25.9148
17.54	25.6247
17.624	25.2783
17.708	24.9631
17.792	24.7246
17.876	24.5793
17.96	24.5352
18.044	24.5861
18.128	24.6845
18.212	24.7368
18.296	24.6682
18.38	24.5334
18.464	24.4986
18.548	24.6521
18.632	24.8667
18.716	24.9445
18.8	24.8606
18.884	24.7648
18.968	24.7512
19.052	24.7298
19.136	24.5614
19.22	24.2448
19.304	23.9254
19.388	23.7436
19.472	23.7275
19.556	23.8125
19.64	23.9128
19.724	23.9563
19.808	23.8916
19.892	23.7098
19.976	23.4602
20.06	23.2325
20.144	23.1122
20.228	23.1427
20.312	23.3069
20.396	23.5309
20.48	23.7177
20.564	23.7947
20.648	23.7447
20.732	23.6122
20.816	23.4719
20.9	23.3846
20.984	23.3654
21.068	23.381
21.152	23.3857
21.236	23.3498
21.32	23.2722
21.404	23.1622
21.488	23.022
21.572	22.8445
21.656	22.6356
21.74	22.4296
21.824	22.2898
21.908	22.2748
21.992	22.3874
22.076	22.5546
22.16	22.6481
22.244	22.5474
22.328	22.2086
22.412	21.6723
22.496	21.0505
22.58	20.4646
22.664	19.9999
22.748	19.6784
22.832	19.4654
22.916	19.2959
23	19.1141
23.084	18.8971
23.168	18.6639
23.252	18.4646
23.336	18.3585
23.42	18.3551
23.504	18.4415
23.588	18.5947
23.672	18.8045
23.756	19.0881
23.84	19.4391
23.924	19.8212
24.008	20.1584
24.092	20.3525
24.176	20.3513
24.26	20.1503
24.344	19.7729
24.428	19.2626
24.512	18.7092
24.596	18.1936
24.68	17.8424
24.764	17.8575
24.848	18.4309
24.932	19.6988
25.016	21.6467
25.1	24.0822
25.184	26.6713
25.268	29.0784
25.352	31.1046
25.436	32.6992
25.52	33.9975
25.604	35.2575
25.688	36.8037
25.772	38.8235
25.856	41.1972
25.94	43.5205
26.024	45.123
26.108	45.2706
26.192	43.4509
26.276	39.5302
26.36	33.7833
26.444	27.0236
26.528	20.3871
26.612	15.0219
26.696	11.6937
26.78	10.4997
26.864	10.9575
26.948	12.4128
27.028	14.4263