File: Bakgrunnsmateriale/MATLAB/FTIR/ftir_data/LPE453/Mapping_121/LPE453_t29.asc
PE IR       SPECTRUM    SPECTRUM    ASCII       PEDS        1.60
  -1
LPEB9D~1.ASC
17/05/16
16:44:56.00
17/05/16
16:45:22.00
tln
$LPE453_t0029$<tbV0>[-2.6,-7.8,8.0,0.0,27,1,0]
27.028
64

2002,4.07
MIRTGS : RIGHTBACK : INTERNAL 2
MIR : ON : INTERNAL 2
OPTKBR

0.200000
8
8.000000
FILLER
RATIO
SPECTRUM
UNLOCKED 256

DOUBLE
64
COMBINED
1
0
0

0.002000
RATIO

1
0
TRUE
51149
0
LEFT NOT FITTED RIGHT NOT FITTED 0
NONE
NONE
15600
12
4.427000
51148
TRUE
1 0 8 72 0 0 0 0

15798

#HDR
-1
-1
#GR
µM
%T
2.38419e-05
0.0
2.000000
0.002000
12515
8
35.6912
-5.601680
#DATA
2.000000	 0.752615
2.084000	 0.155491
2.168000	 0.606664
2.252000	 -0.681925
2.336000	 -0.181497
2.420000	 0.246279
2.504000	 0.070578
2.588000	 0.063350
2.672000	 0.034368
2.756000	 0.153417
2.840000	 0.058868
2.924000	 0.099361
3.008000	 -0.000167
3.092000	 0.183313
3.176000	 0.038819
3.260000	 -0.158900
3.344000	 0.018894
3.428000	 0.008711
3.512000	 0.117186
3.596000	 0.038105
3.680000	 0.101672
3.764000	 0.083992
3.848000	 0.068778
3.932000	 0.036021
4.016000	 0.116193
4.100000	 0.084344
4.184000	 -0.132728
4.268000	 0.151237
4.352000	 0.553082
4.436000	 1.375960
4.520000	 3.216846
4.604000	 6.630669
4.688000	 11.03
4.772000	 15.8606
4.856000	 20.3685
4.940000	 24.2383
5.024000	 27.2095
5.108000	 29.6103
5.192000	 31.1809
5.276000	 32.4902
5.359999	 33.2708
5.444000	 34.0157
5.528000	 34.5132
5.612000	 34.7937
5.696000	 34.9729
5.780000	 35.0815
5.864000	 35.2803
5.948000	 35.5031
6.032000	 35.5185
6.116000	 35.6525
6.200000	 35.4875
6.284000	 35.61
6.368000	 35.5447
6.452000	 35.4632
6.536000	 35.5125
6.620000	 35.6023
6.704000	 35.5161
6.788000	 35.4726
6.872000	 35.3967
6.956000	 35.5587
7.040000	 35.4029
7.124000	 35.4049
7.208000	 35.5062
7.292000	 35.2948
7.376000	 35.2382
7.460000	 35.3383
7.544000	 35.2186
7.628000	 35.2561
7.712000	 35.0468
7.796000	 35.1133
7.880000	 35.0968
7.964000	 34.9306
8.048000	 34.885
8.132000	 35.1111
8.216000	 35.034
8.300000	 34.8324
8.384000	 34.9166
8.468000	 34.8126
8.552000	 34.8903
8.635999	 34.8302
8.719999	 34.6248
8.804000	 34.6556
8.888000	 34.6533
8.972000	 34.6987
9.056000	 34.8125
9.140000	 34.7468
9.224000	 34.3316
9.308000	 34.338
9.391999	 34.2338
9.475999	 34.4293
9.560000	 34.5153
9.644000	 34.1635
9.728000	 33.7927
9.812000	 33.7759
9.896000	 34.0592
9.980000	 34.2487
10.064	33.9191
10.148	33.8618
10.232	33.6114
10.316	33.4157
10.4	33.4055
10.484	33.6793
10.568	33.6776
10.652	33.8091
10.736	33.6203
10.82	33.26
10.904	32.9132
10.988	32.6253
11.072	32.6187
11.156	32.7143
11.24	32.9456
11.324	32.9676
11.408	32.9398
11.492	32.8125
11.576	32.437
11.66	32.109
11.744	32.2012
11.828	32.2405
11.912	32.2211
11.996	32.4571
12.08	32.439
12.164	32.0734
12.248	31.9091
12.332	31.8699
12.416	31.6679
12.5	31.3058
12.584	31.2239
12.668	31.2785
12.752	31.3314
12.836	31.4558
12.92	31.4926
13.004	31.6302
13.088	31.634
13.172	31.4404
13.256	31.404
13.34	31.2693
13.424	30.9209
13.508	30.6046
13.592	30.4372
13.676	30.5124
13.76	30.6667
13.844	30.7219
13.928	30.7485
14.012	30.746
14.096	30.6543
14.18	30.4868
14.264	30.3186
14.348	30.0767
14.432	29.8047
14.516	29.5979
14.6	29.4184
14.684	29.3261
14.768	29.3116
14.852	29.3258
14.936	29.5059
15.02	29.7616
15.104	29.8583
15.188	29.8302
15.272	29.759
15.356	29.6073
15.44	29.3295
15.524	29.0225
15.608	28.8603
15.692	28.8131
15.776	28.6272
15.86	28.2674
15.944	28.0446
16.028	28.085
16.112	28.152
16.196	28.0576
16.28	27.8708
16.364	27.777
16.448	27.8454
16.532	27.9206
16.616	27.9006
16.7	27.8975
16.784	27.9642
16.868	28.0005
16.952	27.8984
17.036	27.643
17.12	27.3496
17.204	27.1926
17.288	27.2223
17.372	27.3395
17.456	27.4205
17.54	27.3817
17.624	27.2271
17.708	27.048
17.792	26.913
17.876	26.8125
17.96	26.7494
18.044	26.7935
18.128	26.9777
18.212	27.2077
18.296	27.3303
18.38	27.2579
18.464	27.0214
18.548	26.7311
18.632	26.4942
18.716	26.3662
18.8	26.3399
18.884	26.3415
18.968	26.2607
19.052	26.0388
19.136	25.732
19.22	25.4683
19.304	25.3296
19.388	25.2939
19.472	25.2946
19.556	25.2861
19.64	25.256
19.724	25.2048
19.808	25.1378
19.892	25.0754
19.976	25.0587
20.06	25.1269
20.144	25.2679
20.228	25.3967
20.312	25.3965
20.396	25.2155
20.48	24.9286
20.564	24.6901
20.648	24.5966
20.732	24.6011
20.816	24.5694
20.9	24.4101
20.984	24.1412
21.068	23.8559
21.152	23.6431
21.236	23.5422
21.32	23.5449
21.404	23.6327
21.488	23.7925
21.572	23.9997
21.656	24.2008
21.74	24.3165
21.824	24.2859
21.908	24.1148
21.992	23.8823
22.076	23.7052
22.16	23.6751
22.244	23.8013
22.328	24.0281
22.412	24.2989
22.496	24.5989
22.58	24.9498
22.664	25.3591
22.748	25.7787
22.832	26.1187
22.916	26.2718
23	26.1462
23.084	25.6977
23.168	24.9641
23.252	24.0633
23.336	23.1669
23.42	22.4758
23.504	22.1394
23.588	22.1767
23.672	22.4746
23.756	22.8276
23.84	23.0308
23.924	22.9394
24.008	22.5024
24.092	21.7587
24.176	20.8085
24.26	19.8149
24.344	18.9975
24.428	18.5352
24.512	18.4957
24.596	18.7602
24.68	18.9942
24.764	18.7406
24.848	17.6313
24.932	15.5883
25.016	12.9571
25.1	10.4245
25.184	8.705193
25.268	8.202541
25.352	8.926321
25.436	10.4789
25.52	12.2166
25.604	13.5253
25.688	13.9833
25.772	13.5011
25.856	12.2887
25.94	10.7198
26.024	9.239455
26.108	8.221693
26.192	7.948587
26.276	8.511951
26.36	9.830179
26.444	11.4563
26.528	12.7911
26.612	13.1851
26.696	12.5664
26.78	11.6504
26.864	11.875
26.948	14.7662
27.028	20.7333