File: Bakgrunnsmateriale/MATLAB/FTIR/ftir_data/LPE453/Mapping_121/LPE453_t119_cm-1.asc
PE IR       SPECTRUM    SPECTRUM    ASCII       PEDS        1.60
  -1
LP0CFC~1.ASC
17/05/17
00:23:13.00
17/05/17
00:23:13.00
tln
$LPE453_t0119$<tbV0>[-7.8,13.0,8.0,0.0,27,1,0]
370
64

2002,4.07
MIRTGS : RIGHTBACK : INTERNAL 2
MIR : ON : INTERNAL 2
OPTKBR

0.200000
8
8.000000
FILLER
RATIO
SPECTRUM
UNLOCKED 256

DOUBLE
64
COMBINED
1
0
0

1.000000
RATIO

1
0
TRUE
51149
0
LEFT NOT FITTED RIGHT NOT FITTED 0
NONE
NONE
15600
12
4.427000
51148
TRUE
1 0 8 72 0 0 0 0

15798

#HDR
-1
-1
#GR
CM-1
%T
2.38419e-05
0.0
5000
-1.000000
4631
8
34.7155
-2.741217
#DATA
5000	0.275731
4984	-0.046277
4968	0.205540
4952	0.102734
4936	0.126409
4920	-0.046777
4904	-0.122022
4888	0.268936
4872	0.220251
4856	0.172710
4840	0.064420
4824	0.242304
4808	0.101757
4792	0.307607
4776	0.179791
4760	-0.247693
4744	-0.253963
4728	0.340604
4712	0.271272
4696	0.596404
4680	0.191855
4664	1.519489
4648	0.078868
4632	0.813961
4616	0.752639
4600	0.049448
4584	-0.304675
4568	-0.046205
4552	-0.887918
4536	-0.165295
4520	-0.961661
4504	7.775306
4488	14.5488
4472	-2.338790
4456	-1.554536
4440	-0.266122
4424	-0.468420
4408	0.653719
4392	0.770998
4376	0.857257
4360	0.672221
4344	0.848221
4328	0.470018
4312	0.214767
4296	0.438785
4280	0.209712
4264	-0.004959
4248	-0.046277
4232	-0.020742
4216	0.219607
4200	0.261950
4184	-0.037264
4168	0.175309
4152	0.232744
4136	0.432777
4120	0.301432
4104	0.205516
4088	0.083827
4072	0.095200
4056	0.090146
4040	0.009202
4024	0.043034
4008	0.076270
3992	-0.012755
3976	0.232791
3960	0.140643
3944	0.245285
3928	0.038409
3912	0.131344
3896	0.203347
3880	0.020813
3864	-0.049114
3848	0.265145
3832	-0.026178
3816	-0.098299
3800	0.132727
3784	0.006008
3768	0.138449
3752	0.225758
3736	0.211095
3720	0.032138
3704	-0.171327
3688	0.168156
3672	-0.073981
3656	0.157976
3640	0.005626
3624	0.111293
3608	-0.067710
3592	0.091123
3576	0.020742
3560	0.098276
3544	0.133037
3528	0.136208
3512	0.028777
3496	-0.111317
3480	0.248742
3464	-0.077700
3448	-0.046324
3432	0.068044
3416	-0.006747
3400	0.101590
3384	0.100350
3368	0.004482
3352	0.030255
3336	-0.027012
3320	0.048375
3304	0.030803
3288	0.032162
3272	0.103330
3256	0.204443
3240	0.046634
3224	-0.097298
3208	0.048899
3192	0.108885
3176	0.029778
3160	0.039339
3144	0.120520
3128	0.192236
3112	0.112390
3096	0.068545
3080	0.034737
3064	0.071454
3048	0.055146
3032	0.113821
3016	0.034832
3000	-0.113010
2984	0.137758
2968	0.088620
2952	-0.099992
2936	-0.110769
2920	0.097823
2904	0.059723
2888	0.061130
2872	0.040793
2856	0.087332
2840	-0.011849
2824	0.036740
2808	-0.078129
2792	0.106191
2776	0.047111
2760	-0.024485
2744	0.019168
2728	0.141024
2712	0.065255
2696	-0.062704
2680	0.014638
2664	0.023579
2648	-0.003838
2632	0.102591
2616	-0.046515
2600	0.050902
2584	0.216698
2568	0.045728
2552	0.030922
2536	0.005459
2520	0.082635
2504	0.008440
2488	-0.031852
2472	-0.000834
2456	-0.001478
2440	0.089359
2424	0.213003
2408	0.029206
2392	0.057649
2376	0.050663
2360	0.063323
2344	0.323462
2328	0.352549
2312	0.483703
2296	0.545978
2280	0.821900
2264	1.210212
2248	1.732444
2232	2.404737
2216	3.163313
2200	4.254055
2184	5.403089
2168	6.880640
2152	8.391976
2136	10.1637
2120	11.8837
2104	13.9211
2088	15.6337
2072	17.2202
2056	19.26
2040	20.7635
2024	22.257
2008	23.6332
1992	24.8448
1976	25.8632
1960	27.0913
1944	28.0721
1928	28.7632
1912	29.4049
1896	30.1257
1880	30.6472
1864	30.9578
1848	31.506
1832	32.0228
1816	32.3334
1800	32.4341
1784	32.9923
1768	33.1515
1752	33.0958
1736	33.3631
1720	33.8091
1704	33.8014
1688	33.8259
1672	34.0245
1656	34.3143
1640	34.1063
1624	34.1119
1608	34.4231
1592	34.4756
1576	34.2173
1560	34.4226
1544	34.7048
1528	34.5687
1512	34.3249
1496	34.4147
1480	34.5277
1464	34.3692
1448	34.3653
1432	34.4377
1416	34.3895
1400	34.1277
1384	34.0484
1368	34.3388
1352	34.1954
1336	33.7221
1320	33.9538
1304	34.1518
1288	33.7979
1272	33.549
1256	33.57
1240	33.8093
1224	33.3727
1208	33.2262
1192	33.4758
1176	33.4106
1160	32.917
1144	32.8872
1128	33.0297
1112	32.8388
1096	32.3674
1080	32.5931
1064	32.6171
1048	32.2021
1032	32.0039
1016	32.0608
1000	32.1026
984	 31.7682
968	 31.4134
952	 31.3602
936	 31.7341
920	 31.0414
904	 30.502
888	 30.5989
872	 30.7442
856	 30.2572
840	 29.8448
824	 29.9739
808	 29.8784
792	 29.3049
776	 28.9994
760	 29.3633
744	 28.8587
728	 28.3553
712	 28.3148
696	 28.4769
680	 27.9346
664	 27.2293
648	 27.3996
632	 27.2102
616	 26.6549
600	 25.8926
584	 25.9441
568	 25.9705
552	 25.227
536	 24.8122
520	 24.6308
504	 24.0867
488	 22.687
472	 23.3039
456	 22.2805
440	 22.4315
424	 20.7708
408	 15.7244
392	 24.876
376	 15.2276
370	 14.5922