File: Bakgrunnsmateriale/MATLAB/FTIR/ftir_data/LPE453/Mapping_121/LPE453_t97.asc
PE IR       SPECTRUM    SPECTRUM    ASCII       PEDS        1.60
  -1
LPD7B5~1.ASC
17/05/16
22:20:30.00
17/05/16
22:20:56.00
tln
$LPE453_t0097$<tbV0>[-7.8,7.8,8.0,0.0,27,1,0]
27.028
64

2002,4.07
MIRTGS : RIGHTBACK : INTERNAL 2
MIR : ON : INTERNAL 2
OPTKBR

0.200000
8
8.000000
FILLER
RATIO
SPECTRUM
UNLOCKED 256

DOUBLE
64
COMBINED
1
0
0

0.002000
RATIO

1
0
TRUE
51149
0
LEFT NOT FITTED RIGHT NOT FITTED 0
NONE
NONE
15600
12
4.427000
51148
TRUE
1 0 8 72 0 0 0 0

15798

#HDR
-1
-1
#GR
µM
%T
2.38419e-05
0.0
2.000000
0.002000
12515
8
36.8799
-11.6681
#DATA
2.000000	 -0.334215
2.084000	 0.419189
2.168000	 -0.021535
2.252000	 0.523644
2.336000	 0.387510
2.420000	 0.097975
2.504000	 -0.080366
2.588000	 -0.022737
2.672000	 0.174863
2.756000	 0.018974
2.840000	 0.079308
2.924000	 0.067258
3.008000	 0.147942
3.092000	 0.037859
3.176000	 0.085154
3.260000	 0.249453
3.344000	 0.027258
3.428000	 0.097045
3.512000	 0.107291
3.596000	 -0.043157
3.680000	 0.005385
3.764000	 -0.033669
3.848000	 0.036919
3.932000	 0.024783
4.016000	 -0.050925
4.100000	 -0.031128
4.184000	 0.074988
4.268000	 0.318119
4.352000	 0.995021
4.436000	 2.191183
4.520000	 4.614771
4.604000	 8.319310
4.688000	 13.1416
4.772000	 17.8897
4.856000	 22.409
4.940000	 26.3364
5.024000	 28.671
5.108000	 31.3614
5.192000	 32.4399
5.276000	 33.7584
5.359999	 34.3845
5.444000	 35.3379
5.528000	 35.2108
5.612000	 36.1304
5.696000	 35.5234
5.780000	 36.5259
5.864000	 35.8328
5.948000	 36.3199
6.032000	 36.6282
6.116000	 35.799
6.200000	 36.7245
6.284000	 36.5088
6.368000	 35.7548
6.452000	 36.7651
6.536000	 36.3728
6.620000	 35.7878
6.704000	 36.542
6.788000	 36.6149
6.872000	 35.7451
6.956000	 35.9852
7.040000	 36.686
7.124000	 36.0347
7.208000	 35.576
7.292000	 36.137
7.376000	 36.6749
7.460000	 35.9777
7.544000	 35.4135
7.628000	 35.9778
7.712000	 36.6162
7.796000	 36.2354
7.880000	 35.3857
7.964000	 35.4311
8.048000	 36.1875
8.132000	 36.5578
8.216000	 35.9113
8.300000	 35.215
8.384000	 35.2037
8.468000	 35.9366
8.552000	 36.3026
8.635999	 35.9966
8.719999	 35.3572
8.804000	 35.0492
8.888000	 35.4718
8.972000	 35.8959
9.056000	 36.2648
9.140000	 35.9668
9.224000	 35.04
9.308000	 34.8026
9.391999	 34.9753
9.475999	 35.4369
9.560000	 35.8404
9.644000	 36.0596
9.728000	 35.5049
9.812000	 34.7521
9.896000	 34.4155
9.980000	 34.5933
10.064	35.0984
10.148	35.5162
10.232	35.6418
10.316	35.4261
10.4	34.9176
10.484	34.3188
10.568	34.0751
10.652	34.3287
10.736	34.756
10.82	35.023
10.904	35.1993
10.988	35.0689
11.072	34.5575
11.156	34.2546
11.24	33.7069
11.324	33.4698
11.408	33.7334
11.492	33.8814
11.576	34.3267
11.66	34.6685
11.744	34.8334
11.828	34.6581
11.912	34.2098
11.996	33.6864
12.08	33.313
12.164	33.0757
12.248	33.0659
12.332	33.3042
12.416	33.3988
12.5	33.7058
12.584	34.0377
12.668	34.2085
12.752	34.1921
12.836	33.8867
12.92	33.2924
13.004	32.7675
13.088	32.3955
13.172	32.1459
13.256	32.1485
13.34	32.2554
13.424	32.4207
13.508	32.6903
13.592	33.0386
13.676	33.3062
13.76	33.3361
13.844	33.2154
13.928	33.0141
14.012	32.7319
14.096	32.3707
14.18	32.0222
14.264	31.764
14.348	31.5018
14.432	31.2451
14.516	31.1521
14.6	31.29
14.684	31.5178
14.768	31.6823
14.852	31.7654
14.936	31.817
15.02	31.913
15.104	31.9877
15.188	31.8801
15.272	31.631
15.356	31.4452
15.44	31.3564
15.524	31.1433
15.608	30.7538
15.692	30.4364
15.776	30.2023
15.86	29.9198
15.944	29.7538
16.028	29.8258
16.112	29.986
16.196	30.1597
16.28	30.3728
16.364	30.5712
16.448	30.7227
16.532	30.9035
16.616	31.1398
16.7	31.3064
16.784	31.2456
16.868	30.9335
16.952	30.516
17.036	30.1729
17.12	29.9539
17.204	29.7725
17.288	29.5356
17.372	29.227
17.456	28.9249
17.54	28.7599
17.624	28.7767
17.708	28.8464
17.792	28.8119
17.876	28.6725
17.96	28.5552
18.044	28.5558
18.128	28.6985
18.212	28.9707
18.296	29.2997
18.38	29.5585
18.464	29.6855
18.548	29.7582
18.632	29.8645
18.716	29.9469
18.8	29.855
18.884	29.5445
18.968	29.1434
19.052	28.8191
19.136	28.6245
19.22	28.5002
19.304	28.3749
19.388	28.2274
19.472	28.0672
19.556	27.9106
19.64	27.7759
19.724	27.6744
19.808	27.5918
19.892	27.494
19.976	27.359
20.06	27.2048
20.144	27.0861
20.228	27.068
20.312	27.196
20.396	27.4743
20.48	27.8463
20.564	28.2033
20.648	28.4275
20.732	28.4542
20.816	28.3038
20.9	28.0688
20.984	27.8617
21.068	27.754
21.152	27.7386
21.236	27.7373
21.32	27.6572
21.404	27.4518
21.488	27.158
21.572	26.8755
21.656	26.7028
21.74	26.68
21.824	26.7707
21.908	26.8871
21.992	26.9428
22.076	26.891
22.16	26.7384
22.244	26.5283
22.328	26.3033
22.412	26.0764
22.496	25.8273
22.58	25.5308
22.664	25.1951
22.748	24.8912
22.832	24.7205
22.916	24.76
23	25.0057
23.084	25.3693
23.168	25.7147
23.252	25.9484
23.336	26.0573
23.42	26.1211
23.504	26.2289
23.588	26.406
23.672	26.5941
23.756	26.6823
23.84	26.6015
23.924	26.3915
24.008	26.1755
24.092	26.0786
24.176	26.1457
24.26	26.2977
24.344	26.3655
24.428	26.2064
24.512	25.7927
24.596	25.2391
24.68	24.7136
24.764	24.3166
24.848	24.0098
24.932	23.6364
25.016	23.0223
25.1	22.1023
25.184	20.919
25.268	19.6307
25.352	18.4709
25.436	17.7003
25.52	17.5114
25.604	17.969
25.688	18.999
25.772	20.3371
25.856	21.5807
25.94	22.3596
26.024	22.4478
26.108	21.8527
26.192	20.7741
26.276	19.5344
26.36	18.5092
26.444	17.9565
26.528	17.9599
26.612	18.4321
26.696	19.2437
26.78	20.2997
26.864	21.6852
26.948	23.6277
27.028	26.1805