File: Bakgrunnsmateriale/MATLAB/FTIR/ftir_data/LPE453/Mapping_121/LPE453_t31_cm-1.asc
PE IR       SPECTRUM    SPECTRUM    ASCII       PEDS        1.60
  -1
LPD8D5~1.ASC
17/05/16
16:54:09.00
17/05/16
16:54:09.00
tln
$LPE453_t0031$<tbV0>[-7.8,-7.8,8.0,0.0,27,1,0]
370
64

2002,4.07
MIRTGS : RIGHTBACK : INTERNAL 2
MIR : ON : INTERNAL 2
OPTKBR

0.200000
8
8.000000
FILLER
RATIO
SPECTRUM
UNLOCKED 256

DOUBLE
64
COMBINED
1
0
0

1.000000
RATIO

1
0
TRUE
51149
0
LEFT NOT FITTED RIGHT NOT FITTED 0
NONE
NONE
15600
12
4.427000
51148
TRUE
1 0 8 72 0 0 0 0

15798

#HDR
-1
-1
#GR
CM-1
%T
2.38419e-05
0.0
5000
-1.000000
4631
8
37.3159
-0.907278
#DATA
5000	0.082755
4984	0.406885
4968	-0.052595
4952	0.044679
4936	0.077223
4920	0.320005
4904	-0.107836
4888	0.409650
4872	-0.166559
4856	0.360536
4840	-0.143146
4824	0.162863
4808	0.117826
4792	0.791406
4776	0.233840
4760	0.156998
4744	0.281429
4728	0.332188
4712	-0.241994
4696	0.270938
4680	0.283408
4664	0.433993
4648	0.159001
4632	0.626873
4616	0.645232
4600	0.155115
4584	0.764942
4568	1.238417
4552	-0.737476
4536	2.474641
4520	-0.454545
4504	5.209493
4488	-0.315022
4472	-0.869464
4456	0.332546
4440	0.445675
4424	0.447392
4408	0.698328
4392	0.139665
4376	0.416755
4360	0.473165
4344	-0.227999
4328	0.099921
4312	0.192117
4296	-0.069665
4280	-0.057768
4264	0.023627
4248	0.151515
4232	0.128698
4216	0.275540
4200	0.426197
4184	0.256276
4168	0.331640
4152	-0.021624
4136	0.138378
4120	0.077295
4104	-0.152492
4088	-0.092244
4072	0.218152
4056	-0.100231
4040	0.104427
4024	0.083136
4008	0.250864
3992	-0.052881
3976	0.086379
3960	0.236821
3944	0.025367
3928	0.071454
3912	0.109577
3896	0.234818
3880	-0.053215
3864	0.056481
3848	0.024032
3832	0.141382
3816	0.263547
3800	0.043678
3784	0.002646
3768	0.047731
3752	0.014543
3736	-0.069499
3720	0.050687
3704	0.090217
3688	0.091695
3672	0.090527
3656	0.065588
3640	-0.072669
3624	-0.035786
3608	-0.036883
3592	-0.047278
3576	0.039339
3560	0.133943
3544	-0.068616
3528	0.096869
3512	-0.025343
3496	0.073266
3480	0.213837
3464	-0.210976
3448	0.052785
3432	0.198769
3416	0.084757
3400	-0.029349
3384	0.156378
3368	-0.023198
3352	0.076389
3336	-0.015115
3320	0.138187
3304	-0.055718
3288	0.025296
3272	-0.010633
3256	0.089573
3240	-0.053262
3224	0.049734
3208	-0.037646
3192	0.173735
3176	0.029349
3160	0.032353
3144	-0.026345
3128	-0.036716
3112	0.088024
3096	0.060033
3080	0.054836
3064	-0.003004
3048	-0.136017
3032	0.016522
3016	0.096940
3000	0.089335
2984	0.183033
2968	-0.059080
2952	-0.044107
2936	0.080609
2920	-0.058984
2904	0.143194
2888	0.073003
2872	0.070929
2856	-0.058722
2840	0.022006
2824	-0.018286
2808	-0.000214
2792	-0.006580
2776	0.143003
2760	0.062966
2744	-0.017690
2728	-0.005650
2712	-0.010061
2696	0.067615
2680	0.037980
2664	-0.041508
2648	0.064516
2632	0.029873
2616	-0.024652
2600	-0.048327
2584	0.034427
2568	0.071215
2552	0.065445
2536	0.067877
2520	-0.102305
2504	0.207495
2488	0.023722
2472	0.062012
2456	0.009179
2440	0.039887
2424	0.296401
2408	-0.330471
2392	0.187516
2376	0.155258
2360	0.229120
2344	0.434637
2328	0.607609
2312	0.768613
2296	1.040410
2280	1.433706
2264	1.960277
2248	2.852368
2232	3.758430
2216	4.836487
2200	6.284737
2184	7.814478
2168	9.630775
2152	11.4553
2136	13.7271
2120	15.8149
2104	17.9851
2088	19.9018
2072	22.1449
2056	23.883
2040	25.5134
2024	27.0721
2008	28.536
1992	29.6226
1976	30.7146
1960	31.6602
1944	32.5661
1928	33.1796
1912	33.7127
1896	34.3807
1880	34.7107
1864	35.1166
1848	35.3286
1832	35.8565
1816	36.0864
1800	36.0222
1784	36.144
1768	36.4005
1752	36.6315
1736	36.5376
1720	36.7592
1704	36.8046
1688	36.8188
1672	36.6112
1656	36.8879
1640	37.0939
1624	37.012
1608	36.6991
1592	36.9939
1576	37.0582
1560	36.8918
1544	36.7875
1528	36.9135
1512	37.228
1496	36.9368
1480	36.7933
1464	37.0958
1448	37.2981
1432	36.8213
1416	36.6852
1400	36.9048
1384	37.1826
1368	36.7456
1352	36.4656
1336	36.8713
1320	37.0214
1304	36.7007
1288	36.3904
1272	36.8624
1256	37.1099
1240	36.5184
1224	36.2604
1208	36.6087
1192	36.9888
1176	36.6491
1160	36.0266
1144	36.4903
1128	36.8491
1112	36.2125
1096	35.9105
1080	36.2504
1064	36.8277
1048	36.1631
1032	35.6296
1016	36.2363
1000	36.5953
984	 35.914
968	 35.3387
952	 35.9605
936	 36.2487
920	 35.9552
904	 35.0121
888	 35.2528
872	 36.0388
856	 35.2438
840	 34.3946
824	 34.5623
808	 34.9552
792	 34.6107
776	 33.8792
760	 33.9982
744	 34.4368
728	 33.9489
712	 32.9312
696	 32.7805
680	 33.5482
664	 33.2908
648	 32.1703
632	 31.9801
616	 32.5921
600	 31.6826
584	 31.0466
568	 31.0237
552	 30.6545
536	 30.7961
520	 29.2318
504	 28.5316
488	 28.9131
472	 28.906
456	 26.5449
440	 28.1048
424	 27.2248
408	 27.0922
392	 12.9011
376	 10.4683
370	 8.088564