File: Bakgrunnsmateriale/MATLAB/FTIR/ftir_data/LPE453/Mapping_121/LPE453_t36_cm-1.asc
PE IR       SPECTRUM    SPECTRUM    ASCII       PEDS        1.60
  -1
LPE85A~1.ASC
17/05/16
17:17:50.00
17/05/16
17:17:50.00
tln
$LPE453_t0036$<tbV0>[7.8,-5.2,8.0,0.0,27,1,0]
370
64

2002,4.07
MIRTGS : RIGHTBACK : INTERNAL 2
MIR : ON : INTERNAL 2
OPTKBR

0.200000
8
8.000000
FILLER
RATIO
SPECTRUM
UNLOCKED 256

DOUBLE
64
COMBINED
1
0
0

1.000000
RATIO

1
0
TRUE
51149
0
LEFT NOT FITTED RIGHT NOT FITTED 0
NONE
NONE
15600
12
4.427000
51148
TRUE
1 0 8 72 0 0 0 0

15798

#HDR
-1
-1
#GR
CM-1
%T
2.38419e-05
0.0
5000
-1.000000
4631
8
32.3275
-10.628
#DATA
5000	0.272011
4984	0.051069
4968	0.018191
4952	0.178122
4936	0.156521
4920	-0.230598
4904	-0.194597
4888	0.440955
4872	0.083994
4856	-0.035524
4840	0.398135
4824	-0.129914
4808	0.181007
4792	0.321888
4776	-0.137209
4760	0.268459
4744	0.037312
4728	0.076055
4712	0.303673
4696	0.008153
4680	0.785493
4664	0.406718
4648	0.668478
4632	0.545811
4616	0.645494
4600	0.560021
4584	0.109791
4568	-0.763940
4552	-1.174569
4536	-1.660895
4520	18.8865
4504	0.336813
4488	-0.151491
4472	-0.863957
4456	-1.121139
4440	-0.699734
4424	0.003504
4408	0.463533
4392	0.710368
4376	0.605225
4360	0.459146
4344	0.304841
4328	0.382590
4312	-0.005078
4296	-0.038909
4280	0.084304
4264	0.136184
4248	0.392723
4232	0.258970
4216	0.156021
4200	0.358080
4184	0.135517
4168	-0.194430
4152	0.050640
4136	0.048899
4120	0.220441
4104	-0.076699
4088	-0.167417
4072	0.279402
4056	0.015974
4040	0.029563
4024	0.119709
4008	0.151443
3992	0.162553
3976	0.136280
3960	0.248289
3944	0.282907
3928	0.292015
3912	0.017285
3896	0.086426
3880	0.124144
3864	-0.014901
3848	0.135159
3832	0.203776
3816	-0.150108
3800	0.164270
3784	0.207138
3768	0.177693
3752	0.189018
3736	0.048899
3720	0.089597
3704	0.064349
3688	0.114011
3672	0.208520
3656	-0.037217
3640	0.001668
3624	0.094676
3608	-0.020623
3592	0.063800
3576	0.021600
3560	0.035381
3544	0.008916
3528	-0.004243
3512	-0.000977
3496	0.113105
3480	0.237870
3464	0.178122
3448	0.042390
3432	0.060415
3416	0.138807
3400	0.021982
3384	0.094294
3368	0.047349
3352	-0.045251
3336	0.056219
3320	0.134396
3304	0.089335
3288	0.028514
3272	-0.059866
3256	0.004410
3240	0.105619
3224	0.042152
3208	0.025272
3192	0.100350
3176	-0.049233
3160	0.161695
3144	0.218749
3128	-0.014209
3112	0.105953
3096	-0.006079
3080	-0.055003
3064	0.025343
3048	-0.075244
3032	0.027251
3016	0.062227
3000	0.149941
2984	0.091981
2968	0.109052
2952	0.167441
2936	-0.002169
2920	0.125885
2904	0.169897
2888	0.018358
2872	0.111389
2856	0.166630
2840	0.115489
2824	0.051283
2808	-0.005912
2792	-0.028252
2776	-0.005698
2760	0.096821
2744	-0.097298
2728	0.031113
2712	-0.041103
2696	0.063514
2680	0.068664
2664	0.014424
2648	-0.029110
2632	-0.051403
2616	0.038027
2600	0.078701
2584	0.017333
2568	0.006484
2552	0.067090
2536	-0.008654
2520	-0.010132
2504	0.143742
2488	0.159072
2472	0.005125
2456	-0.021028
2440	0.085949
2424	-0.022935
2408	0.071501
2392	0.043249
2376	-0.017070
2360	0.071382
2344	0.029659
2328	0.014853
2312	-0.010681
2296	-0.038933
2280	-0.062322
2264	0.089240
2248	0.083184
2232	0.200223
2216	0.278139
2200	0.673699
2184	1.027607
2168	1.542639
2152	2.097964
2136	2.868676
2120	3.942418
2104	4.907298
2088	6.095600
2072	7.352519
2056	8.769178
2040	10.166
2024	11.485
2008	12.5963
1992	13.7627
1976	14.9797
1960	15.9224
1944	16.8411
1928	17.442
1912	18.2659
1896	18.9031
1880	19.4045
1864	19.9029
1848	20.3464
1832	20.5863
1816	20.9742
1800	21.2441
1784	21.4925
1768	21.5706
1752	21.7014
1736	21.8689
1720	21.9039
1704	22.1693
1688	22.2358
1672	22.1118
1656	22.1888
1640	22.273
1624	22.0916
1608	22.2245
1592	22.2245
1576	22.093
1560	22.0648
1544	22.0707
1528	22.1745
1512	22.07
1496	22.0737
1480	21.977
1464	21.9466
1448	21.8049
1432	21.7758
1416	21.714
1400	21.6414
1384	21.7116
1368	21.6676
1352	21.417
1336	21.6043
1320	21.6352
1304	21.3842
1288	21.3075
1272	21.1444
1256	21.3083
1240	21.2215
1224	21.1808
1208	21.0138
1192	20.9285
1176	20.8826
1160	20.7506
1144	20.6498
1128	20.435
1112	20.5084
1096	20.3883
1080	20.3419
1064	20.0142
1048	19.9935
1032	19.6283
1016	19.5881
1000	19.3717
984	 19.2643
968	 19.093
952	 18.7649
936	 18.6053
920	 18.4871
904	 18.2458
888	 17.8947
872	 17.7262
856	 17.3964
840	 17.101
824	 17.2291
808	 16.9569
792	 16.5078
776	 16.0856
760	 15.8886
744	 15.2448
728	 15.2292
712	 14.8026
696	 14.5271
680	 14.155
664	 13.6174
648	 13.5937
632	 13.2292
616	 13.1408
600	 12.0134
584	 12.3903
568	 12.1255
552	 10.7892
536	 11.7058
520	 11.1125
504	 10.4978
488	 9.955167
472	 9.334301
456	 10.9834
440	 8.491420
424	 8.485102
408	 8.903908
392	 -10.341
376	 -1.504659
370	 7.444787