File: Bakgrunnsmateriale/MATLAB/FTIR/ftir_data/LPE453/Mapping_121/LPE453_t63.asc
PE IR       SPECTRUM    SPECTRUM    ASCII       PEDS        1.60
  -1
LPCBA5~1.ASC
17/05/16
19:29:54.00
17/05/16
19:30:20.00
tln
$LPE453_t0063$<tbV0>[-5.2,0.0,8.0,0.0,27,1,0]
27.028
64

2002,4.07
MIRTGS : RIGHTBACK : INTERNAL 2
MIR : ON : INTERNAL 2
OPTKBR

0.200000
8
8.000000
FILLER
RATIO
SPECTRUM
UNLOCKED 256

DOUBLE
64
COMBINED
1
0
0

0.002000
RATIO

1
0
TRUE
51149
0
LEFT NOT FITTED RIGHT NOT FITTED 0
NONE
NONE
15600
12
4.427000
51148
TRUE
1 0 8 72 0 0 0 0

15798

#HDR
-1
-1
#GR
µM
%T
2.38419e-05
0.0
2.000000
0.002000
12515
8
49.1889
-1.451560
#DATA
2.000000	 -0.086164
2.084000	 -0.145342
2.168000	 0.609013
2.252000	 -1.300471
2.336000	 0.169230
2.420000	 0.133125
2.504000	 0.083603
2.588000	 -0.016105
2.672000	 0.128232
2.756000	 -0.004657
2.840000	 0.130343
2.924000	 0.143833
3.008000	 0.219502
3.092000	 -0.029684
3.176000	 0.051860
3.260000	 0.058260
3.344000	 -0.128980
3.428000	 0.104605
3.512000	 0.102438
3.596000	 -0.124578
3.680000	 0.039872
3.764000	 0.142720
3.848000	 0.071330
3.932000	 -0.002083
4.016000	 0.035588
4.100000	 0.075513
4.184000	 0.047994
4.268000	 0.032409
4.352000	 0.246897
4.436000	 0.992521
4.520000	 2.577091
4.604000	 5.355517
4.688000	 9.431917
4.772000	 13.9723
4.856000	 18.1891
4.940000	 22.1898
5.024000	 25.0365
5.108000	 27.4837
5.192000	 29.0387
5.276000	 30.2881
5.359999	 31.3687
5.444000	 31.8927
5.528000	 32.3504
5.612000	 32.7444
5.696000	 32.824
5.780000	 33.1023
5.864000	 33.1279
5.948000	 33.2991
6.032000	 33.1628
6.116000	 33.3385
6.200000	 33.411
6.284000	 33.0972
6.368000	 33.3613
6.452000	 33.0693
6.536000	 33.2879
6.620000	 33.2153
6.704000	 33.0833
6.788000	 33.2866
6.872000	 32.9375
6.956000	 32.9084
7.040000	 33.2788
7.124000	 32.8513
7.208000	 32.6695
7.292000	 33.0478
7.376000	 32.6313
7.460000	 32.4338
7.544000	 32.7266
7.628000	 32.6456
7.712000	 32.155
7.796000	 32.2795
7.880000	 32.6286
7.964000	 32.2017
8.048000	 31.9216
8.132000	 32.2661
8.216000	 32.3754
8.300000	 32.0833
8.384000	 31.6274
8.468000	 31.8704
8.552000	 32.3309
8.635999	 32.1918
8.719999	 31.5638
8.804000	 31.4206
8.888000	 31.8293
8.972000	 32.0614
9.056000	 31.9159
9.140000	 31.0417
9.224000	 31.3564
9.308000	 31.3613
9.391999	 31.6642
9.475999	 31.3952
9.560000	 30.9833
9.644000	 30.7185
9.728000	 30.9391
9.812000	 31.0913
9.896000	 31.1003
9.980000	 31.181
10.064	30.5586
10.148	30.1145
10.232	30.2038
10.316	30.4858
10.4	30.6774
10.484	30.4842
10.568	30.1468
10.652	29.8742
10.736	29.8557
10.82	29.846
10.904	29.9126
10.988	29.9803
11.072	29.6607
11.156	29.6501
11.24	29.3756
11.324	29.032
11.408	28.7431
11.492	28.9771
11.576	29.2739
11.66	29.4959
11.744	29.4063
11.828	29.1018
11.912	28.7845
11.996	28.2094
12.08	27.9022
12.164	27.9738
12.248	28.1832
12.332	28.3103
12.416	28.663
12.5	28.8116
12.584	28.5096
12.668	27.743
12.752	27.2427
12.836	27.3508
12.92	27.5031
13.004	27.4159
13.088	27.411
13.172	27.5952
13.256	28.098
13.34	28.2099
13.424	27.813
13.508	27.4243
13.592	26.9956
13.676	26.7127
13.76	26.5365
13.844	26.2396
13.928	26.2206
14.012	26.4764
14.096	26.6716
14.18	26.7553
14.264	26.649
14.348	26.4425
14.432	26.2968
14.516	26.0908
14.6	25.8149
14.684	25.562
14.768	25.3456
14.852	25.2649
14.936	25.4058
15.02	25.6569
15.104	25.7619
15.188	25.6644
15.272	25.5663
15.356	25.5697
15.44	25.5596
15.524	25.4428
15.608	25.2801
15.692	25.0948
15.776	24.8294
15.86	24.5295
15.944	24.2778
16.028	24.1176
16.112	24.0518
16.196	24.0182
16.28	24.0315
16.364	24.2324
16.448	24.6194
16.532	24.9137
16.616	24.8416
16.7	24.4628
16.784	24.0981
16.868	23.9577
16.952	23.9723
17.036	23.9529
17.12	23.7749
17.204	23.443
17.288	23.1038
17.372	22.9021
17.456	22.8121
17.54	22.711
17.624	22.583
17.708	22.5209
17.792	22.5644
17.876	22.6237
17.96	22.5683
18.044	22.3844
18.128	22.2541
18.212	22.3709
18.296	22.6781
18.38	22.8839
18.464	22.7785
18.548	22.4551
18.632	22.1621
18.716	22.0253
18.8	21.9841
18.884	21.9313
18.968	21.843
19.052	21.7602
19.136	21.6861
19.22	21.5809
19.304	21.4534
19.388	21.3812
19.472	21.3977
19.556	21.4156
19.64	21.3162
19.724	21.0987
19.808	20.8992
19.892	20.8515
19.976	20.9688
20.06	21.1688
20.144	21.3773
20.228	21.569
20.312	21.7148
20.396	21.7444
20.48	21.5931
20.564	21.2881
20.648	20.9559
20.732	20.7377
20.816	20.6807
20.9	20.7106
20.984	20.7063
21.068	20.5855
21.152	20.3348
21.236	19.9896
21.32	19.5964
21.404	19.2022
21.488	18.8606
21.572	18.6294
21.656	18.5615
21.74	18.6809
21.824	18.9619
21.908	19.317
21.992	19.6132
22.076	19.7177
22.16	19.5581
22.244	19.1896
22.328	18.7745
22.412	18.5012
22.496	18.493
22.58	18.7312
22.664	19.0917
22.748	19.4152
22.832	19.5919
22.916	19.6049
23	19.5127
23.084	19.3871
23.168	19.2765
23.252	19.1657
23.336	18.9731
23.42	18.6458
23.504	18.1527
23.588	17.5354
23.672	16.9205
23.756	16.4995
23.84	16.4537
23.924	16.8944
24.008	17.8371
24.092	19.2062
24.176	20.8467
24.26	22.5337
24.344	24.031
24.428	25.1713
24.512	25.8074
24.596	25.8819
24.68	25.2681
24.764	23.7022
24.848	20.9086
24.932	16.8315
25.016	11.8639
25.1	6.828891
25.184	2.800989
25.268	0.625486
25.352	0.575727
25.436	2.314441
25.52	4.991156
25.604	7.614343
25.688	9.323731
25.772	9.742196
25.856	9.106355
25.94	8.181978
26.024	8.092309
26.108	9.889461
26.192	14.1321
26.276	20.6595
26.36	28.5825
26.444	36.5451
26.528	43.1664
26.612	47.5054
26.696	49.168
26.78	48.3561
26.864	45.7175
26.948	42.066
27.028	38.3532