File: Bakgrunnsmateriale/MATLAB/FTIR/ftir_data/LPE453/Mapping_121/LPE453_t74.asc
PE IR       SPECTRUM    SPECTRUM    ASCII       PEDS        1.60
  -1
LPDFA9~1.ASC
17/05/16
20:27:21.00
17/05/16
20:27:47.00
tln
$LPE453_t0074$<tbV0>[-5.2,2.6,8.0,0.0,27,1,0]
27.028
64

2002,4.07
MIRTGS : RIGHTBACK : INTERNAL 2
MIR : ON : INTERNAL 2
OPTKBR

0.200000
8
8.000000
FILLER
RATIO
SPECTRUM
UNLOCKED 256

DOUBLE
64
COMBINED
1
0
0

0.002000
RATIO

1
0
TRUE
51149
0
LEFT NOT FITTED RIGHT NOT FITTED 0
NONE
NONE
15600
12
4.427000
51148
TRUE
1 0 8 72 0 0 0 0

15798

#HDR
-1
-1
#GR
µM
%T
2.38419e-05
0.0
2.000000
0.002000
12515
8
41.5278
-3.379224
#DATA
2.000000	 -0.005245
2.084000	 0.045936
2.168000	 0.668783
2.252000	 -1.044683
2.336000	 0.683229
2.420000	 0.484954
2.504000	 0.128269
2.588000	 -0.144629
2.672000	 0.083979
2.756000	 0.036584
2.840000	 -0.010397
2.924000	 0.046886
3.008000	 0.151871
3.092000	 0.122976
3.176000	 0.004333
3.260000	 0.108688
3.344000	 0.112100
3.428000	 0.118924
3.512000	 -0.029482
3.596000	 0.081111
3.680000	 0.026677
3.764000	 0.016100
3.848000	 0.093408
3.932000	 0.109159
4.016000	 0.021636
4.100000	 0.071243
4.184000	 0.155332
4.268000	 0.154629
4.352000	 0.521571
4.436000	 1.249501
4.520000	 3.289742
4.604000	 6.534965
4.688000	 10.93
4.772000	 15.5771
4.856000	 20.0356
4.940000	 23.8739
5.024000	 26.8117
5.108000	 28.7641
5.192000	 30.5542
5.276000	 31.7359
5.359999	 32.577
5.444000	 33.2766
5.528000	 33.6752
5.612000	 34.0195
5.696000	 34.1603
5.780000	 34.2183
5.864000	 34.3307
5.948000	 34.4439
6.032000	 34.4707
6.116000	 34.6815
6.200000	 34.2824
6.284000	 34.5654
6.368000	 34.368
6.452000	 34.2754
6.536000	 34.5136
6.620000	 34.2607
6.704000	 34.3259
6.788000	 34.2994
6.872000	 33.8123
6.956000	 34.2059
7.040000	 34.2294
7.124000	 33.7198
7.208000	 33.9734
7.292000	 34.0805
7.376000	 33.7487
7.460000	 33.5196
7.544000	 33.9144
7.628000	 33.7847
7.712000	 33.2701
7.796000	 33.4965
7.880000	 33.8633
7.964000	 33.6001
8.048000	 33.2228
8.132000	 33.2601
8.216000	 33.5728
8.300000	 33.4425
8.384000	 32.9972
8.468000	 33.0026
8.552000	 33.1808
8.635999	 33.3815
8.719999	 32.829
8.804000	 32.5815
8.888000	 32.6186
8.972000	 32.8451
9.056000	 32.8671
9.140000	 32.6294
9.224000	 32.2331
9.308000	 32.0669
9.391999	 32.5217
9.475999	 32.6628
9.560000	 32.4917
9.644000	 32.0795
9.728000	 31.8449
9.812000	 31.9457
9.896000	 32.2287
9.980000	 32.3764
10.064	32.0738
10.148	31.7648
10.232	31.3831
10.316	31.3636
10.4	31.4548
10.484	31.6412
10.568	31.868
10.652	31.6537
10.736	31.3793
10.82	30.7879
10.904	30.6811
10.988	30.8359
11.072	30.9348
11.156	30.8509
11.24	30.8475
11.324	30.7898
11.408	30.5135
11.492	30.1115
11.576	29.8775
11.66	30.071
11.744	30.1164
11.828	30.163
11.912	30.2923
11.996	30.367
12.08	30.1429
12.164	29.7638
12.248	29.2152
12.332	29.0446
12.416	29.0298
12.5	28.994
12.584	29.2915
12.668	29.508
12.752	29.6115
12.836	29.5004
12.92	29.1446
13.004	28.7561
13.088	28.2837
13.172	28.2171
13.256	28.3412
13.34	28.3
13.424	28.1736
13.508	28.0856
13.592	28.2728
13.676	28.4268
13.76	28.2912
13.844	28.1127
13.928	27.9594
14.012	27.6954
14.096	27.4113
14.18	27.2075
14.264	26.9932
14.348	26.9012
14.432	26.9342
14.516	27.0147
14.6	27.088
14.684	27.1713
14.768	27.3592
14.852	27.3869
14.936	27.2753
15.02	27.2832
15.104	27.1256
15.188	26.6596
15.272	26.2002
15.356	25.9128
15.44	25.7774
15.524	25.7206
15.608	25.6688
15.692	25.6139
15.776	25.6253
15.86	25.8345
15.944	26.1354
16.028	26.1857
16.112	25.9383
16.196	25.6588
16.28	25.4798
16.364	25.3595
16.448	25.2551
16.532	25.1339
16.616	24.9767
16.7	24.8166
16.784	24.7137
16.868	24.6678
16.952	24.5719
17.036	24.3832
17.12	24.2949
17.204	24.5012
17.288	24.8501
17.372	24.973
17.456	24.7454
17.54	24.4072
17.624	24.2117
17.708	24.1552
17.792	24.1046
17.876	23.9974
17.96	23.8512
18.044	23.6958
18.128	23.5776
18.212	23.5549
18.296	23.6263
18.38	23.7062
18.464	23.7208
18.548	23.6831
18.632	23.6353
18.716	23.5792
18.8	23.5083
18.884	23.4634
18.968	23.5063
19.052	23.646
19.136	23.8171
19.22	23.9296
19.304	23.9245
19.388	23.7896
19.472	23.5491
19.556	23.2682
19.64	23.0373
19.724	22.9301
19.808	22.9421
19.892	22.9795
19.976	22.912
20.06	22.6642
20.144	22.2815
20.228	21.9172
20.312	21.7501
20.396	21.872
20.48	22.2164
20.564	22.5819
20.648	22.7468
20.732	22.598
20.816	22.1853
20.9	21.6867
20.984	21.3071
21.068	21.1779
21.152	21.3104
21.236	21.6082
21.32	21.9279
21.404	22.1521
21.488	22.2388
21.572	22.2159
21.656	22.1292
21.74	22.0082
21.824	21.8789
21.908	21.7855
21.992	21.7754
22.076	21.8552
22.16	21.9574
22.244	21.9707
22.328	21.8221
22.412	21.5279
22.496	21.2086
22.58	20.9964
22.664	20.9665
22.748	21.1014
22.832	21.3141
22.916	21.504
23	21.5951
23.084	21.5466
23.168	21.3508
23.252	21.0322
23.336	20.6437
23.42	20.253
23.504	19.9167
23.588	19.6703
23.672	19.5296
23.756	19.4992
23.84	19.6127
23.924	19.9437
24.008	20.5695
24.092	21.5193
24.176	22.7364
24.26	24.0501
24.344	25.2209
24.428	26.0495
24.512	26.3963
24.596	26.2701
24.68	25.8102
24.764	25.2186
24.848	24.6612
24.932	24.1945
25.016	23.7465
25.1	23.2125
25.184	22.4454
25.268	21.3758
25.352	20.112
25.436	18.8744
25.52	17.9442
25.604	17.5839
25.688	17.9591
25.772	19.0121
25.856	20.4912
25.94	22.2535
26.024	24.3496
26.108	26.9624
26.192	30.1203
26.276	33.5354
26.36	36.4413
26.444	38.202
26.528	38.6258
26.612	38.1347
26.696	37.4276
26.78	37.1132
26.864	37.5195
26.948	38.8766
27.028	41.5278