File: Bakgrunnsmateriale/MATLAB/FTIR/ftir_data/LPE453/Mapping_121/LPE453_t92.asc
PE IR       SPECTRUM    SPECTRUM    ASCII       PEDS        1.60
  -1
LPC7B1~1.ASC
17/05/16
21:57:26.00
17/05/16
21:57:52.00
tln
$LPE453_t0092$<tbV0>[5.2,7.8,8.0,0.0,27,1,0]
27.028
64

2002,4.07
MIRTGS : RIGHTBACK : INTERNAL 2
MIR : ON : INTERNAL 2
OPTKBR

0.200000
8
8.000000
FILLER
RATIO
SPECTRUM
UNLOCKED 256

DOUBLE
64
COMBINED
1
0
0

0.002000
RATIO

1
0
TRUE
51149
0
LEFT NOT FITTED RIGHT NOT FITTED 0
NONE
NONE
15600
12
4.427000
51148
TRUE
1 0 8 72 0 0 0 0

15798

#HDR
-1
-1
#GR
µM
%T
2.38419e-05
0.0
2.000000
0.002000
12515
8
36.2392
-6.058593
#DATA
2.000000	 -0.077843
2.084000	 0.091529
2.168000	 0.983418
2.252000	 0.201418
2.336000	 0.220190
2.420000	 0.076492
2.504000	 0.011442
2.588000	 0.037188
2.672000	 -0.032279
2.756000	 -0.032008
2.840000	 0.200991
2.924000	 0.214459
3.008000	 -0.042799
3.092000	 -0.053863
3.176000	 0.128508
3.260000	 0.003190
3.344000	 -0.070184
3.428000	 0.035205
3.512000	 0.040965
3.596000	 -0.023508
3.680000	 0.002581
3.764000	 -0.009659
3.848000	 0.027141
3.932000	 0.047662
4.016000	 0.020483
4.100000	 0.022165
4.184000	 0.126941
4.268000	 0.138635
4.352000	 0.522790
4.436000	 1.452221
4.520000	 3.658268
4.604000	 6.914737
4.688000	 11.4438
4.772000	 16.4017
4.856000	 21.0946
4.940000	 24.7846
5.024000	 27.7323
5.108000	 30.2281
5.192000	 31.6677
5.276000	 33.0106
5.359999	 33.8704
5.444000	 34.4639
5.528000	 35.0628
5.612000	 35.2603
5.696000	 35.5438
5.780000	 35.6263
5.864000	 35.8684
5.948000	 36.0558
6.032000	 35.6975
6.116000	 36.1714
6.200000	 35.7853
6.284000	 36.0051
6.368000	 36.0873
6.452000	 35.7948
6.536000	 36.1175
6.620000	 35.9942
6.704000	 35.5715
6.788000	 35.9452
6.872000	 35.7891
6.956000	 35.439
7.040000	 35.7424
7.124000	 35.8134
7.208000	 35.3765
7.292000	 35.379
7.376000	 35.7416
7.460000	 35.6114
7.544000	 35.0989
7.628000	 35.3456
7.712000	 35.5108
7.796000	 35.3179
7.880000	 34.9492
7.964000	 35.0488
8.048000	 35.3425
8.132000	 35.4693
8.216000	 34.9211
8.300000	 34.7937
8.384000	 34.9947
8.468000	 35.1776
8.552000	 34.9675
8.635999	 34.6284
8.719999	 34.4465
8.804000	 34.9035
8.888000	 34.8969
8.972000	 34.7197
9.056000	 34.1162
9.140000	 34.0768
9.224000	 34.2637
9.308000	 34.4952
9.391999	 34.6313
9.475999	 34.4723
9.560000	 34.1237
9.644000	 33.781
9.728000	 33.6342
9.812000	 33.8921
9.896000	 34.1562
9.980000	 34.028
10.064	33.9529
10.148	33.5218
10.232	33.5457
10.316	33.3452
10.4	33.6177
10.484	33.7315
10.568	33.7749
10.652	33.4585
10.736	32.8995
10.82	32.6565
10.904	32.5619
10.988	32.7504
11.072	32.8244
11.156	32.8956
11.24	32.8262
11.324	32.6733
11.408	32.5685
11.492	32.2619
11.576	32.1437
11.66	32.0256
11.744	32.1121
11.828	32.3688
11.912	32.3218
11.996	32.151
12.08	32.1867
12.164	31.9091
12.248	31.5333
12.332	31.4611
12.416	31.2468
12.5	31.1783
12.584	31.2199
12.668	31.3514
12.752	31.3098
12.836	31.3538
12.92	31.4193
13.004	31.2401
13.088	31.0913
13.172	30.7894
13.256	30.4705
13.34	30.5071
13.424	30.6753
13.508	30.6142
13.592	30.5344
13.676	30.6165
13.76	30.7037
13.844	30.5704
13.928	30.3791
14.012	30.0918
14.096	29.6964
14.18	29.6015
14.264	29.6494
14.348	29.4752
14.432	29.2312
14.516	29.1296
14.6	29.1618
14.684	29.1436
14.768	29.0975
14.852	29.1874
14.936	29.3026
15.02	29.3505
15.104	29.3106
15.188	29.1311
15.272	28.9463
15.356	28.8325
15.44	28.6937
15.524	28.5707
15.608	28.4438
15.692	28.1425
15.776	27.8235
15.86	27.7955
15.944	27.9205
16.028	27.9484
16.112	27.9219
16.196	27.902
16.28	27.8205
16.364	27.6093
16.448	27.3427
16.532	27.2874
16.616	27.528
16.7	27.7403
16.784	27.6726
16.868	27.4601
16.952	27.3309
17.036	27.3143
17.12	27.3051
17.204	27.2191
17.288	27.0412
17.372	26.7951
17.456	26.552
17.54	26.4453
17.624	26.5521
17.708	26.7699
17.792	26.9231
17.876	26.9569
17.96	26.9494
18.044	26.9526
18.128	26.9226
18.212	26.8111
18.296	26.638
18.38	26.4483
18.464	26.2459
18.548	26.0168
18.632	25.7885
18.716	25.6214
18.8	25.5438
18.884	25.5295
18.968	25.5148
19.052	25.4311
19.136	25.2552
19.22	25.0486
19.304	24.9285
19.388	24.9668
19.472	25.1184
19.556	25.2545
19.64	25.2655
19.724	25.1281
19.808	24.9036
19.892	24.6938
19.976	24.5718
20.06	24.5325
20.144	24.5093
20.228	24.4492
20.312	24.3777
20.396	24.374
20.48	24.4787
20.564	24.6429
20.648	24.7719
20.732	24.8021
20.816	24.7171
20.9	24.5198
20.984	24.2108
21.068	23.8164
21.152	23.4065
21.236	23.071
21.32	22.8523
21.404	22.716
21.488	22.5959
21.572	22.4615
21.656	22.3412
21.74	22.2794
21.824	22.2974
21.908	22.3858
21.992	22.5264
22.076	22.7182
22.16	22.9698
22.244	23.2721
22.328	23.5837
22.412	23.8475
22.496	24.0242
22.58	24.117
22.664	24.1627
22.748	24.1965
22.832	24.2091
22.916	24.147
23	23.922
23.084	23.4658
23.168	22.7911
23.252	22.0053
23.336	21.2711
23.42	20.7646
23.504	20.5882
23.588	20.7164
23.672	21.0212
23.756	21.3196
23.84	21.4537
23.924	21.3625
24.008	21.0908
24.092	20.7547
24.176	20.494
24.26	20.4455
24.344	20.7104
24.428	21.2788
24.512	21.9785
24.596	22.5111
24.68	22.5102
24.764	21.6714
24.848	19.8944
24.932	17.3322
25.016	14.3819
25.1	11.5533
25.184	9.421238
25.268	8.438091
25.352	8.827878
25.436	10.553
25.52	13.2708
25.604	16.4262
25.688	19.3569
25.772	21.4593
25.856	22.3463
25.94	21.9469
26.024	20.5425
26.108	18.683
26.192	16.9668
26.276	15.8509
26.36	15.5516
26.444	15.9947
26.528	16.8838
26.612	17.8494
26.696	18.5306
26.78	18.6766
26.864	18.2019
26.948	17.2006
27.028	16.0095