File: Bakgrunnsmateriale/MATLAB/FTIR/ftir_data/LPE453/Mapping_121/LPE453_t02_cm-1.asc
PE IR       SPECTRUM    SPECTRUM    ASCII       PEDS        1.60
  -1
LP5750~1.ASC
17/05/16
14:32:38.00
17/05/16
14:32:38.00
tln
$LPE453_t0002$<tbV0>[10.4,-13.0,8.0,0.0,27,1,0]
370
64

2002,4.07
MIRTGS : RIGHTBACK : INTERNAL 2
MIR : ON : INTERNAL 2
OPTKBR

0.200000
8
8.000000
FILLER
RATIO
SPECTRUM
UNLOCKED 256

DOUBLE
64
COMBINED
1
0
0

1.000000
RATIO

1
0
TRUE
51149
0
LEFT NOT FITTED RIGHT NOT FITTED 0
NONE
NONE
15600
12
4.427000
51148
TRUE
1 0 8 72 0 0 0 0

15798

#HDR
-1
-1
#GR
CM-1
%T
2.38419e-05
0.0
5000
-1.000000
4631
8
33.9776
-8.430671
#DATA
5000	0.318956
4984	0.445723
4968	0.246143
4952	-0.036025
4936	0.350594
4920	-0.063705
4904	0.083589
4888	-0.223565
4872	0.496840
4856	0.182867
4840	0.260949
4824	0.070738
4808	-0.138139
4792	-0.077533
4776	0.506877
4760	0.321769
4744	-0.325345
4728	0.679373
4712	0.270128
4696	1.530456
4680	1.323938
4664	-1.209354
4648	0.721311
4632	0.836420
4616	0.320339
4600	0.831913
4584	0.415945
4568	1.051592
4552	0.814652
4536	-0.799703
4520	-0.872516
4504	-1.490211
4488	15.8228
4472	4.939579
4456	-0.173759
4440	-0.752210
4424	-0.188946
4408	-0.038719
4392	0.675702
4376	0.883030
4360	0.501775
4344	0.247693
4328	0.265121
4312	0.216507
4296	0.199532
4280	0.262999
4264	-0.008010
4248	0.148940
4232	-0.036120
4216	0.234723
4200	0.240135
4184	0.510644
4168	0.232195
4152	0.117349
4136	0.208973
4120	0.263881
4104	-0.075030
4088	0.114870
4072	-0.200676
4056	0.148940
4040	-0.068044
4024	0.044107
4008	-0.006198
3992	0.336933
3976	0.171399
3960	0.077056
3944	0.178050
3928	0.057959
3912	0.062966
3896	0.012087
3880	0.142788
3864	0.112915
3848	-0.053691
3832	0.119638
3816	0.031089
3800	0.098252
3784	0.027179
3768	0.062990
3752	0.095319
3736	0.122737
3720	-0.105118
3704	0.029969
3688	0.085186
3672	0.043177
3656	0.067901
3640	0.015640
3624	0.163936
3608	-0.008773
3592	0.024461
3576	0.127005
3560	0.008535
3544	-0.008606
3528	0.083136
3512	0.097775
3496	0.231862
3480	0.120711
3464	-0.125980
3448	-0.013804
3432	-0.004625
3416	0.034260
3400	-0.052928
3384	0.051546
3368	0.173091
3352	0.022625
3336	0.083255
3320	0.113391
3304	0.112724
3288	0.155210
3272	0.153326
3256	0.151205
3240	0.138735
3224	0.082588
3208	-0.023436
3192	0.046849
3176	0.183892
3160	-0.039005
3144	-0.123977
3128	-0.049471
3112	0.195312
3096	0.052356
3080	-0.074958
3064	0.041151
3048	0.006389
3032	0.005364
3016	-0.016236
3000	0.181508
2984	0.029444
2968	-0.019121
2952	0.048327
2936	-0.016784
2920	-0.076842
2904	0.076055
2888	0.094366
2872	0.038170
2856	0.077176
2840	0.110626
2824	0.025010
2808	0.055241
2792	-0.020146
2776	-0.010204
2760	0.100469
2744	-0.038313
2728	0.003123
2712	-0.062537
2696	0.080990
2680	0.009417
2664	0.115442
2648	-0.081729
2632	-0.054574
2616	0.054526
2600	0.096416
2584	0.060486
2568	-0.007510
2552	0.120401
2536	0.000095
2520	0.144529
2504	0.008034
2488	-0.021696
2472	0.015377
2456	0.017237
2440	0.066971
2424	0.246548
2408	0.155353
2392	0.043845
2376	-0.026607
2360	0.129747
2344	-0.000882
2328	0.080299
2312	0.191187
2296	0.291728
2280	0.511550
2264	0.727224
2248	1.058745
2232	1.608800
2216	2.229738
2200	3.054881
2184	4.122710
2168	5.334472
2152	6.797599
2136	8.374834
2120	10.2686
2104	11.9301
2088	13.9902
2072	15.73
2056	17.4828
2040	19.2037
2024	20.8274
2008	22.4586
1992	23.8408
1976	24.9784
1960	26.2119
1944	27.0813
1928	27.7528
1912	28.7981
1896	29.3698
1880	29.889
1864	30.7066
1848	31.0426
1832	31.263
1816	31.816
1800	32.297
1784	32.1261
1768	32.6968
1752	32.9685
1736	32.9123
1720	33.0969
1704	33.6247
1688	33.3302
1672	33.4197
1656	33.845
1640	33.5271
1624	33.2965
1608	33.8136
1592	33.7878
1576	33.5169
1560	33.7489
1544	33.8614
1528	33.3652
1512	33.3861
1496	33.637
1480	33.2832
1464	32.9861
1448	33.5433
1432	33.2625
1416	32.7652
1400	32.849
1384	33.1562
1368	32.7049
1352	32.5264
1336	33.0477
1320	32.5868
1304	32.0632
1288	32.5275
1272	32.5028
1256	31.9086
1240	32.1585
1224	32.5812
1208	31.9093
1192	31.6522
1176	32.1659
1160	32.0083
1144	31.224
1128	31.4862
1112	31.8463
1096	31.1933
1080	31.1086
1064	31.5059
1048	30.7957
1032	30.5358
1016	30.9782
1000	30.9803
984	 30.0901
968	 30.3868
952	 30.9038
936	 29.7788
920	 29.5966
904	 30.0422
888	 29.6356
872	 28.8049
856	 29.2755
840	 29.5882
824	 28.5019
808	 28.1965
792	 28.5369
776	 27.9289
760	 27.3859
744	 27.9996
728	 27.5372
712	 26.5425
696	 26.5119
680	 26.8548
664	 26.4581
648	 25.9731
632	 25.5542
616	 25.6582
600	 24.6299
584	 24.2838
568	 24.5852
552	 23.9046
536	 23.4637
520	 23.2414
504	 22.8681
488	 21.053
472	 21.7204
456	 22.9593
440	 18.4872
424	 16.9121
408	 25.8035
392	 28.2862
376	 12.4058
370	 -8.430671