File: Bakgrunnsmateriale/MATLAB/FTIR/ftir_data/LPE453/Mapping_121/LPE453_t68_cm-1.asc
PE IR       SPECTRUM    SPECTRUM    ASCII       PEDS        1.60
  -1
LP6A59~1.ASC
17/05/16
19:59:41.00
17/05/16
19:59:41.00
tln
$LPE453_t0068$<tbV0>[10.4,2.6,8.0,0.0,27,1,0]
370
64

2002,4.07
MIRTGS : RIGHTBACK : INTERNAL 2
MIR : ON : INTERNAL 2
OPTKBR

0.200000
8
8.000000
FILLER
RATIO
SPECTRUM
UNLOCKED 256

DOUBLE
64
COMBINED
1
0
0

1.000000
RATIO

1
0
TRUE
51149
0
LEFT NOT FITTED RIGHT NOT FITTED 0
NONE
NONE
15600
12
4.427000
51148
TRUE
1 0 8 72 0 0 0 0

15798

#HDR
-1
-1
#GR
CM-1
%T
2.38419e-05
0.0
5000
-1.000000
4631
8
24.9104
-12.8846
#DATA
5000	0.128793
4984	0.362110
4968	0.284504
4952	-0.334143
4936	0.320458
4920	0.273394
4904	0.123953
4888	0.303816
4872	0.283813
4856	0.053071
4840	0.252223
4824	-0.166296
4808	0.132226
4792	-0.119376
4776	0.235605
4760	0.191974
4744	0.608062
4728	0.084400
4712	0.948834
4696	-0.340294
4680	-0.047945
4664	1.047778
4648	-0.222921
4632	0.739288
4616	0.644803
4600	0.016140
4584	0.618886
4568	0.302100
4552	0.473427
4536	0.295400
4520	0.715565
4504	-1.706671
4488	12.9695
4472	0.980782
4456	0.911283
4440	-0.917434
4424	-0.012135
4408	-0.053071
4392	0.198793
4376	0.206208
4360	0.361061
4344	0.265979
4328	0.147795
4312	0.264191
4296	-0.062227
4280	0.006842
4264	0.184035
4248	0.097084
4232	-0.110697
4216	0.182485
4200	-0.008034
4184	-0.021696
4168	0.177383
4152	0.063776
4136	0.044775
4120	0.151419
4104	-0.122332
4088	0.207424
4072	0.002932
4056	-0.116133
4040	-0.161886
4024	0.023794
4008	0.292825
3992	0.106167
3976	-0.146698
3960	-0.020360
3944	0.001931
3928	0.162005
3912	0.032901
3896	0.231194
3880	-0.021576
3864	-0.090575
3848	-0.176501
3832	0.046205
3816	0.110721
3800	-0.028371
3784	0.221323
3768	-0.030207
3752	0.085449
3736	0.024485
3720	0.059843
3704	0.180530
3688	0.004434
3672	0.032949
3656	-0.003242
3640	-0.079369
3624	0.054430
3608	0.028061
3592	0.088739
3576	0.076150
3560	0.109505
3544	0.152945
3528	0.024580
3512	0.084853
3496	0.046372
3480	0.103759
3464	-0.090694
3448	0.073504
3432	-0.102400
3416	-0.014638
3400	0.045347
3384	-0.000739
3368	0.045251
3352	0.001931
3336	0.022172
3320	0.002527
3304	-0.031089
3288	0.002598
3272	0.133109
3256	0.022506
3240	-0.045990
3224	0.120592
3208	0.083184
3192	0.061130
3176	-0.015974
3160	-0.020933
3144	0.061321
3128	-0.130987
3112	0.091934
3096	0.096726
3080	0.095248
3064	0.031757
3048	0.019574
3032	0.087594
3016	0.028276
3000	0.106763
2984	0.049090
2968	0.077891
2952	0.052070
2936	0.099706
2920	-0.074267
2904	0.063300
2888	-0.082540
2872	-0.045323
2856	0.148272
2840	0.034403
2824	0.001454
2808	0.085115
2792	0.108122
2776	-0.001811
2760	0.031614
2744	-0.022053
2728	0.010848
2712	0.058674
2696	0.008487
2680	0.046086
2664	0.034642
2648	0.095462
2632	-0.008940
2616	0.017333
2600	0.042200
2584	0.004935
2568	0.077128
2552	-0.022101
2536	0.003981
2520	-0.139474
2504	-0.012040
2488	0.054788
2472	-0.008058
2456	0.010919
2440	0.111484
2424	0.255560
2408	0.081133
2392	-0.046205
2376	-0.026249
2360	-0.040125
2344	0.060582
2328	-0.043463
2312	0.034976
2296	0.032114
2280	0.098991
2264	0.138354
2248	0.245070
2232	0.368595
2216	0.590610
2200	0.930213
2184	1.382350
2168	2.040982
2152	2.794361
2136	3.817582
2120	4.945254
2104	6.086587
2088	7.517814
2072	8.866286
2056	10.3549
2040	11.9075
2024	13.2418
2008	14.4721
1992	15.5205
1976	16.9302
1960	17.9388
1944	18.8979
1928	19.7782
1912	20.5494
1896	21.2489
1880	21.8538
1864	22.2916
1848	22.7942
1832	23.1521
1816	23.4325
1800	23.68
1784	23.9525
1768	24.0607
1752	24.2294
1736	24.2626
1720	24.4034
1704	24.5806
1688	24.6004
1672	24.7683
1656	24.7421
1640	24.8284
1624	24.7305
1608	24.7746
1592	24.8794
1576	24.6922
1560	24.8814
1544	24.7493
1528	24.6965
1512	24.7546
1496	24.6698
1480	24.603
1464	24.6927
1448	24.4668
1432	24.4073
1416	24.4496
1400	24.4006
1384	24.3984
1368	24.2036
1352	24.2031
1336	24.1565
1320	24.088
1304	24.1502
1288	24.0865
1272	23.9597
1256	24.0201
1240	23.8548
1224	23.7889
1208	23.6507
1192	23.637
1176	23.5336
1160	23.4448
1144	23.3724
1128	23.3251
1112	22.8066
1096	22.6748
1080	22.9694
1064	22.7393
1048	22.6293
1032	22.3879
1016	22.2777
1000	22.0046
984	 21.8422
968	 21.9574
952	 21.4339
936	 21.3003
920	 21.0068
904	 20.725
888	 20.6447
872	 20.3084
856	 20.2975
840	 20.044
824	 19.8006
808	 19.7193
792	 19.0754
776	 18.7515
760	 18.4068
744	 17.9358
728	 17.9337
712	 17.333
696	 17.265
680	 17.1487
664	 16.4832
648	 16.111
632	 15.8327
616	 15.2961
600	 15.3047
584	 14.7109
568	 14.0172
552	 13.622
536	 12.9078
520	 13.424
504	 12.682
488	 12.7511
472	 11.5382
456	 11.2061
440	 10.2549
424	 10.9526
408	 16.1019
392	 15.1409
376	 -12.8846
370	 -10.3092