File: Bakgrunnsmateriale/MATLAB/FTIR/ftir_data/LPE453/Mapping_121/LPE453_t60.asc
PE IR       SPECTRUM    SPECTRUM    ASCII       PEDS        1.60
  -1
LPCBA9~1.ASC
17/05/16
19:16:04.00
17/05/16
19:16:30.00
tln
$LPE453_t0060$<tbV0>[2.6,0.0,8.0,0.0,27,1,0]
27.028
64

2002,4.07
MIRTGS : RIGHTBACK : INTERNAL 2
MIR : ON : INTERNAL 2
OPTKBR

0.200000
8
8.000000
FILLER
RATIO
SPECTRUM
UNLOCKED 256

DOUBLE
64
COMBINED
1
0
0

0.002000
RATIO

1
0
TRUE
51149
0
LEFT NOT FITTED RIGHT NOT FITTED 0
NONE
NONE
15600
12
4.427000
51148
TRUE
1 0 8 72 0 0 0 0

15798

#HDR
-1
-1
#GR
µM
%T
2.38419e-05
0.0
2.000000
0.002000
12515
8
26.7494
-6.593942
#DATA
2.000000	 0.173497
2.084000	 0.070928
2.168000	 0.973700
2.252000	 -0.457535
2.336000	 0.233399
2.420000	 -0.065133
2.504000	 -0.069538
2.588000	 0.046838
2.672000	 -0.043019
2.756000	 0.093616
2.840000	 0.106247
2.924000	 0.112759
3.008000	 0.012302
3.092000	 -0.020986
3.176000	 -0.017058
3.260000	 -0.007848
3.344000	 0.037897
3.428000	 -0.077011
3.512000	 0.005902
3.596000	 0.115169
3.680000	 0.157056
3.764000	 0.007966
3.848000	 -0.036031
3.932000	 0.053187
4.016000	 0.069545
4.100000	 0.147731
4.184000	 -0.020308
4.268000	 -0.095990
4.352000	 0.033243
4.436000	 0.314226
4.520000	 1.016871
4.604000	 2.735019
4.688000	 5.231342
4.772000	 8.761447
4.856000	 12.4531
4.940000	 15.7152
5.024000	 18.5135
5.108000	 20.6909
5.192000	 22.4355
5.276000	 23.6204
5.359999	 24.5389
5.444000	 25.2099
5.528000	 25.7652
5.612000	 26.0155
5.696000	 26.2437
5.780000	 26.555
5.864000	 26.5614
5.948000	 26.6249
6.032000	 26.7234
6.116000	 26.5971
6.200000	 26.7372
6.284000	 26.5772
6.368000	 26.7048
6.452000	 26.499
6.536000	 26.5493
6.620000	 26.4502
6.704000	 26.4501
6.788000	 26.312
6.872000	 26.2657
6.956000	 26.1962
7.040000	 26.2566
7.124000	 26.3377
7.208000	 26.1154
7.292000	 26.0914
7.376000	 25.9224
7.460000	 25.9585
7.544000	 25.8883
7.628000	 25.7916
7.712000	 25.7568
7.796000	 25.652
7.880000	 25.635
7.964000	 25.5562
8.048000	 25.4423
8.132000	 25.3607
8.216000	 25.3699
8.300000	 25.3948
8.384000	 25.2605
8.468000	 25.0874
8.552000	 25.1992
8.635999	 25.2002
8.719999	 24.924
8.804000	 24.7373
8.888000	 24.7993
8.972000	 24.5739
9.056000	 24.4694
9.140000	 24.2448
9.224000	 24.4127
9.308000	 24.4817
9.391999	 24.1444
9.475999	 24.053
9.560000	 24.073
9.644000	 24.0953
9.728000	 23.8862
9.812000	 23.7683
9.896000	 23.6942
9.980000	 23.7347
10.064	23.7541
10.148	23.4013
10.232	23.2185
10.316	23.1133
10.4	23.0361
10.484	23.0964
10.568	23.0749
10.652	22.8419
10.736	22.6348
10.82	22.6184
10.904	22.8144
10.988	22.4994
11.072	22.3714
11.156	22.3571
11.24	21.9619
11.324	21.941
11.408	21.9681
11.492	21.6934
11.576	21.6564
11.66	21.6676
11.744	21.3981
11.828	21.2387
11.912	21.2016
11.996	21.0348
12.08	21.1605
12.164	21.1943
12.248	20.9301
12.332	20.7965
12.416	20.7106
12.5	20.6665
12.584	20.477
12.668	20.248
12.752	20.1802
12.836	20.1134
12.92	19.8741
13.004	19.6998
13.088	19.6791
13.172	19.6347
13.256	19.5643
13.34	19.7291
13.424	19.7485
13.508	19.5486
13.592	19.5311
13.676	19.2869
13.76	18.9314
13.844	18.8407
13.928	18.7667
14.012	18.7102
14.096	18.5315
14.18	18.3645
14.264	18.4522
14.348	18.5312
14.432	18.4291
14.516	18.2715
14.6	18.178
14.684	17.9705
14.768	17.6895
14.852	17.65
14.936	17.7603
15.02	17.8168
15.104	17.8912
15.188	17.8397
15.272	17.5639
15.356	17.3692
15.44	17.3184
15.524	17.2643
15.608	17.2678
15.692	17.2858
15.776	17.1625
15.86	16.9486
15.944	16.8044
16.028	16.7646
16.112	16.7478
16.196	16.7251
16.28	16.7171
16.364	16.6769
16.448	16.6096
16.532	16.5697
16.616	16.4843
16.7	16.2759
16.784	16.0537
16.868	15.9296
16.952	15.8522
17.036	15.7235
17.12	15.5537
17.204	15.4459
17.288	15.4246
17.372	15.3923
17.456	15.3073
17.54	15.2723
17.624	15.3468
17.708	15.411
17.792	15.3263
17.876	15.1098
17.96	14.8874
18.044	14.7264
18.128	14.5853
18.212	14.4269
18.296	14.307
18.38	14.3018
18.464	14.3872
18.548	14.453
18.632	14.4357
18.716	14.3662
18.8	14.2887
18.884	14.1969
18.968	14.0705
19.052	13.9367
19.136	13.8708
19.22	13.9347
19.304	14.1075
19.388	14.2786
19.472	14.3225
19.556	14.1971
19.64	13.9801
19.724	13.7924
19.808	13.6927
19.892	13.6524
19.976	13.6121
20.06	13.554
20.144	13.5056
20.228	13.4868
20.312	13.4693
20.396	13.4011
20.48	13.2765
20.564	13.1681
20.648	13.175
20.732	13.3231
20.816	13.5135
20.9	13.5815
20.984	13.4247
21.068	13.0896
21.152	12.7469
21.236	12.5632
21.32	12.58
21.404	12.6916
21.488	12.7479
21.572	12.6689
21.656	12.4852
21.74	12.2968
21.824	12.1974
21.908	12.223
21.992	12.3427
22.076	12.4768
22.16	12.5307
22.244	12.4201
22.328	12.1166
22.412	11.6669
22.496	11.1823
22.58	10.7611
22.664	10.4402
22.748	10.1854
22.832	9.942199
22.916	9.692807
23	9.502778
23.084	9.469396
23.168	9.667180
23.252	10.1038
23.336	10.7294
23.42	11.4492
23.504	12.1784
23.588	12.8365
23.672	13.3336
23.756	13.583
23.84	13.5659
23.924	13.3617
24.008	13.1254
24.092	13.0209
24.176	13.1268
24.26	13.3562
24.344	13.4836
24.428	13.2808
24.512	12.6198
24.596	11.5652
24.68	10.4431
24.764	9.778943
24.848	10.0385
24.932	11.4593
25.016	13.8695
25.1	16.7278
25.184	19.2914
25.268	20.9159
25.352	21.2386
25.436	20.1954
25.52	18.0445
25.604	15.2541
25.688	12.4341
25.772	10.2224
25.856	9.134945
25.94	9.400690
26.024	10.89
26.108	13.1491
26.192	15.3999
26.276	16.7879
26.36	16.6347
26.444	14.7245
26.528	11.3543
26.612	7.301378
26.696	3.380857
26.78	0.074743
26.864	-2.549904
26.948	-4.721076
27.028	-6.593942