File: Bakgrunnsmateriale/MATLAB/FTIR/ftir_data/LPE453/Mapping_121/LPE453_t48_cm-1.asc
PE IR       SPECTRUM    SPECTRUM    ASCII       PEDS        1.60
  -1
LP6959~1.ASC
17/05/16
18:20:06.00
17/05/16
18:20:06.00
tln
$LPE453_t0048$<tbV0>[5.2,-2.6,8.0,0.0,27,1,0]
370
64

2002,4.07
MIRTGS : RIGHTBACK : INTERNAL 2
MIR : ON : INTERNAL 2
OPTKBR

0.200000
8
8.000000
FILLER
RATIO
SPECTRUM
UNLOCKED 256

DOUBLE
64
COMBINED
1
0
0

1.000000
RATIO

1
0
TRUE
51149
0
LEFT NOT FITTED RIGHT NOT FITTED 0
NONE
NONE
15600
12
4.427000
51148
TRUE
1 0 8 72 0 0 0 0

15798

#HDR
-1
-1
#GR
CM-1
%T
2.38419e-05
0.0
5000
-1.000000
4631
8
24.9333
-18.3967
#DATA
5000	0.189781
4984	-0.232338
4968	0.173258
4952	-0.114011
4936	0.228333
4920	0.209593
4904	-0.275921
4888	-0.502824
4872	0.458431
4856	0.193715
4840	0.531315
4824	0.108790
4808	-0.077295
4792	-0.063467
4776	0.261926
4760	0.257468
4744	-0.002765
4728	-0.240921
4712	0.447106
4696	0.184822
4680	0.210094
4664	0.364017
4648	0.155377
4632	0.011348
4616	0.407004
4600	-0.366592
4584	-0.468873
4568	-0.560069
4552	-0.601935
4536	-0.393795
4520	6.180453
4504	2.090549
4488	-0.506114
4472	-0.181722
4456	-0.426888
4440	-0.277805
4424	0.147223
4408	-0.034236
4392	0.022864
4376	0.369143
4360	-0.033140
4344	0.250029
4328	0.099992
4312	-0.042700
4296	0.077152
4280	0.254178
4264	-0.008511
4248	0.281119
4232	0.282859
4216	0.184512
4200	0.177836
4184	0.183749
4168	0.111079
4152	0.226211
4136	0.220251
4120	0.069475
4104	-0.121617
4088	0.074625
4072	0.135183
4056	0.184321
4040	0.166368
4024	0.051212
4008	0.013279
3992	0.058174
3976	0.031709
3960	0.105762
3944	0.086450
3928	-0.043630
3912	0.180768
3896	0.262618
3880	0.132131
3864	-0.055694
3848	0.104069
3832	0.085592
3816	-0.094366
3800	0.126814
3784	0.065946
3768	0.030636
3752	0.033688
3736	0.014591
3720	-0.017571
3704	-0.016379
3688	0.105047
3672	0.117230
3656	-0.013971
3640	0.179910
3624	0.122451
3608	-0.025391
3592	0.059127
3576	0.041508
3560	-0.010514
3544	0.158476
3528	0.035786
3512	0.096440
3496	-0.049066
3480	0.065279
3464	0.067496
3448	0.136756
3432	0.005650
3416	-0.041985
3400	0.098347
3384	0.045728
3368	-0.079226
3352	0.008273
3336	0.052237
3320	0.092482
3304	0.012946
3288	0.050592
3272	0.002813
3256	-0.052499
3240	-0.000572
3224	0.044941
3208	0.007009
3192	0.044012
3176	0.019240
3160	0.101780
3144	-0.024652
3128	0.147747
3112	-0.085783
3096	0.056195
3080	-0.011968
3064	0.014877
3048	-0.103282
3032	0.061964
3016	-0.009131
3000	0.029873
2984	-0.008344
2968	0.032973
2952	0.053191
2936	-0.045251
2920	-0.030469
2904	-0.007247
2888	-0.016331
2872	0.157189
2856	0.147604
2840	0.089859
2824	-0.055718
2808	-0.033140
2792	-0.009226
2776	0.064420
2760	-0.055289
2744	0.082397
2728	0.058889
2712	0.043892
2696	-0.035095
2680	0.044441
2664	0.006556
2648	-0.099325
2632	0.123786
2616	0.002503
2600	0.108623
2584	-0.082635
2568	0.118112
2552	-0.009775
2536	-0.044369
2520	-0.053000
2504	0.068545
2488	0.003147
2472	0.061631
2456	0.009727
2440	-0.003647
2424	0.149679
2408	-0.059580
2392	0.028491
2376	-0.085616
2360	0.080513
2344	0.033760
2328	0.046324
2312	0.034832
2296	0.088548
2280	0.035834
2264	0.152134
2248	0.187015
2232	0.312542
2216	0.567007
2200	0.893330
2184	1.284575
2168	1.968431
2152	2.539157
2136	3.583741
2120	4.675030
2104	5.831599
2088	7.068228
2072	8.479785
2056	10.2083
2040	11.4889
2024	12.8865
2008	14.2048
1992	15.3817
1976	16.4068
1960	17.5323
1944	18.4397
1928	19.2818
1912	19.9852
1896	20.6728
1880	21.2445
1864	21.6401
1848	22.1121
1832	22.5073
1816	22.8371
1800	22.9973
1784	23.251
1768	23.4458
1752	23.4911
1736	23.5269
1720	23.7064
1704	23.8836
1688	23.8892
1672	23.9119
1656	23.8527
1640	23.9414
1624	23.9395
1608	23.9159
1592	23.9368
1576	24.0576
1560	23.8494
1544	23.8421
1528	23.7833
1512	23.7277
1496	23.6509
1480	23.5969
1464	23.6893
1448	23.4575
1432	23.393
1416	23.4571
1400	23.4369
1384	23.3088
1368	23.2463
1352	23.2333
1336	23.011
1320	23.025
1304	23.0643
1288	22.9494
1272	22.916
1256	22.8801
1240	22.5407
1224	22.5304
1208	22.5394
1192	22.3901
1176	22.3224
1160	22.073
1144	22.2327
1128	21.9223
1112	21.9513
1096	21.9869
1080	21.6084
1064	21.4786
1048	21.1402
1032	21.131
1016	21.0261
1000	20.984
984	 20.7151
968	 20.3707
952	 20.337
936	 20.0173
920	 19.8813
904	 19.5951
888	 19.4154
872	 19.1316
856	 18.9188
840	 18.6653
824	 18.1214
808	 17.9448
792	 17.9425
776	 17.0731
760	 17.0814
744	 16.6853
728	 16.2104
712	 16.2521
696	 15.9115
680	 15.599
664	 14.9173
648	 14.9848
632	 14.2791
616	 14.1642
600	 13.5842
584	 12.9718
568	 13.1113
552	 12.4911
536	 11.994
520	 11.8845
504	 10.53
488	 9.888911
472	 10.7454
456	 9.514331
440	 8.804678
424	 9.112381
408	 10.0547
392	 11.5154
376	 -16.6716
370	 9.872722