File: Bakgrunnsmateriale/MATLAB/FTIR/ftir_data/LPE453/Mapping_121/LPE453_t76.asc
PE IR       SPECTRUM    SPECTRUM    ASCII       PEDS        1.60
  -1
LPDFA1~1.ASC
17/05/16
20:36:34.00
17/05/16
20:37:00.00
tln
$LPE453_t0076$<tbV0>[-10.4,2.6,8.0,0.0,27,1,0]
27.028
64

2002,4.07
MIRTGS : RIGHTBACK : INTERNAL 2
MIR : ON : INTERNAL 2
OPTKBR

0.200000
8
8.000000
FILLER
RATIO
SPECTRUM
UNLOCKED 256

DOUBLE
64
COMBINED
1
0
0

0.002000
RATIO

1
0
TRUE
51149
0
LEFT NOT FITTED RIGHT NOT FITTED 0
NONE
NONE
15600
12
4.427000
51148
TRUE
1 0 8 72 0 0 0 0

15798

#HDR
-1
-1
#GR
µM
%T
2.38419e-05
0.0
2.000000
0.002000
12515
8
33.0615
-1.221912
#DATA
2.000000	 -0.038647
2.084000	 -0.366454
2.168000	 0.990494
2.252000	 -0.455219
2.336000	 -0.017183
2.420000	 0.173540
2.504000	 -0.123567
2.588000	 -0.072921
2.672000	 0.154444
2.756000	 0.015487
2.840000	 -0.015112
2.924000	 -0.005370
3.008000	 0.036846
3.092000	 -0.030134
3.176000	 0.044770
3.260000	 0.031056
3.344000	 0.040455
3.428000	 0.071475
3.512000	 0.024525
3.596000	 0.023982
3.680000	 0.050012
3.764000	 0.022463
3.848000	 0.013527
3.932000	 0.051152
4.016000	 0.141247
4.100000	 -0.027462
4.184000	 -0.170380
4.268000	 0.183998
4.352000	 0.262774
4.436000	 1.140183
4.520000	 2.692829
4.604000	 5.614247
4.688000	 9.569106
4.772000	 14.0434
4.856000	 18.3806
4.940000	 22.0712
5.024000	 24.9251
5.108000	 27.2658
5.192000	 28.886
5.276000	 29.9798
5.359999	 31.0369
5.444000	 31.6
5.528000	 31.9458
5.612000	 32.3048
5.696000	 32.5262
5.780000	 32.6917
5.864000	 32.782
5.948000	 32.9024
6.032000	 32.9818
6.116000	 32.9282
6.200000	 32.958
6.284000	 32.8044
6.368000	 32.9184
6.452000	 32.7477
6.536000	 32.7751
6.620000	 32.8802
6.704000	 32.676
6.788000	 32.6764
6.872000	 32.6212
6.956000	 32.5461
7.040000	 32.657
7.124000	 32.5202
7.208000	 32.3322
7.292000	 32.3533
7.376000	 32.3858
7.460000	 32.2083
7.544000	 32.1483
7.628000	 32.3132
7.712000	 32.1157
7.796000	 31.9733
7.880000	 31.9717
7.964000	 32.1249
8.048000	 31.887
8.132000	 31.68
8.216000	 31.9709
8.300000	 31.9062
8.384000	 31.8084
8.468000	 31.5734
8.552000	 31.6737
8.635999	 31.8118
8.719999	 31.6195
8.804000	 31.4862
8.888000	 31.2262
8.972000	 31.4201
9.056000	 31.3604
9.140000	 31.2963
9.224000	 31.0916
9.308000	 30.9509
9.391999	 31.0796
9.475999	 31.0944
9.560000	 31.1443
9.644000	 31.0031
9.728000	 30.7375
9.812000	 30.8574
9.896000	 30.8757
9.980000	 30.8419
10.064	30.8717
10.148	30.6918
10.232	30.5336
10.316	30.3057
10.4	30.1986
10.484	30.4058
10.568	30.361
10.652	30.4167
10.736	30.2849
10.82	29.9425
10.904	29.8718
10.988	29.7116
11.072	29.903
11.156	30.0383
11.24	29.9733
11.324	29.8344
11.408	29.6031
11.492	29.4787
11.576	29.1588
11.66	29.0507
11.744	29.1117
11.828	29.2654
11.912	29.477
11.996	29.3957
12.08	29.1603
12.164	28.8822
12.248	28.7141
12.332	28.714
12.416	28.5649
12.5	28.3448
12.584	28.3221
12.668	28.5044
12.752	28.4937
12.836	28.5153
12.92	28.4339
13.004	28.1072
13.088	27.8459
13.172	27.7171
13.256	27.6817
13.34	27.8111
13.424	27.9017
13.508	27.847
13.592	27.9205
13.676	28.0288
13.76	27.9481
13.844	27.7924
13.928	27.4973
14.012	27.1724
14.096	27.024
14.18	26.7469
14.264	26.3513
14.348	26.2814
14.432	26.5048
14.516	26.7204
14.6	26.7122
14.684	26.6639
14.768	26.791
14.852	26.9061
14.936	26.86
15.02	26.7812
15.104	26.6864
15.188	26.447
15.272	26.1075
15.356	25.7777
15.44	25.531
15.524	25.4228
15.608	25.3885
15.692	25.3276
15.776	25.3136
15.86	25.4397
15.944	25.5411
16.028	25.516
16.112	25.5213
16.196	25.6124
16.28	25.7135
16.364	25.808
16.448	25.8101
16.532	25.6043
16.616	25.2615
16.7	24.9102
16.784	24.5718
16.868	24.2909
16.952	24.1763
17.036	24.269
17.12	24.5178
17.204	24.811
17.288	24.9717
17.372	24.8592
17.456	24.5462
17.54	24.2818
17.624	24.2206
17.708	24.2778
17.792	24.2919
17.876	24.2128
17.96	24.0732
18.044	23.8867
18.128	23.6729
18.212	23.4953
18.296	23.3898
18.38	23.3172
18.464	23.2459
18.548	23.2105
18.632	23.225
18.716	23.2272
18.8	23.1698
18.884	23.1106
18.968	23.1402
19.052	23.2532
19.136	23.354
19.22	23.3767
19.304	23.3455
19.388	23.3176
19.472	23.3048
19.556	23.2608
19.64	23.1378
19.724	22.9462
19.808	22.7524
19.892	22.6162
19.976	22.5356
20.06	22.4593
20.144	22.3568
20.228	22.2547
20.312	22.1854
20.396	22.1213
20.48	21.9847
20.564	21.7382
20.648	21.443
20.732	21.2168
20.816	21.1386
20.9	21.1909
20.984	21.2988
21.068	21.3968
21.152	21.462
21.236	21.4932
21.32	21.4945
21.404	21.4842
21.488	21.517
21.572	21.6573
21.656	21.9234
21.74	22.2488
21.824	22.4926
21.908	22.5228
21.992	22.3045
22.076	21.9078
22.16	21.4586
22.244	21.0525
22.328	20.7167
22.412	20.4361
22.496	20.1958
22.58	19.9954
22.664	19.8231
22.748	19.6256
22.832	19.3319
22.916	18.9095
23	18.435
23.084	18.066
23.168	17.9823
23.252	18.2563
23.336	18.7956
23.42	19.3741
23.504	19.7466
23.588	19.7844
23.672	19.525
23.756	19.14
23.84	18.8137
23.924	18.6502
24.008	18.6444
24.092	18.728
24.176	18.8472
24.26	18.9798
24.344	19.1206
24.428	19.2461
24.512	19.2727
24.596	19.0657
24.68	18.5273
24.764	17.6936
24.848	16.7194
24.932	15.8473
25.016	15.2977
25.1	15.1816
25.184	15.438
25.268	15.8571
25.352	16.1961
25.436	16.2077
25.52	15.797
25.604	15.0956
25.688	14.3757
25.772	13.9575
25.856	14.0907
25.94	14.9601
26.024	16.582
26.108	18.7227
26.192	20.8061
26.276	22.0433
26.36	21.5803
26.444	19.0609
26.528	14.8305
26.612	9.862944
26.696	5.354616
26.78	2.274670
26.864	0.976661
26.948	1.309878
27.028	2.897691