File: Bakgrunnsmateriale/MATLAB/FTIR/ftir_data/LPE453/Mapping_121/LPE453_t102_cm-1.asc
PE IR       SPECTRUM    SPECTRUM    ASCII       PEDS        1.60
  -1
LP0578~1.ASC
17/05/16
22:44:10.00
17/05/16
22:44:10.00
tln
$LPE453_t0102$<tbV0>[7.8,10.4,8.0,0.0,27,1,0]
370
64

2002,4.07
MIRTGS : RIGHTBACK : INTERNAL 2
MIR : ON : INTERNAL 2
OPTKBR

0.200000
8
8.000000
FILLER
RATIO
SPECTRUM
UNLOCKED 256

DOUBLE
64
COMBINED
1
0
0

1.000000
RATIO

1
0
TRUE
51149
0
LEFT NOT FITTED RIGHT NOT FITTED 0
NONE
NONE
15600
12
4.427000
51148
TRUE
1 0 8 72 0 0 0 0

15798

#HDR
-1
-1
#GR
CM-1
%T
2.38419e-05
0.0
5000
-1.000000
4631
8
35.2113
-11.5844
#DATA
5000	0.204348
4984	0.541925
4968	0.534391
4952	0.341391
4936	0.062942
4920	0.072550
4904	0.006175
4888	-0.051569
4872	0.452542
4856	0.253891
4840	0.352406
4824	-0.045180
4808	0.317645
4792	0.358057
4776	-0.256776
4760	0.006413
4744	-0.289487
4728	0.441646
4712	-0.335574
4696	0.873780
4680	0.042080
4664	1.849675
4648	-0.556683
4632	0.886297
4616	-0.152134
4600	1.972818
4584	-0.152325
4568	-0.509738
4552	-0.268387
4536	-0.508522
4520	-0.354671
4504	5.199122
4488	12.8776
4472	-0.858473
4456	-0.744891
4440	-0.431346
4424	0.382590
4408	0.273275
4392	0.546336
4376	0.342440
4360	0.495314
4344	0.408172
4328	0.303602
4312	0.406336
4296	0.262546
4280	0.081443
4264	-0.308322
4248	0.268530
4232	-0.224280
4216	0.027298
4200	0.251913
4184	0.443840
4168	0.391507
4152	0.135159
4136	-0.057601
4120	-0.170969
4104	0.175952
4088	-0.060009
4072	0.136661
4056	0.162196
4040	0.165104
4024	-0.017285
4008	0.015711
3992	0.134444
3976	0.077366
3960	0.201249
3944	0.168991
3928	0.150036
3912	0.227928
3896	0.242972
3880	0.230097
3864	0.005555
3848	0.201392
3832	0.009918
3816	-0.060820
3800	0.132632
3784	0.256490
3768	0.046873
3752	0.104999
3736	0.139331
3720	0.042343
3704	-0.057649
3688	0.057268
3672	0.151920
3656	0.037455
3640	0.111150
3624	0.032877
3608	0.018644
3592	0.116753
3576	0.062966
3560	0.217676
3544	-0.009202
3528	0.048828
3512	0.196647
3496	0.177907
3480	0.069952
3464	0.018167
3448	0.144863
3432	-0.084853
3416	0.099229
3400	-0.003004
3384	0.038456
3368	0.058341
3352	0.187683
3336	0.017476
3320	0.158429
3304	-0.135588
3288	0.190138
3272	0.002074
3256	0.049233
3240	0.155591
3224	0.062847
3208	0.030398
3192	-0.002241
3176	0.065112
3160	0.022816
3144	0.088310
3128	-0.003576
3112	0.013184
3096	0.013995
3080	-0.005030
3064	-0.017571
3048	-0.094509
3032	0.074100
3016	0.043845
3000	-0.041818
2984	0.117754
2968	-0.055766
2952	0.108742
2936	0.005841
2920	-0.058341
2904	0.048351
2888	0.085973
2872	-0.033831
2856	-0.019836
2840	0.234580
2824	0.038766
2808	0.051951
2792	0.075340
2776	0.000786
2760	-0.040149
2744	-0.026297
2728	0.053215
2712	-0.040841
2696	0.131893
2680	-0.042700
2664	0.107574
2648	0.025415
2632	0.029730
2616	-0.005340
2600	0.030994
2584	0.020885
2568	0.050640
2552	0.015449
2536	0.025868
2520	-0.024819
2504	-0.043582
2488	-0.023198
2472	0.055170
2456	0.090861
2440	0.027656
2424	0.137639
2408	0.048685
2392	0.066471
2376	0.202012
2360	0.334596
2344	0.401735
2328	0.442099
2312	0.551986
2296	0.755333
2280	1.350045
2264	1.606178
2248	2.215981
2232	3.012585
2216	3.816986
2200	4.904460
2184	6.301188
2168	7.873010
2152	9.389281
2136	11.2554
2120	13.1344
2104	15.1151
2088	16.8554
2072	18.714
2056	20.4572
2040	22.0343
2024	23.4168
2008	24.9232
1992	26.1242
1976	27.1508
1960	28.1854
1944	28.9905
1928	29.7931
1912	30.4629
1896	31.1148
1880	31.5151
1864	32.0224
1848	32.4002
1832	32.8234
1816	32.9719
1800	33.1814
1784	33.4064
1768	33.6938
1752	33.7532
1736	33.8586
1720	34.0169
1704	34.1393
1688	34.1373
1672	34.3995
1656	34.4994
1640	34.4867
1624	34.6291
1608	34.5316
1592	34.6432
1576	34.5553
1560	34.6922
1544	34.7864
1528	34.8115
1512	34.7199
1496	34.6839
1480	34.8455
1464	34.8651
1448	34.8202
1432	34.8376
1416	34.9683
1400	34.9935
1384	34.9847
1368	34.8206
1352	34.902
1336	35.0228
1320	34.9629
1304	34.86
1288	34.9306
1272	35.005
1256	35.0198
1240	34.8581
1224	35.0386
1208	35.1444
1192	35.0907
1176	35.1032
1160	34.8899
1144	34.9757
1128	35.119
1112	34.8869
1096	35.1488
1080	34.7354
1064	35.0726
1048	34.9936
1032	34.5859
1016	34.8761
1000	34.9132
984	 34.6665
968	 34.441
952	 34.4847
936	 34.5847
920	 34.2314
904	 34.0471
888	 33.9171
872	 34.1726
856	 34.1326
840	 33.5544
824	 33.2734
808	 33.6989
792	 33.3628
776	 32.9458
760	 32.7394
744	 32.7051
728	 32.5037
712	 31.9869
696	 31.589
680	 31.9846
664	 31.6577
648	 30.9686
632	 30.7956
616	 31.1596
600	 30.9179
584	 29.3647
568	 29.0983
552	 28.8228
536	 29.3179
520	 27.7569
504	 26.832
488	 27.2153
472	 26.9139
456	 25.3414
440	 24.9826
424	 24.2201
408	 21.4194
392	 19.1506
376	 -8.535623
370	 0.264859