File: Bakgrunnsmateriale/MATLAB/FTIR/ftir_data/LPE453/Mapping_121/LPE453_t31.asc
PE IR       SPECTRUM    SPECTRUM    ASCII       PEDS        1.60
  -1
LPCF9D~1.ASC
17/05/16
16:54:09.00
17/05/16
16:54:35.00
tln
$LPE453_t0031$<tbV0>[-7.8,-7.8,8.0,0.0,27,1,0]
27.028
64

2002,4.07
MIRTGS : RIGHTBACK : INTERNAL 2
MIR : ON : INTERNAL 2
OPTKBR

0.200000
8
8.000000
FILLER
RATIO
SPECTRUM
UNLOCKED 256

DOUBLE
64
COMBINED
1
0
0

0.002000
RATIO

1
0
TRUE
51149
0
LEFT NOT FITTED RIGHT NOT FITTED 0
NONE
NONE
15600
12
4.427000
51148
TRUE
1 0 8 72 0 0 0 0

15798

#HDR
-1
-1
#GR
µM
%T
2.38419e-05
0.0
2.000000
0.002000
12515
8
37.317
-0.886054
#DATA
2.000000	 0.082755
2.084000	 0.349589
2.168000	 0.676198
2.252000	 0.420852
2.336000	 -0.058693
2.420000	 -0.047007
2.504000	 -0.022696
2.588000	 0.056403
2.672000	 -0.042299
2.756000	 -0.035268
2.840000	 0.069918
2.924000	 0.131051
3.008000	 0.035270
3.092000	 0.065647
3.176000	 -0.092091
3.260000	 0.050128
3.344000	 0.133099
3.428000	 -0.055166
3.512000	 0.246432
3.596000	 0.165977
3.680000	 -0.077617
3.764000	 0.125034
3.848000	 -0.065835
3.932000	 0.080510
4.016000	 -0.040520
4.100000	 0.030968
4.184000	 0.176395
4.268000	 0.432569
4.352000	 1.010062
4.436000	 2.385098
4.520000	 5.106101
4.604000	 9.178628
4.688000	 14.1425
4.772000	 19.1178
4.856000	 23.5451
4.940000	 27.0449
5.024000	 29.7419
5.108000	 31.7903
5.192000	 33.2244
5.276000	 34.402
5.359999	 35.0899
5.444000	 35.7091
5.528000	 36.0866
5.612000	 36.1957
5.696000	 36.5789
5.780000	 36.4596
5.864000	 36.8079
5.948000	 36.6769
6.032000	 36.8313
6.116000	 37.0384
6.200000	 36.7704
6.284000	 36.9926
6.368000	 37.005
6.452000	 36.7066
6.536000	 36.8936
6.620000	 37.2271
6.704000	 36.8194
6.788000	 36.821
6.872000	 37.0377
6.956000	 36.8219
7.040000	 36.6852
7.124000	 36.8228
7.208000	 37.1191
7.292000	 36.8899
7.376000	 36.4672
7.460000	 36.7455
7.544000	 37.1618
7.628000	 36.8565
7.712000	 36.4632
7.796000	 36.5025
7.880000	 36.9656
7.964000	 37.1025
8.048000	 36.6752
8.132000	 36.3276
8.216000	 36.4935
8.300000	 36.6887
8.384000	 36.998
8.468000	 36.8374
8.552000	 36.3302
8.635999	 36.0502
8.719999	 36.3659
8.804000	 36.7883
8.888000	 36.7913
8.972000	 36.3983
9.056000	 35.8792
9.140000	 36.0407
9.224000	 36.1269
9.308000	 36.6522
9.391999	 36.8341
9.475999	 36.4393
9.560000	 36.1542
9.644000	 35.7764
9.728000	 35.6825
9.812000	 36.0998
9.896000	 36.3292
9.980000	 36.5826
10.064	36.4911
10.148	36.0336
10.232	35.535
10.316	35.386
10.4	35.4671
10.484	35.9154
10.568	36.0718
10.652	36.2602
10.736	36.1116
10.82	35.9808
10.904	35.8121
10.988	35.2639
11.072	34.9715
11.156	34.8178
11.24	35.1742
11.324	35.3847
11.408	35.7611
11.492	36.0479
11.576	35.8028
11.66	35.3752
11.744	34.8725
11.828	34.4392
11.912	34.4121
11.996	34.577
12.08	34.5352
12.164	34.5849
12.248	34.8786
12.332	35.0737
12.416	34.8961
12.5	35.0455
12.584	34.8376
12.668	34.4338
12.752	34.2107
12.836	33.9716
12.92	33.8351
13.004	33.7271
13.088	33.7594
13.172	34.0676
13.256	34.3806
13.34	34.2829
13.424	34.3735
13.508	34.6638
13.592	34.6424
13.676	34.2956
13.76	33.8105
13.844	33.4379
13.928	33.2817
14.012	33.062
14.096	32.7211
14.18	32.466
14.264	32.4019
14.348	32.6608
14.432	33.2539
14.516	33.7089
14.6	33.696
14.684	33.5586
14.768	33.5654
14.852	33.5698
14.936	33.4853
15.02	33.3675
15.104	33.1744
15.188	32.8548
15.272	32.5264
15.356	32.3227
15.44	32.1495
15.524	31.8609
15.608	31.6354
15.692	31.6797
15.776	31.8649
15.86	32.0831
15.944	32.3491
16.028	32.5611
16.112	32.6549
16.196	32.6444
16.28	32.4856
16.364	32.2661
16.448	32.169
16.532	32.0998
16.616	31.8695
16.7	31.5675
16.784	31.3453
16.868	31.1921
16.952	31.0889
17.036	31.0618
17.12	31.0486
17.204	30.9441
17.288	30.7626
17.372	30.6255
17.456	30.6378
17.54	30.818
17.624	31.0802
17.708	31.2552
17.792	31.2061
17.876	30.9591
17.96	30.688
18.044	30.5695
18.128	30.6849
18.212	30.9823
18.296	31.2952
18.38	31.4408
18.464	31.3488
18.548	31.1041
18.632	30.8552
18.716	30.6848
18.8	30.5598
18.884	30.3673
18.968	30.0383
19.052	29.6482
19.136	29.3549
19.22	29.2369
19.304	29.2215
19.388	29.1693
19.472	29.0011
19.556	28.7445
19.64	28.5008
19.724	28.381
19.808	28.4514
19.892	28.696
19.976	29.0123
20.06	29.2614
20.144	29.3448
20.228	29.2536
20.312	29.0678
20.396	28.9102
20.48	28.8989
20.564	29.0872
20.648	29.4232
20.732	29.7591
20.816	29.9252
20.9	29.8398
20.984	29.5528
21.068	29.2088
21.152	28.9599
21.236	28.8771
21.32	28.9108
21.404	28.9297
21.488	28.793
21.572	28.4311
21.656	27.8756
21.74	27.2505
21.824	26.7431
21.908	26.5355
21.992	26.7253
22.076	27.272
22.16	27.9741
22.244	28.5462
22.328	28.7599
22.412	28.5631
22.496	28.1422
22.58	27.7993
22.664	27.8022
22.748	28.257
22.832	29.0617
22.916	29.9655
23	30.7201
23.084	31.1392
23.168	31.137
23.252	30.7395
23.336	30.0334
23.42	29.1302
23.504	28.1439
23.588	27.1921
23.672	26.3948
23.756	25.8722
23.84	25.7373
23.924	26.0895
24.008	26.9657
24.092	28.2714
24.176	29.743
24.26	30.9088
24.344	31.1253
24.428	29.8769
24.512	26.999
24.596	22.833
24.68	18.1628
24.764	13.967
24.848	11.0062
24.932	9.663177
25.016	9.792563
25.1	10.8398
25.184	12.0657
25.268	12.9062
25.352	13.1647
25.436	13.0104
25.52	12.9146
25.604	13.4351
25.688	15.0201
25.772	17.7281
25.856	21.1378
25.94	24.4466
26.024	26.6616
26.108	26.9762
26.192	25.1727
26.276	21.685
26.36	17.4551
26.444	13.6505
26.528	11.1891
26.612	10.4525
26.696	11.0744
26.78	12.0538
26.864	12.1596
26.948	10.6496
27.028	8.088564