File: Bakgrunnsmateriale/MATLAB/FTIR/ftir_data/LPE453/Mapping_121/LPE453_t34.asc
PE IR       SPECTRUM    SPECTRUM    ASCII       PEDS        1.60
  -1
LPDF99~1.ASC
17/05/16
17:08:36.00
17/05/16
17:09:03.00
tln
$LPE453_t0034$<tbV0>[13.0,-5.2,8.0,0.0,27,1,0]
27.028
64

2002,4.07
MIRTGS : RIGHTBACK : INTERNAL 2
MIR : ON : INTERNAL 2
OPTKBR

0.200000
8
8.000000
FILLER
RATIO
SPECTRUM
UNLOCKED 256

DOUBLE
64
COMBINED
1
0
0

0.002000
RATIO

1
0
TRUE
51149
0
LEFT NOT FITTED RIGHT NOT FITTED 0
NONE
NONE
15600
12
4.427000
51148
TRUE
1 0 8 72 0 0 0 0

15798

#HDR
-1
-1
#GR
µM
%T
2.38419e-05
0.0
2.000000
0.002000
12515
8
36.4946
-18.1822
#DATA
2.000000	 -0.196623
2.084000	 0.296910
2.168000	 0.982151
2.252000	 -0.659469
2.336000	 0.131435
2.420000	 -0.088618
2.504000	 0.063663
2.588000	 -0.000134
2.672000	 0.077368
2.756000	 0.099514
2.840000	 0.019573
2.924000	 0.085145
3.008000	 0.114174
3.092000	 0.138921
3.176000	 -0.045768
3.260000	 -0.058629
3.344000	 0.126342
3.428000	 -0.009690
3.512000	 0.230381
3.596000	 -0.009213
3.680000	 0.086802
3.764000	 0.017482
3.848000	 -0.053423
3.932000	 0.037718
4.016000	 0.110806
4.100000	 0.017281
4.184000	 -0.066836
4.268000	 -0.130268
4.352000	 0.066444
4.436000	 0.192026
4.520000	 0.966506
4.604000	 2.527263
4.688000	 4.858468
4.772000	 7.805763
4.856000	 11.1361
4.940000	 14.1567
5.024000	 16.693
5.108000	 18.711
5.192000	 20.4033
5.276000	 21.6809
5.359999	 22.7183
5.444000	 23.4226
5.528000	 24.0948
5.612000	 24.4886
5.696000	 24.7531
5.780000	 25.0243
5.864000	 25.2394
5.948000	 25.4016
6.032000	 25.5028
6.116000	 25.6166
6.200000	 25.6831
6.284000	 25.7517
6.368000	 25.8082
6.452000	 25.8571
6.536000	 25.8896
6.620000	 25.9003
6.704000	 25.8051
6.788000	 25.8147
6.872000	 25.7436
6.956000	 25.8799
7.040000	 25.7579
7.124000	 25.8274
7.208000	 25.8846
7.292000	 25.5987
7.376000	 25.7812
7.460000	 25.7915
7.544000	 25.6242
7.628000	 25.6105
7.712000	 25.6847
7.796000	 25.5435
7.880000	 25.4727
7.964000	 25.5162
8.048000	 25.4355
8.132000	 25.3266
8.216000	 25.2697
8.300000	 25.3734
8.384000	 25.0991
8.468000	 25.0733
8.552000	 25.2063
8.635999	 25.1333
8.719999	 24.9808
8.804000	 24.8123
8.888000	 24.8377
8.972000	 24.8476
9.056000	 24.8733
9.140000	 24.4432
9.224000	 24.4872
9.308000	 24.5041
9.391999	 24.5665
9.475999	 24.5746
9.560000	 24.3357
9.644000	 24.3327
9.728000	 24.1452
9.812000	 24.3349
9.896000	 24.0847
9.980000	 23.7602
10.064	23.8154
10.148	23.752
10.232	23.709
10.316	23.4978
10.4	23.3295
10.484	23.2835
10.568	23.2446
10.652	23.3479
10.736	23.1938
10.82	23.0767
10.904	22.9676
10.988	22.7563
11.072	22.5803
11.156	22.6305
11.24	22.5948
11.324	22.6756
11.408	22.5463
11.492	22.4459
11.576	22.3323
11.66	22.3078
11.744	22.2527
11.828	22.2015
11.912	21.9878
11.996	21.9031
12.08	21.8261
12.164	21.6747
12.248	21.3998
12.332	21.3002
12.416	21.3677
12.5	21.4502
12.584	21.4378
12.668	21.1505
12.752	20.9439
12.836	20.8634
12.92	20.6608
13.004	20.698
13.088	20.8443
13.172	21.0116
13.256	21.0443
13.34	20.9656
13.424	20.874
13.508	20.5667
13.592	20.2562
13.676	20.1907
13.76	20.065
13.844	19.9184
13.928	19.845
14.012	19.8451
14.096	19.9312
14.18	20.0077
14.264	19.8837
14.348	19.5431
14.432	19.3599
14.516	19.4336
14.6	19.3385
14.684	19.1134
14.768	19.0863
14.852	19.019
14.936	18.8145
15.02	18.8541
15.104	19.074
15.188	19.1137
15.272	19.0093
15.356	18.8695
15.44	18.5836
15.524	18.201
15.608	18.0244
15.692	18.0837
15.776	18.1172
15.86	18.0326
15.944	17.9126
16.028	17.8407
16.112	17.8434
16.196	17.8098
16.28	17.6408
16.364	17.4709
16.448	17.4446
16.532	17.405
16.616	17.1765
16.7	16.9123
16.784	16.826
16.868	16.885
16.952	16.9731
17.036	17.0686
17.12	17.1272
17.204	17.0614
17.288	16.954
17.372	17.0167
17.456	17.2699
17.54	17.4895
17.624	17.5103
17.708	17.3603
17.792	17.1092
17.876	16.7896
17.96	16.435
18.044	16.0766
18.128	15.7448
18.212	15.5069
18.296	15.4202
18.38	15.4254
18.464	15.4169
18.548	15.4
18.632	15.4617
18.716	15.609
18.8	15.7353
18.884	15.7336
18.968	15.6028
19.052	15.4381
19.136	15.3459
19.22	15.3799
19.304	15.5147
19.388	15.6618
19.472	15.7026
19.556	15.5296
19.64	15.1075
19.724	14.5338
19.808	14.0076
19.892	13.7044
19.976	13.6615
20.06	13.7891
20.144	13.9638
20.228	14.1168
20.312	14.2442
20.396	14.3724
20.48	14.5284
20.564	14.7212
20.648	14.9241
20.732	15.0734
20.816	15.0952
20.9	14.9482
20.984	14.6367
21.068	14.2136
21.152	13.7649
21.236	13.3994
21.32	13.2123
21.404	13.2401
21.488	13.4275
21.572	13.6445
21.656	13.7583
21.74	13.7084
21.824	13.5377
21.908	13.3576
21.992	13.2726
22.076	13.329
22.16	13.4962
22.244	13.6988
22.328	13.8656
22.412	13.9712
22.496	14.0454
22.58	14.1338
22.664	14.2559
22.748	14.3972
22.832	14.533
22.916	14.6286
23	14.6828
23.084	14.7099
23.168	14.7172
23.252	14.6909
23.336	14.5979
23.42	14.4054
23.504	14.0827
23.588	13.6263
23.672	13.0718
23.756	12.501
23.84	12.0566
23.924	11.8859
24.008	12.0196
24.092	12.2777
24.176	12.304
24.26	11.6986
24.344	10.1933
24.428	7.853249
24.512	5.133036
24.596	2.658327
24.68	1.018421
24.764	0.533811
24.848	1.109267
24.932	2.260730
25.016	3.326682
25.1	3.764667
25.184	3.220309
25.268	1.675703
25.352	-0.567629
25.436	-3.003399
25.52	-5.085321
25.604	-6.368745
25.688	-6.516791
25.772	-5.406876
25.856	-3.188171
25.94	-0.295040
26.024	2.565836
26.108	4.585042
26.192	5.084149
26.276	3.714666
26.36	0.627811
26.444	-3.693197
26.528	-8.532480
26.612	-13.1344
26.696	-16.6321
26.78	-18.1634
26.864	-17.0208
26.948	-12.8644
27.028	-6.312179