File: Bakgrunnsmateriale/MATLAB/FTIR/ftir_data/LPE453/Mapping_121/LPE453_e125_cm-1.asc
PE IR       SPECTRUM    SPECTRUM    ASCII       PEDS        1.60
  -1
LP08BB~1.ASC
17/05/16
19:49:28.00
17/05/16
19:49:28.00
tln
$LPE453_e0125$<ebV0>[-23.3,12.1,10.0,0.0,27,1,0]
370
64

2002,4.07
MIRTGS : RIGHTBACK : INTERNAL 2
MIR : ON : INTERNAL 2
OPTKBR

0.200000
8
8.000000
FILLER
SINGLE
SPECTRUM
UNLOCKED 256

DOUBLE

COMBINED
1
0
0

1.000000
BACKG

1
0
TRUE
51149
0
LEFT NOT FITTED RIGHT NOT FITTED 0
NONE
NONE
15600
12
4.427000
51148
TRUE
1 0 8 72 0 0 0 0

15798

#HDR
-1
-1
#GR
CM-1
EGY
2.38419e-05
0.0
5000
-1.000000
4631
8
2.421069
0.007271
#DATA
5000	0.766324
4984	0.778579
4968	0.782632
4952	0.788092
4936	0.791406
4920	0.797486
4904	0.805377
4888	0.814080
4872	0.819921
4856	0.824880
4840	0.838208
4824	0.846672
4808	0.858187
4792	0.866246
4776	0.879645
4760	0.884699
4744	0.888681
4728	0.894284
4712	0.905704
4696	0.907182
4680	0.894713
4664	0.896191
4648	0.926065
4632	0.918698
4616	0.920486
4600	0.935626
4584	0.948667
4568	0.955247
4552	0.967001
4536	0.979351
4520	0.999069
4504	1.004147
4488	0.852012
4472	1.049351
4456	1.013183
4440	1.014852
4424	1.020097
4408	1.021528
4392	1.025867
4376	1.036286
4360	1.047229
4344	1.058340
4328	1.079559
4312	1.095533
4296	1.113510
4280	1.131510
4264	1.147508
4248	1.159071
4232	1.170969
4216	1.180553
4200	1.189994
4184	1.191020
4168	1.205754
4152	1.215791
4136	1.224350
4120	1.240658
4104	1.254439
4088	1.267886
4072	1.294016
4056	1.312994
4040	1.334118
4024	1.354360
4008	1.375699
3992	1.385569
3976	1.396250
3960	1.406216
3944	1.411724
3928	1.417255
3912	1.424551
3896	1.427125
3880	1.435494
3864	1.441073
3848	1.452279
3832	1.470589
3816	1.486730
3800	1.504302
3784	1.528692
3768	1.539444
3752	1.534748
3736	1.549267
3720	1.563072
3704	1.563024
3688	1.558709
3672	1.553821
3656	1.562166
3640	1.570105
3624	1.568651
3608	1.574754
3592	1.585102
3576	1.592850
3560	1.601266
3544	1.605343
3528	1.607823
3512	1.608991
3496	1.605391
3480	1.597356
3464	1.591730
3448	1.581263
3432	1.570820
3416	1.573038
3400	1.578879
3384	1.591324
3368	1.606130
3352	1.628732
3336	1.653289
3320	1.674246
3304	1.696491
3288	1.718568
3272	1.735353
3256	1.749086
3240	1.760149
3224	1.766180
3208	1.770305
3192	1.773405
3176	1.778531
3160	1.784348
3144	1.795864
3128	1.810956
3112	1.835846
3096	1.861476
3080	1.891589
3064	1.913714
3048	1.940703
3032	1.955461
3016	1.941633
3000	2.002716
2984	2.007055
2968	1.938986
2952	1.902675
2936	1.798009
2920	1.786756
2904	1.928782
2888	1.977539
2872	1.963496
2856	1.909756
2840	2.046990
2824	2.105641
2808	2.143645
2792	2.171611
2776	2.200722
2760	2.221536
2744	2.230048
2728	2.233219
2712	2.229762
2696	2.223396
2680	2.217149
2664	2.203989
2648	2.199292
2632	2.199053
2616	2.200031
2600	2.202653
2584	2.215290
2568	2.239155
2552	2.258419
2536	2.280950
2520	2.291560
2504	2.297616
2488	2.300834
2472	2.293133
2456	2.279376
2440	2.265262
2424	2.248167
2408	2.237915
2392	2.227401
2376	2.219033
2360	2.211833
2344	2.235817
2328	2.257633
2312	2.286958
2296	2.312469
2280	2.330660
2264	2.342486
2248	2.349758
2232	2.348303
2216	2.340722
2200	2.329516
2184	2.317094
2168	2.305293
2152	2.303981
2136	2.303457
2120	2.305483
2104	2.305126
2088	2.305388
2072	2.322459
2056	2.356576
2040	2.385616
2024	2.406358
2008	2.418422
1992	2.420115
1976	2.410316
1960	2.395725
1944	2.382469
1928	2.368831
1912	2.350044
1896	2.334046
1880	2.338242
1864	2.343583
1848	2.354407
1832	2.366971
1816	2.385568
1800	2.390122
1784	2.390384
1768	2.373552
1752	2.348279
1736	2.290034
1720	2.273464
1704	2.237820
1688	2.214121
1672	2.194023
1656	2.143359
1640	2.118110
1624	2.073192
1608	1.943540
1592	1.981306
1576	1.952123
1560	1.897335
1544	1.924991
1528	2.072763
1512	2.056550
1496	1.676487
1480	1.930618
1464	1.908159
1448	1.758456
1432	1.843404
1416	1.813554
1400	1.706314
1384	1.755809
1368	1.788806
1352	1.785874
1336	1.797366
1320	1.822400
1304	1.824426
1288	1.825070
1272	1.774930
1256	1.728773
1240	1.806497
1224	1.786136
1208	1.723933
1192	1.714825
1176	1.673913
1160	1.606154
1144	1.578426
1128	1.519489
1112	1.436829
1096	1.405358
1080	1.408958
1064	1.415181
1048	1.289772
1032	1.360511
1016	1.344108
1000	1.380300
984	 1.360797
968	 1.321625
952	 1.267862
936	 1.233625
920	 1.197433
904	 1.142573
888	 1.104593
872	 1.023626
856	 1.075911
840	 1.042866
824	 0.831675
808	 0.933837
792	 0.944805
776	 0.963544
760	 0.950551
744	 0.928044
728	 0.888895
712	 0.844693
696	 0.781607
680	 0.723695
664	 0.694870
648	 0.656723
632	 0.613498
616	 0.570154
600	 0.514507
584	 0.499558
568	 0.485754
552	 0.459837
536	 0.428509
520	 0.391221
504	 0.353670
488	 0.301408
472	 0.249242
456	 0.195097
440	 0.149154
424	 0.096249
408	 0.054430
392	 0.025820
376	 0.009608
370	 0.007271