File: Bakgrunnsmateriale/MATLAB/FTIR/ftir_data/LPE453/Mapping_121/LPE453_e125.asc
PE IR       SPECTRUM    SPECTRUM    ASCII       PEDS        1.60
  -1
LP8783~1.ASC
17/05/16
19:49:28.00
17/05/16
19:49:54.00
tln
$LPE453_e0125$<ebV0>[-23.3,12.1,10.0,0.0,27,1,0]
27.028
64

2002,4.07
MIRTGS : RIGHTBACK : INTERNAL 2
MIR : ON : INTERNAL 2
OPTKBR

0.200000
8
8.000000
FILLER
SINGLE
SPECTRUM
UNLOCKED 256

DOUBLE

COMBINED
1
0
0

0.002000
BACKG

1
0
TRUE
51149
0
LEFT NOT FITTED RIGHT NOT FITTED 0
NONE
NONE
15600
12
4.427000
51148
TRUE
1 0 8 72 0 0 0 0

15798

#HDR
-1
-1
#GR
µM
EGY
2.38419e-05
0.0
2.000000
0.002000
12515
8
2.421068
0.007271
#DATA
2.000000	 0.766324
2.084000	 0.861894
2.168000	 0.923527
2.252000	 1.014751
2.336000	 1.130766
2.420000	 1.227328
2.504000	 1.384842
2.588000	 1.441083
2.672000	 1.541613
2.756000	 1.565471
2.840000	 1.610964
2.924000	 1.569549
3.008000	 1.668710
3.092000	 1.763245
3.176000	 1.793882
3.260000	 1.909734
3.344000	 2.010488
3.428000	 1.820814
3.512000	 1.992787
3.596000	 2.192009
3.680000	 2.232579
3.764000	 2.201590
3.848000	 2.203392
3.932000	 2.270071
4.016000	 2.300125
4.100000	 2.264776
4.184000	 2.226824
4.268000	 2.236051
4.352000	 2.309272
4.436000	 2.346063
4.520000	 2.338411
4.604000	 2.306567
4.688000	 2.302601
4.772000	 2.305064
4.856000	 2.350965
4.940000	 2.406094
5.024000	 2.419500
5.108000	 2.394544
5.192000	 2.366029
5.276000	 2.333675
5.359999	 2.342076
5.444000	 2.367248
5.528000	 2.391589
5.612000	 2.390337
5.696000	 2.359282
5.780000	 2.288036
5.864000	 2.244744
5.948000	 2.202390
6.032000	 2.155476
6.116000	 2.102954
6.200000	 1.977378
6.284000	 1.981352
6.368000	 1.947531
6.452000	 1.926550
6.536000	 2.063803
6.620000	 2.048485
6.704000	 1.663666
6.788000	 1.944807
6.872000	 1.765335
6.956000	 1.835435
7.040000	 1.827489
7.124000	 1.701959
7.208000	 1.758400
7.292000	 1.787591
7.376000	 1.787611
7.460000	 1.788895
7.544000	 1.819518
7.628000	 1.826068
7.712000	 1.825085
7.796000	 1.820698
7.880000	 1.743605
7.964000	 1.732637
8.048000	 1.805457
8.132000	 1.798854
8.216000	 1.758170
8.300000	 1.720520
8.384000	 1.715983
8.468000	 1.687127
8.552000	 1.650815
8.635999	 1.599055
8.719999	 1.584527
8.804000	 1.552479
8.888000	 1.505833
8.972000	 1.449839
9.056000	 1.412232
9.140000	 1.404430
9.224000	 1.410344
9.308000	 1.409043
9.391999	 1.416093
9.475999	 1.339673
9.560000	 1.307956
9.644000	 1.366292
9.728000	 1.351497
9.812000	 1.338963
9.896000	 1.360083
9.980000	 1.379654
10.064	1.377008
10.148	1.363758
10.232	1.346434
10.316	1.325791
10.4	1.299852
10.484	1.273421
10.568	1.252655
10.652	1.238022
10.736	1.224292
10.82	1.207605
10.904	1.188187
10.988	1.159964
11.072	1.141179
11.156	1.134330
11.24	1.115010
11.324	1.061870
11.408	1.016668
11.492	1.033958
11.576	1.069376
11.66	1.077159
11.744	1.070177
11.828	1.060796
11.912	1.039956
11.996	0.975850
12.08	0.867778
12.164	0.836990
12.248	0.899790
12.332	0.933030
12.416	0.931390
12.5	0.929093
12.584	0.937523
12.668	0.952216
12.752	0.962584
12.836	0.964795
12.92	0.962253
13.004	0.958700
13.088	0.954919
13.172	0.949449
13.256	0.941903
13.34	0.934605
13.424	0.929410
13.508	0.920385
13.592	0.908600
13.676	0.897532
13.76	0.885297
13.844	0.873064
13.928	0.862280
14.012	0.850154
14.096	0.835812
14.18	0.821379
14.264	0.806564
14.348	0.787394
14.432	0.759591
14.516	0.731715
14.6	0.720781
14.684	0.723138
14.768	0.722717
14.852	0.716595
14.936	0.708142
15.02	0.698966
15.104	0.690917
15.188	0.684148
15.272	0.676212
15.356	0.666263
15.44	0.655735
15.524	0.645224
15.608	0.634713
15.692	0.625190
15.776	0.617333
15.86	0.610494
15.944	0.603475
16.028	0.595624
16.112	0.586784
16.196	0.575998
16.28	0.561951
16.364	0.544859
16.448	0.528298
16.532	0.517418
16.616	0.514117
16.7	0.515071
16.784	0.515474
16.868	0.512962
16.952	0.508279
17.036	0.503433
17.12	0.499680
17.204	0.496904
17.288	0.494520
17.372	0.492357
17.456	0.490376
17.54	0.488093
17.624	0.485016
17.708	0.481256
17.792	0.477084
17.876	0.472829
17.96	0.468497
18.044	0.463993
18.128	0.459107
18.212	0.453984
18.296	0.449033
18.38	0.444602
18.464	0.440343
18.548	0.435554
18.632	0.430156
18.716	0.424725
18.8	0.419652
18.884	0.414624
18.968	0.409128
19.052	0.403210
19.136	0.397320
19.22	0.391883
19.304	0.386962
19.388	0.382478
19.472	0.378236
19.556	0.373870
19.64	0.368869
19.724	0.362982
19.808	0.356379
19.892	0.349471
19.976	0.342603
20.06	0.336011
20.144	0.329697
20.228	0.323521
20.312	0.317183
20.396	0.310229
20.48	0.302538
20.564	0.294325
20.648	0.286186
20.732	0.278612
20.816	0.271970
20.9	0.266316
20.984	0.261301
21.068	0.256530
21.152	0.251474
21.236	0.245950
21.32	0.240013
21.404	0.233956
21.488	0.228003
21.572	0.222104
21.656	0.216204
21.74	0.210077
21.824	0.203642
21.908	0.196881
21.992	0.190008
22.076	0.183366
22.16	0.177255
22.244	0.171931
22.328	0.167398
22.412	0.163475
22.496	0.159853
22.58	0.156202
22.664	0.152322
22.748	0.148054
22.832	0.143426
22.916	0.138425
23	0.133051
23.084	0.127464
23.168	0.121768
23.252	0.116123
23.336	0.110701
23.42	0.105572
23.504	0.100727
23.588	0.096081
23.672	0.091608
23.756	0.087324
23.84	0.083266
23.924	0.079416
24.008	0.075773
24.092	0.072234
24.176	0.068681
24.26	0.065075
24.344	0.061418
24.428	0.057787
24.512	0.054344
24.596	0.051184
24.68	0.048390
24.764	0.045981
24.848	0.043744
24.932	0.041585
25.016	0.039334
25.1	0.036984
25.184	0.034525
25.268	0.032020
25.352	0.029642
25.436	0.027518
25.52	0.025613
25.604	0.023976
25.688	0.022530
25.772	0.021167
25.856	0.019812
25.94	0.018407
26.024	0.016915
26.108	0.015360
26.192	0.013874
26.276	0.012507
26.36	0.011351
26.444	0.010487
26.528	0.009902
26.612	0.009548
26.696	0.009272
26.78	0.008988
26.864	0.008576
26.948	0.007966
27.028	0.007271