File: Bakgrunnsmateriale/MATLAB/FTIR/ftir_data/LPE453/Mapping_121/LPE453_t69.asc
PE IR       SPECTRUM    SPECTRUM    ASCII       PEDS        1.60
  -1
LPEBAD~1.ASC
17/05/16
20:04:17.00
17/05/16
20:04:44.00
tln
$LPE453_t0069$<tbV0>[7.8,2.6,8.0,0.0,27,1,0]
27.028
64

2002,4.07
MIRTGS : RIGHTBACK : INTERNAL 2
MIR : ON : INTERNAL 2
OPTKBR

0.200000
8
8.000000
FILLER
RATIO
SPECTRUM
UNLOCKED 256

DOUBLE
64
COMBINED
1
0
0

0.002000
RATIO

1
0
TRUE
51149
0
LEFT NOT FITTED RIGHT NOT FITTED 0
NONE
NONE
15600
12
4.427000
51148
TRUE
1 0 8 72 0 0 0 0

15798

#HDR
-1
-1
#GR
µM
%T
2.38419e-05
0.0
2.000000
0.002000
12515
8
29.3256
-8.970807
#DATA
2.000000	 0.450301
2.084000	 -0.109334
2.168000	 0.023461
2.252000	 -0.602376
2.336000	 0.189706
2.420000	 -0.000628
2.504000	 0.056558
2.588000	 -0.004918
2.672000	 -0.003998
2.756000	 0.037959
2.840000	 0.190745
2.924000	 -0.060504
3.008000	 0.058673
3.092000	 0.013888
3.176000	 0.017893
3.260000	 0.018710
3.344000	 0.038007
3.428000	 -0.024642
3.512000	 0.033718
3.596000	 0.049755
3.680000	 -0.082633
3.764000	 0.120182
3.848000	 -0.018234
3.932000	 0.079714
4.016000	 0.113600
4.100000	 -0.091054
4.184000	 -0.065423
4.268000	 -0.055162
4.352000	 0.038077
4.436000	 0.156141
4.520000	 0.930630
4.604000	 2.677848
4.688000	 5.197819
4.772000	 8.656553
4.856000	 12.3285
4.940000	 15.8562
5.024000	 18.7958
5.108000	 21.1557
5.192000	 22.9018
5.276000	 24.3014
5.359999	 25.2611
5.444000	 25.8901
5.528000	 26.4967
5.612000	 26.8932
5.696000	 27.2261
5.780000	 27.2913
5.864000	 27.4146
5.948000	 27.592
6.032000	 27.6316
6.116000	 27.676
6.200000	 27.5592
6.284000	 27.5677
6.368000	 27.3811
6.452000	 27.513
6.536000	 27.4806
6.620000	 27.4671
6.704000	 27.1822
6.788000	 27.2643
6.872000	 27.2063
6.956000	 27.1685
7.040000	 27.1473
7.124000	 27.092
7.208000	 27.154
7.292000	 27.0512
7.376000	 26.93
7.460000	 26.8433
7.544000	 26.8453
7.628000	 26.6897
7.712000	 26.7442
7.796000	 26.6368
7.880000	 26.565
7.964000	 26.5652
8.048000	 26.3902
8.132000	 26.288
8.216000	 26.3061
8.300000	 26.3297
8.384000	 26.3384
8.468000	 26.1058
8.552000	 26.1239
8.635999	 25.9938
8.719999	 25.7363
8.804000	 25.9021
8.888000	 25.8704
8.972000	 25.7915
9.056000	 25.6532
9.140000	 25.5126
9.224000	 25.6243
9.308000	 25.3503
9.391999	 25.3638
9.475999	 25.244
9.560000	 25.1455
9.644000	 24.9961
9.728000	 24.8418
9.812000	 24.9886
9.896000	 24.7898
9.980000	 24.7224
10.064	24.5963
10.148	24.5826
10.232	24.4329
10.316	24.4237
10.4	24.4361
10.484	24.2013
10.568	23.9524
10.652	23.9105
10.736	23.662
10.82	23.7331
10.904	23.9795
10.988	23.8274
11.072	23.6569
11.156	23.2633
11.24	23.1494
11.324	23.3757
11.408	23.1687
11.492	22.9905
11.576	22.8846
11.66	22.7489
11.744	22.7481
11.828	22.7102
11.912	22.6084
11.996	22.6167
12.08	22.4671
12.164	22.415
12.248	22.3297
12.332	22.1038
12.416	21.8427
12.5	21.8562
12.584	21.8773
12.668	21.712
12.752	21.4199
12.836	21.2439
12.92	21.2468
13.004	21.0784
13.088	20.8966
13.172	20.6597
13.256	20.8011
13.34	21.0357
13.424	20.9728
13.508	20.7519
13.592	20.5257
13.676	20.4924
13.76	20.5599
13.844	20.5253
13.928	20.3827
14.012	20.1825
14.096	19.9066
14.18	19.6485
14.264	19.5291
14.348	19.5226
14.432	19.5534
14.516	19.5007
14.6	19.3545
14.684	19.2583
14.768	19.1713
14.852	19.0152
14.936	18.9437
15.02	18.9804
15.104	19.0253
15.188	19.0121
15.272	18.8907
15.356	18.7519
15.44	18.6478
15.524	18.4783
15.608	18.225
15.692	17.9985
15.776	17.8914
15.86	17.8964
15.944	17.9311
16.028	17.9276
16.112	17.8613
16.196	17.7096
16.28	17.5305
16.364	17.477
16.448	17.5568
16.532	17.6036
16.616	17.5702
16.7	17.5242
16.784	17.4373
16.868	17.3079
16.952	17.2379
17.036	17.2404
17.12	17.2027
17.204	17.0813
17.288	16.9721
17.372	16.954
17.456	16.953
17.54	16.8188
17.624	16.5288
17.708	16.2174
17.792	15.99
17.876	15.8369
17.96	15.7518
18.044	15.7968
18.128	15.9861
18.212	16.2206
18.296	16.3917
18.38	16.4742
18.464	16.4699
18.548	16.3575
18.632	16.1467
18.716	15.9301
18.8	15.8179
18.884	15.8261
18.968	15.868
19.052	15.8342
19.136	15.6606
19.22	15.3542
19.304	15.0165
19.388	14.7984
19.472	14.7858
19.556	14.9158
19.64	15.0208
19.724	14.9711
19.808	14.775
19.892	14.5443
19.976	14.3821
20.06	14.2919
20.144	14.1855
20.228	13.9789
20.312	13.6987
20.396	13.4836
20.48	13.4602
20.564	13.6151
20.648	13.8001
20.732	13.8729
20.816	13.8262
20.9	13.7714
20.984	13.806
21.068	13.909
21.152	13.9804
21.236	13.957
21.32	13.8699
21.404	13.7988
21.488	13.7851
21.572	13.797
21.656	13.7726
21.74	13.6867
21.824	13.5837
21.908	13.5387
21.992	13.5815
22.076	13.6614
22.16	13.6725
22.244	13.532
22.328	13.2386
22.412	12.8772
22.496	12.5613
22.58	12.3516
22.664	12.2382
22.748	12.1553
22.832	12.0444
22.916	11.9056
23	11.7458
23.084	11.5846
23.168	11.4251
23.252	11.2498
23.336	11.0552
23.42	10.8812
23.504	10.7734
23.588	10.7279
23.672	10.6729
23.756	10.4939
23.84	10.1024
23.924	9.517887
24.008	8.877477
24.092	8.397180
24.176	8.299396
24.26	8.847815
24.344	10.308
24.428	12.8036
24.512	16.2528
24.596	20.2889
24.68	24.2661
24.764	27.4095
24.848	29.1215
24.932	29.0803
25.016	27.4036
25.1	24.5997
25.184	21.5022
25.268	19.0167
25.352	17.9021
25.436	18.4736
25.52	20.429
25.604	23.0056
25.688	25.1763
25.772	25.9619
25.856	24.7144
25.94	21.1996
26.024	15.6896
26.108	8.938759
26.192	2.034227
26.276	-3.854094
26.36	-7.695703
26.444	-8.970807
26.528	-7.803318
26.612	-4.853261
26.696	-1.122006
26.78	2.306059
26.864	4.686576
26.948	5.962973
27.028	6.894373