File: Bakgrunnsmateriale/MATLAB/FTIR/ftir_data/LPE453/Mapping_121/LPE453_t61.asc
PE IR       SPECTRUM    SPECTRUM    ASCII       PEDS        1.60
  -1
LPCBAD~1.ASC
17/05/16
19:20:41.00
17/05/16
19:21:07.00
tln
$LPE453_t0061$<tbV0>[0.0,0.0,8.0,0.0,27,1,0]
27.028
64

2002,4.07
MIRTGS : RIGHTBACK : INTERNAL 2
MIR : ON : INTERNAL 2
OPTKBR

0.200000
8
8.000000
FILLER
RATIO
SPECTRUM
UNLOCKED 256

DOUBLE
64
COMBINED
1
0
0

0.002000
RATIO

1
0
TRUE
51149
0
LEFT NOT FITTED RIGHT NOT FITTED 0
NONE
NONE
15600
12
4.427000
51148
TRUE
1 0 8 72 0 0 0 0

15798

#HDR
-1
-1
#GR
µM
%T
2.38419e-05
0.0
2.000000
0.002000
12515
8
30.3525
-22.3091
#DATA
2.000000	 0.046706
2.084000	 0.447592
2.168000	 0.382796
2.252000	 -0.563211
2.336000	 -0.152838
2.420000	 -0.005028
2.504000	 0.188929
2.588000	 0.040349
2.672000	 0.005343
2.756000	 0.052280
2.840000	 0.010850
2.924000	 0.002829
3.008000	 0.038675
3.092000	 0.091132
3.176000	 0.135523
3.260000	 -0.020484
3.344000	 0.087013
3.428000	 -0.087972
3.512000	 0.106594
3.596000	 -0.053989
3.680000	 0.001020
3.764000	 0.088283
3.848000	 -0.042671
3.932000	 -0.007087
4.016000	 0.052786
4.100000	 -0.016197
4.184000	 0.004904
4.268000	 0.003634
4.352000	 0.169341
4.436000	 0.567753
4.520000	 1.735581
4.604000	 3.946599
4.688000	 7.286069
4.772000	 11.3396
4.856000	 15.4564
4.940000	 18.9877
5.024000	 21.9713
5.108000	 24.2267
5.192000	 26.0339
5.276000	 27.2131
5.359999	 28.1735
5.444000	 28.7994
5.528000	 29.282
5.612000	 29.7344
5.696000	 29.801
5.780000	 29.9206
5.864000	 30.0451
5.948000	 30.2703
6.032000	 30.2614
6.116000	 30.207
6.200000	 30.2474
6.284000	 30.2295
6.368000	 30.206
6.452000	 30.3243
6.536000	 30.0567
6.620000	 30.0957
6.704000	 30.1147
6.788000	 30.1044
6.872000	 29.7585
6.956000	 29.8604
7.040000	 29.8861
7.124000	 29.6695
7.208000	 29.6081
7.292000	 29.6858
7.376000	 29.3532
7.460000	 29.4768
7.544000	 29.5895
7.628000	 29.2586
7.712000	 29.3063
7.796000	 29.3701
7.880000	 29.0815
7.964000	 29.0606
8.048000	 29.1702
8.132000	 28.9802
8.216000	 28.7168
8.300000	 28.7719
8.384000	 29.0771
8.468000	 28.7669
8.552000	 28.454
8.635999	 28.6584
8.719999	 28.724
8.804000	 28.5313
8.888000	 28.2388
8.972000	 28.2106
9.056000	 28.5218
9.140000	 28.3837
9.224000	 27.9289
9.308000	 27.9941
9.391999	 27.8187
9.475999	 27.861
9.560000	 27.7039
9.644000	 27.7252
9.728000	 27.6488
9.812000	 27.6211
9.896000	 27.6907
9.980000	 27.5988
10.064	27.3716
10.148	27.0461
10.232	26.9951
10.316	27.0862
10.4	27.0698
10.484	26.8784
10.568	26.6612
10.652	26.2828
10.736	26.1225
10.82	26.3629
10.904	26.4354
10.988	26.4579
11.072	26.1806
11.156	25.7658
11.24	25.6747
11.324	25.604
11.408	25.5389
11.492	25.7043
11.576	25.8607
11.66	25.6649
11.744	25.3204
11.828	25.1701
11.912	24.9042
11.996	24.918
12.08	24.9427
12.164	24.9088
12.248	24.9608
12.332	24.7754
12.416	24.5359
12.5	24.1914
12.584	24.0688
12.668	24.0023
12.752	24.1588
12.836	24.3641
12.92	24.3419
13.004	24.2885
13.088	24.0716
13.172	23.6964
13.256	23.2784
13.34	23.19
13.424	23.3345
13.508	23.5254
13.592	23.4377
13.676	23.2167
13.76	23.2469
13.844	23.2091
13.928	23.0304
14.012	22.9515
14.096	22.7865
14.18	22.5118
14.264	22.348
14.348	22.3379
14.432	22.2208
14.516	22.003
14.6	21.9941
14.684	22.1144
14.768	22.0881
14.852	21.969
14.936	21.8548
15.02	21.646
15.104	21.4684
15.188	21.4609
15.272	21.4652
15.356	21.4563
15.44	21.4749
15.524	21.4223
15.608	21.2782
15.692	21.081
15.776	20.8707
15.86	20.7187
15.944	20.6364
16.028	20.5749
16.112	20.4861
16.196	20.3193
16.28	20.093
16.364	19.887
16.448	19.705
16.532	19.5588
16.616	19.5674
16.7	19.7559
16.784	19.9321
16.868	19.9478
16.952	19.9239
17.036	20.0274
17.12	20.1443
17.204	20.0119
17.288	19.6427
17.372	19.3083
17.456	19.1577
17.54	19.1209
17.624	19.1147
17.708	19.1505
17.792	19.2274
17.876	19.2562
17.96	19.1495
18.044	18.9485
18.128	18.7938
18.212	18.7544
18.296	18.7807
18.38	18.8381
18.464	18.9566
18.548	19.1131
18.632	19.1821
18.716	19.0631
18.8	18.8046
18.884	18.5441
18.968	18.3795
19.052	18.3206
19.136	18.3019
19.22	18.2282
19.304	18.0477
19.388	17.7918
19.472	17.5294
19.556	17.319
19.64	17.2003
19.724	17.2056
19.808	17.3353
19.892	17.5315
19.976	17.7002
20.06	17.7837
20.144	17.8081
20.228	17.8414
20.312	17.903
20.396	17.9267
20.48	17.8115
20.564	17.5123
20.648	17.0785
20.732	16.6269
20.816	16.2857
20.9	16.1397
20.984	16.195
21.068	16.3708
21.152	16.5353
21.236	16.5676
21.32	16.4204
21.404	16.1467
21.488	15.8678
21.572	15.699
21.656	15.6877
21.74	15.7932
21.824	15.9146
21.908	15.9567
21.992	15.8827
22.076	15.7209
22.16	15.5371
22.244	15.3793
22.328	15.2597
22.412	15.1796
22.496	15.1513
22.58	15.1964
22.664	15.3191
22.748	15.4748
22.832	15.5778
22.916	15.5319
23	15.3017
23.084	14.9336
23.168	14.5497
23.252	14.2868
23.336	14.2518
23.42	14.4608
23.504	14.8384
23.588	15.226
23.672	15.4418
23.756	15.3482
23.84	14.9232
23.924	14.2978
24.008	13.6834
24.092	13.2633
24.176	13.1099
24.26	13.1323
24.344	13.1184
24.428	12.8685
24.512	12.2892
24.596	11.4527
24.68	10.6052
24.764	10.0855
24.848	10.1159
24.932	10.7499
25.016	11.8207
25.1	12.9612
25.184	13.7982
25.268	14.141
25.352	14.0208
25.436	13.6766
25.52	13.4492
25.604	13.6324
25.688	14.3669
25.772	15.5912
25.856	17.0972
25.94	18.5894
26.024	19.7659
26.108	20.4089
26.192	20.4453
26.276	19.8659
26.36	18.6615
26.444	16.7946
26.528	14.1579
26.612	10.6453
26.696	6.085051
26.78	0.341597
26.864	-6.625780
26.948	-14.5602
27.028	-22.3091