File: Bakgrunnsmateriale/MATLAB/FTIR/ftir_data/LPE453/Mapping_121/LPE453_t34_cm-1.asc
PE IR       SPECTRUM    SPECTRUM    ASCII       PEDS        1.60
  -1
LPE85B~1.ASC
17/05/16
17:08:36.00
17/05/16
17:08:36.00
tln
$LPE453_t0034$<tbV0>[13.0,-5.2,8.0,0.0,27,1,0]
370
64

2002,4.07
MIRTGS : RIGHTBACK : INTERNAL 2
MIR : ON : INTERNAL 2
OPTKBR

0.200000
8
8.000000
FILLER
RATIO
SPECTRUM
UNLOCKED 256

DOUBLE
64
COMBINED
1
0
0

1.000000
RATIO

1
0
TRUE
51149
0
LEFT NOT FITTED RIGHT NOT FITTED 0
NONE
NONE
15600
12
4.427000
51148
TRUE
1 0 8 72 0 0 0 0

15798

#HDR
-1
-1
#GR
CM-1
%T
2.38419e-05
0.0
5000
-1.000000
4631
8
40.6374
-18.0939
#DATA
5000	-0.196623
4984	-0.350666
4968	0.251626
4952	-0.393581
4936	0.062775
4920	0.655817
4904	0.099325
4888	-0.065159
4872	0.706291
4856	0.517845
4840	0.173425
4824	0.329923
4808	0.490021
4792	0.180101
4776	0.254607
4760	0.050020
4744	-0.067400
4728	0.121808
4712	0.245881
4696	0.299954
4680	0.560688
4664	0.252485
4648	1.138091
4632	1.005339
4616	1.093745
4600	0.040555
4584	-0.826573
4568	-0.658035
4552	-1.726031
4536	-2.694296
4520	16.2766
4504	0.170755
4488	-0.842213
4472	-1.004505
4456	-0.408101
4440	-0.648093
4424	-0.251364
4408	1.101589
4392	0.599598
4376	0.936341
4360	0.564694
4344	0.144124
4328	0.240159
4312	0.273251
4296	0.093746
4280	0.161910
4264	0.285339
4248	0.498533
4232	0.196623
4216	0.347709
4200	0.455236
4184	-0.061225
4168	-0.024485
4152	0.261569
4136	-0.006198
4120	0.021839
4104	0.082993
4088	0.134325
4072	0.006484
4056	-0.023746
4040	0.206375
4024	-0.083088
4008	0.089430
3992	0.015544
3976	0.288915
3960	0.217056
3944	0.280976
3928	0.043988
3912	0.224113
3896	0.043392
3880	0.030040
3864	0.000071
3848	-0.148344
3832	0.005006
3816	-0.026130
3800	0.116324
3784	0.044488
3768	0.020766
3752	0.159668
3736	0.122046
3720	0.058460
3704	0.071239
3688	-0.038194
3672	-0.170087
3656	0.035858
3640	0.137996
3624	0.049495
3608	0.063276
3592	0.094485
3576	0.209093
3560	0.208449
3544	0.170183
3528	-0.036358
3512	0.226712
3496	0.140142
3480	0.172400
3464	-0.033187
3448	0.107502
3432	0.099778
3416	0.022315
3400	0.042700
3384	0.011563
3368	-0.054860
3352	0.053882
3336	-0.062489
3320	0.246381
3304	-0.092840
3288	0.077795
3272	0.144338
3256	0.079441
3240	0.115060
3224	-0.008916
3208	-0.063347
3192	-0.023221
3176	0.030660
3160	-0.067114
3144	-0.017929
3128	0.117874
3112	0.152921
3096	0.059008
3080	-0.021505
3064	-0.013518
3048	0.041866
3032	0.144839
3016	0.037431
3000	0.162649
2984	0.039410
2968	-0.055456
2952	-0.004506
2936	0.009846
2920	0.054407
2904	-0.070738
2888	0.082874
2872	-0.011396
2856	-0.022649
2840	0.206708
2824	0.085616
2808	0.073480
2792	0.047636
2776	0.025415
2760	-0.058603
2744	0.057530
2728	0.058054
2712	0.094509
2696	0.104045
2680	0.021266
2664	-0.033807
2648	0.062108
2632	-0.049543
2616	0.080943
2600	-0.066137
2584	0.019526
2568	0.076580
2552	0.002956
2536	0.043392
2520	0.128126
2504	0.120854
2488	0.132679
2472	0.016999
2456	0.086641
2440	0.021457
2424	0.014495
2408	-0.088143
2392	-0.048089
2376	0.013661
2360	-0.028133
2344	-0.138211
2328	0.008225
2312	-0.031709
2296	0.067448
2280	0.054740
2264	0.155162
2248	0.322222
2232	0.542712
2216	0.846958
2200	1.336288
2184	1.814007
2168	2.658843
2152	3.396534
2136	4.580664
2120	5.893230
2104	7.174777
2088	8.416318
2072	9.891033
2056	11.4009
2040	12.8014
2024	14.1861
2008	15.3433
1992	16.6132
1976	17.7905
1960	18.5428
1944	19.4668
1928	20.3353
1912	21.0431
1896	21.6761
1880	22.134
1864	22.774
1848	23.1197
1832	23.5744
1816	23.9312
1800	24.158
1784	24.4451
1768	24.5924
1752	24.8047
1736	25.0291
1720	24.9703
1704	25.2629
1688	25.5306
1672	25.2701
1656	25.5384
1640	25.6727
1624	25.639
1608	25.7004
1592	25.7504
1576	25.8533
1560	26.0113
1544	25.7511
1528	25.8841
1512	25.9163
1496	25.829
1480	25.832
1464	25.8473
1448	25.7498
1432	25.8908
1416	25.7142
1400	25.8492
1384	25.9145
1368	25.5676
1352	25.8091
1336	25.7542
1320	25.5843
1304	25.5812
1288	25.6862
1272	25.441
1256	25.515
1240	25.4016
1224	25.2908
1208	25.3329
1192	25.089
1176	25.0478
1160	25.1754
1144	24.929
1128	24.7829
1112	24.8932
1096	24.486
1080	24.5471
1064	24.5771
1048	24.3408
1032	24.2406
1016	24.3057
1000	23.7446
984	 23.7563
968	 23.4646
952	 23.2723
936	 23.3557
920	 23.0156
904	 22.5753
888	 22.6259
872	 22.4734
856	 22.296
840	 22.004
824	 21.7502
808	 21.3264
792	 21.3156
776	 20.7348
760	 20.9864
744	 20.8341
728	 20.1117
712	 19.8709
696	 19.4699
680	 19.0866
664	 18.9646
648	 18.6183
632	 18.08
616	 17.7482
600	 17.0031
584	 17.1272
568	 17.5232
552	 15.7887
536	 15.4993
520	 15.3927
504	 13.8552
488	 14.5535
472	 13.5985
456	 13.3229
440	 14.3615
424	 13.645
408	 5.202627
392	 -4.878520
376	 -12.3109
370	 -6.312179