File: Bakgrunnsmateriale/MATLAB/FTIR/ftir_data/LPE453/Mapping_121/LPE453_t01_cm-1.asc
PE IR       SPECTRUM    SPECTRUM    ASCII       PEDS        1.60
  -1
LPE453~3.ASC
17/05/16
14:28:01.00
17/05/16
14:28:01.00
tln
$LPE453_t0001$<tbV0>[13.0,-13.0,8.0,0.0,27,1,0]
370
64

2002,4.07
MIRTGS : RIGHTBACK : INTERNAL 2
MIR : ON : INTERNAL 2
OPTKBR

0.200000
8
8.000000
FILLER
RATIO
SPECTRUM
UNLOCKED 256

DOUBLE
64
COMBINED
1
0
0

1.000000
RATIO

1
0
TRUE
51149
0
LEFT NOT FITTED RIGHT NOT FITTED 0
NONE
NONE
15600
12
4.427000
51148
TRUE
1 0 8 72 0 0 0 0

15798

#HDR
-1
-1
#GR
CM-1
%T
2.38419e-05
0.0
5000
-1.000000
4631
8
33.3787
-6.256198
#DATA
5000	0.128602
4984	0.233817
4968	0.625658
4952	0.297188
4936	0.148200
4920	0.144767
4904	0.603270
4888	0.014400
4872	-0.130891
4856	0.329947
4840	-0.252652
4824	0.575947
4808	1.362323
4792	-0.659894
4776	0.336813
4760	-0.844860
4744	0.700449
4728	1.639556
4712	0.086712
4696	-0.550580
4680	0.360298
4664	0.079035
4648	0.007128
4632	0.620532
4616	0.318408
4600	0.011873
4584	-0.046038
4568	-0.057888
4552	-0.514817
4536	0.389909
4520	-0.005578
4504	-0.909924
4488	4.157114
4472	-6.256198
4456	-2.301311
4440	0.615620
4424	0.216555
4408	0.039768
4392	0.373601
4376	0.295805
4360	0.306248
4344	0.185704
4328	0.160479
4312	0.009870
4296	0.006842
4280	-0.050306
4264	-0.010180
4248	0.137734
4232	-0.135684
4216	0.291633
4200	0.044274
4184	0.139307
4168	0.329947
4152	0.449037
4136	0.252246
4120	0.001049
4104	0.226140
4088	0.395917
4072	0.088214
4056	0.123453
4040	-0.037956
4024	-0.064110
4008	0.217247
3992	0.081038
3976	-0.203728
3960	0.149965
3944	0.117039
3928	-0.049281
3912	-0.121784
3896	0.131535
3880	0.079274
3864	0.101757
3848	0.001454
3832	0.045776
3816	-0.091338
3800	0.144171
3784	0.068712
3768	0.089550
3752	0.216412
3736	-0.166821
3720	-0.027585
3704	-0.100588
3688	0.234913
3672	0.058054
3656	-0.058579
3640	0.054669
3624	0.160503
3608	-0.108671
3592	-0.066232
3576	0.153374
3560	0.037908
3544	-0.019931
3528	0.207042
3512	0.063467
3496	0.001859
3480	-0.046944
3464	0.078773
3448	0.006031
3432	0.076007
3416	-0.030922
3400	0.056838
3384	-0.013852
3368	0.004887
3352	0.072908
3336	0.010347
3320	0.040578
3304	0.035762
3288	0.038218
3272	0.001168
3256	0.076937
3240	0.010323
3224	0.048303
3208	0.102806
3192	0.142669
3176	-0.122976
3160	0.055885
3144	0.041198
3128	0.232577
3112	0.116205
3096	0.061130
3080	0.007128
3064	-0.127530
3048	-0.055170
3032	0.059032
3016	0.014519
3000	0.039625
2984	-0.053071
2968	0.108265
2952	0.044727
2936	0.063657
2920	0.010824
2904	0.139880
2888	-0.033521
2872	0.037479
2856	0.032877
2840	0.043392
2824	-0.034356
2808	0.040960
2792	0.131249
2776	-0.051021
2760	0.060343
2744	0.090837
2728	-0.039982
2712	0.064659
2696	0.063562
2680	0.057506
2664	0.060343
2648	0.094103
2632	-0.013899
2616	0.109195
2600	-0.028133
2584	0.096821
2568	-0.001645
2552	0.059890
2536	0.030350
2520	-0.004386
2504	0.013089
2488	0.036144
2472	0.136947
2456	0.077748
2440	0.045275
2424	0.140786
2408	0.107192
2392	0.124025
2376	0.059223
2360	0.076222
2344	0.039792
2328	0.028061
2312	-0.000834
2296	0.188183
2280	0.235319
2264	0.431227
2248	0.581383
2232	0.952935
2216	1.400303
2200	1.911830
2184	2.555084
2168	3.418803
2152	4.648756
2136	5.725049
2120	6.971478
2104	8.363938
2088	9.901046
2072	11.3597
2056	12.8498
2040	14.2081
2024	15.5556
2008	16.7932
1992	17.9635
1976	18.8597
1960	19.9411
1944	20.8178
1928	21.4862
1912	22.1542
1896	22.8411
1880	23.2344
1864	23.7267
1848	24.2518
1832	24.5165
1816	24.8149
1800	25.0879
1784	25.3513
1768	25.5282
1752	25.6984
1736	25.8469
1720	26.1082
1704	26.2249
1688	26.3609
1672	26.3179
1656	26.7173
1640	26.7012
1624	26.757
1608	26.7498
1592	26.7962
1576	26.9762
1560	27.0421
1544	26.9375
1528	26.923
1512	26.905
1496	26.9692
1480	26.8935
1464	26.8933
1448	27.0501
1432	27.0119
1416	27.0694
1400	27.0562
1384	27.0354
1368	27.1401
1352	27.1299
1336	27.0247
1320	27.0164
1304	26.9905
1288	26.9309
1272	26.7453
1256	26.735
1240	26.7767
1224	26.7151
1208	26.8657
1192	26.7559
1176	26.5965
1160	26.6243
1144	26.4967
1128	26.4672
1112	26.2955
1096	26.5195
1080	26.2912
1064	25.9949
1048	26.1048
1032	26.013
1016	25.531
1000	25.7313
984	 25.5593
968	 25.4521
952	 25.3947
936	 25.0826
920	 24.9002
904	 25.0317
888	 24.7547
872	 24.5506
856	 24.4276
840	 24.0728
824	 23.9169
808	 23.6503
792	 23.5356
776	 23.2109
760	 22.8389
744	 22.643
728	 22.5975
712	 22.1381
696	 21.6778
680	 21.6716
664	 21.4367
648	 21.1287
632	 20.9111
616	 20.4672
600	 20.0853
584	 19.9088
568	 19.1484
552	 19.0297
536	 18.7517
520	 18.6816
504	 17.2736
488	 17.0896
472	 17.2919
456	 16.211
440	 16.2899
424	 13.0591
408	 17.0813
392	 29.7286
376	 1.185250
370	 22.8685