File: Bakgrunnsmateriale/MATLAB/FTIR/ftir_data/LPE453/Mapping_121/LPE453_t29_cm-1.asc
PE IR       SPECTRUM    SPECTRUM    ASCII       PEDS        1.60
  -1
LP68D9~1.ASC
17/05/16
16:44:56.00
17/05/16
16:44:56.00
tln
$LPE453_t0029$<tbV0>[-2.6,-7.8,8.0,0.0,27,1,0]
370
64

2002,4.07
MIRTGS : RIGHTBACK : INTERNAL 2
MIR : ON : INTERNAL 2
OPTKBR

0.200000
8
8.000000
FILLER
RATIO
SPECTRUM
UNLOCKED 256

DOUBLE
64
COMBINED
1
0
0

1.000000
RATIO

1
0
TRUE
51149
0
LEFT NOT FITTED RIGHT NOT FITTED 0
NONE
NONE
15600
12
4.427000
51148
TRUE
1 0 8 72 0 0 0 0

15798

#HDR
-1
-1
#GR
CM-1
%T
2.38419e-05
0.0
5000
-1.000000
4631
8
35.6909
-5.564045
#DATA
5000	0.752615
4984	0.072360
4968	0.201177
4952	0.324225
4936	0.146913
4920	0.748634
4904	-0.185585
4888	-0.063586
4872	0.311636
4856	0.030374
4840	0.260663
4824	0.102996
4808	0.299525
4792	-0.264739
4776	-0.103878
4760	0.319170
4744	0.148820
4728	0.272250
4712	0.055861
4696	0.003337
4680	0.248813
4664	0.292801
4648	0.536894
4632	0.955247
4616	0.379228
4600	0.109577
4584	0.221323
4568	0.580167
4552	-0.469136
4536	-1.156067
4520	3.713130
4504	1.652717
4488	1.912164
4472	0.199818
4456	-0.067496
4440	-0.704908
4424	0.245833
4408	0.667643
4392	0.133490
4376	0.371003
4360	0.003194
4344	0.027990
4328	0.031638
4312	0.113344
4296	0.219345
4280	-0.204896
4264	0.402641
4248	0.016093
4232	-0.027751
4216	-0.045871
4200	0.300407
4184	0.329065
4168	0.640940
4152	-0.009703
4136	0.122928
4120	-0.039649
4104	-0.033974
4088	-0.129652
4072	0.052809
4056	0.231981
4040	0.280594
4024	0.260019
4008	0.034427
3992	0.013089
3976	0.099897
3960	0.066876
3944	-0.000858
3928	0.035166
3912	-0.090479
3896	0.096487
3880	-0.044178
3864	0.063157
3848	0.051403
3832	-0.034022
3816	0.088882
3800	0.010514
3784	0.100827
3768	0.014829
3752	0.081634
3736	-0.032353
3720	-0.001311
3704	0.128102
3688	0.148987
3672	0.106763
3656	-0.007772
3640	0.038313
3624	0.077366
3608	-0.020670
3592	0.204300
3576	0.054979
3560	-0.031805
3544	0.080919
3528	0.126242
3512	-0.023603
3496	-0.099730
3480	0.030851
3464	-0.028133
3448	0.010681
3432	-0.004744
3416	0.087070
3400	-0.034213
3384	0.036120
3368	-0.036931
3352	0.202369
3336	-0.030589
3320	-0.117087
3304	0.036191
3288	0.047516
3272	0.005674
3256	0.275349
3240	0.231981
3224	-0.012612
3208	-0.162982
3192	-0.004124
3176	0.028443
3160	-0.008845
3144	0.101375
3128	0.011610
3112	0.196385
3096	0.107526
3080	-0.047612
3064	-0.110673
3048	0.105524
3032	-0.000524
3016	0.013542
3000	0.011920
2984	0.040054
2968	0.037789
2952	0.075435
2936	0.092124
2920	0.060319
2904	0.047779
2888	0.029063
2872	-0.089502
2856	0.177145
2840	0.003695
2824	0.048494
2808	0.013399
2792	0.001645
2776	0.001859
2760	0.126647
2744	-0.034451
2728	0.072908
2712	0.111937
2696	-0.093054
2680	0.038671
2664	0.133395
2648	0.046014
2632	-0.075316
2616	-0.012946
2600	0.057196
2584	0.033092
2568	0.123333
2552	0.038599
2536	-0.057744
2520	0.044226
2504	-0.112199
2488	0.103044
2472	-0.002908
2456	0.105881
2440	0.105929
2424	-0.084614
2408	-0.086665
2392	-0.094723
2376	0.028371
2360	0.172448
2344	0.154232
2328	0.233650
2312	0.372600
2296	0.556850
2280	0.704860
2264	1.089072
2248	1.526165
2232	2.295899
2216	2.970433
2200	4.149031
2184	5.457901
2168	6.901168
2152	8.773446
2136	10.7142
2120	12.5973
2104	14.6696
2088	16.9037
2072	18.8146
2056	20.849
2040	22.5745
2024	24.2687
2008	25.7987
1992	27.1089
1976	28.3059
1960	29.5084
1944	30.2025
1928	31.099
1912	31.786
1896	32.4697
1880	32.8729
1864	33.3253
1848	33.8022
1832	34.0503
1816	34.3037
1800	34.645
1784	34.7853
1768	34.8268
1752	35.0576
1736	35.0972
1720	35.1324
1704	35.2946
1688	35.4708
1672	35.3651
1656	35.5653
1640	35.6379
1624	35.5794
1608	35.5457
1592	35.6265
1576	35.6656
1560	35.5455
1544	35.4584
1528	35.5141
1512	35.6287
1496	35.5747
1480	35.4855
1464	35.4995
1448	35.4576
1432	35.3932
1416	35.4382
1400	35.4106
1384	35.4835
1368	35.3037
1352	35.235
1336	35.33
1320	35.1699
1304	35.0057
1288	35.2264
1272	35.0957
1256	34.9333
1240	34.9112
1224	35.1058
1208	34.7749
1192	34.8986
1176	34.8707
1160	34.8794
1144	34.6549
1128	34.6245
1112	34.6611
1096	34.8195
1080	34.457
1064	34.2375
1048	34.5123
1032	33.931
1016	33.8489
1000	34.1668
984	 33.8435
968	 33.3952
952	 33.6762
936	 33.7638
920	 33.0714
904	 32.6133
888	 32.9776
872	 32.8648
856	 32.093
840	 32.2044
824	 32.2186
808	 31.7852
792	 31.2618
776	 31.478
760	 31.4662
744	 30.8497
728	 30.6323
712	 30.7235
696	 30.0092
680	 29.3196
664	 29.8313
648	 29.3595
632	 28.4314
616	 27.9741
600	 27.8888
584	 27.3401
568	 27.2668
552	 26.9451
536	 26.4443
520	 25.4431
504	 25.1106
488	 24.8889
472	 23.5879
456	 24.0559
440	 25.6788
424	 22.17
408	 18.4922
392	 12.0291
376	 13.1984
370	 20.7333