File: Bakgrunnsmateriale/MATLAB/FTIR/ftir_data/LPE453/Mapping_121/LPE453_t103_cm-1.asc
PE IR       SPECTRUM    SPECTRUM    ASCII       PEDS        1.60
  -1
LP0678~1.ASC
17/05/16
22:48:46.00
17/05/16
22:48:46.00
tln
$LPE453_t0103$<tbV0>[5.2,10.4,8.0,0.0,27,1,0]
370
64

2002,4.07
MIRTGS : RIGHTBACK : INTERNAL 2
MIR : ON : INTERNAL 2
OPTKBR

0.200000
8
8.000000
FILLER
RATIO
SPECTRUM
UNLOCKED 256

DOUBLE
64
COMBINED
1
0
0

1.000000
RATIO

1
0
TRUE
51149
0
LEFT NOT FITTED RIGHT NOT FITTED 0
NONE
NONE
15600
12
4.427000
51148
TRUE
1 0 8 72 0 0 0 0

15798

#HDR
-1
-1
#GR
CM-1
%T
2.38419e-05
0.0
5000
-1.000000
4631
8
40.005
-2.487182
#DATA
5000	0.216054
4984	-0.232625
4968	-0.293898
4952	-0.105762
4936	0.327610
4920	-0.181317
4904	0.156903
4888	0.346636
4872	-0.145363
4856	0.383782
4840	0.157046
4824	0.093483
4808	0.020122
4792	0.113701
4776	-0.523781
4760	-0.191307
4744	0.124430
4728	-0.372838
4712	0.389981
4696	0.408411
4680	0.816369
4664	-0.026702
4648	0.342297
4632	0.407385
4616	1.196694
4600	-0.408220
4584	0.092649
4568	0.206446
4552	-0.185775
4536	0.660586
4520	-0.462722
4504	-2.473783
4488	12.0742
4472	-0.386810
4456	0.673556
4440	0.186896
4424	0.426077
4408	0.124812
4392	0.176286
4376	0.545334
4360	-0.050282
4344	0.196313
4328	0.161123
4312	0.665712
4296	0.047707
4280	0.356030
4264	0.231719
4248	0.029206
4232	0.062823
4216	0.311231
4200	0.088644
4184	0.220203
4168	0.041532
4152	0.158119
4136	0.184392
4120	-0.034618
4104	0.001096
4088	0.095772
4072	-0.074172
4056	0.172638
4040	-0.099611
4024	-0.074648
4008	0.046682
3992	0.158405
3976	0.162625
3960	0.179147
3944	0.162100
3928	0.101971
3912	0.192117
3896	0.178122
3880	-0.002884
3864	0.118398
3848	-0.044107
3832	0.170779
3816	0.018310
3800	0.064539
3784	0.011467
3768	-0.057649
3752	0.103855
3736	0.015711
3720	-0.156044
3704	0.190162
3688	0.084471
3672	0.191974
3656	0.009155
3640	0.069785
3624	-0.077271
3608	-0.036263
3592	-0.049448
3576	0.041413
3560	0.050997
3544	-0.013494
3528	0.091981
3512	0.093102
3496	-0.079488
3480	0.076818
3464	-0.063014
3448	-0.016379
3432	0.038647
3416	-0.118327
3400	-0.037217
3384	0.049138
3368	-0.104236
3352	-0.028657
3336	0.059127
3320	0.087261
3304	-0.075340
3288	0.037980
3272	0.008559
3256	0.086069
3240	-0.065970
3224	-0.015020
3208	0.153899
3192	-0.028371
3176	0.047397
3160	-0.066685
3144	0.194025
3128	0.080943
3112	0.065994
3096	-0.113224
3080	0.065517
3064	0.033831
3048	0.089788
3032	0.106406
3016	0.090622
3000	0.027132
2984	-0.008296
2968	0.153064
2952	-0.018930
2936	0.042033
2920	0.034308
2904	0.059914
2888	-0.027346
2872	-0.025844
2856	0.090217
2840	-0.028276
2824	-0.030589
2808	-0.016999
2792	0.044488
2776	0.077486
2760	0.104188
2744	0.063633
2728	0.033879
2712	0.028634
2696	0.023007
2680	-0.016832
2664	-0.033283
2648	0.124883
2632	0.042033
2616	0.034260
2600	0.097775
2584	-0.052976
2568	0.062465
2552	-0.040507
2536	-0.040292
2520	-0.010156
2504	0.057220
2488	0.035262
2472	0.057816
2456	0.010347
2440	0.092196
2424	0.228357
2408	0.108504
2392	0.233960
2376	0.346994
2360	0.446057
2344	0.513124
2328	0.780558
2312	1.052212
2296	1.499533
2280	1.960515
2264	2.634763
2248	3.443264
2232	4.443120
2216	5.703353
2200	7.118678
2184	8.893465
2168	10.701
2152	12.7251
2136	14.958
2120	17.1067
2104	19.3623
2088	21.489
2072	23.7137
2056	25.5808
2040	27.466
2024	29.0568
2008	30.5242
1992	31.9541
1976	33.0251
1960	34.2008
1944	34.9351
1928	35.7462
1912	36.334
1896	37.0038
1880	37.3265
1864	37.8699
1848	38.2462
1832	38.6159
1816	38.6439
1800	38.8902
1784	39.1746
1768	39.3894
1752	39.2428
1736	39.2224
1720	39.5312
1704	39.731
1688	39.6003
1672	39.5793
1656	39.7121
1640	39.8976
1624	39.9062
1608	39.5764
1592	39.7395
1576	39.8238
1560	39.8993
1544	39.6353
1528	39.5373
1512	39.8576
1496	39.8391
1480	39.7023
1464	39.4163
1448	39.6073
1432	39.9879
1416	39.7362
1400	39.4605
1384	39.4547
1368	39.7386
1352	39.7267
1336	39.3438
1320	39.2882
1304	39.6386
1288	39.5816
1272	39.3515
1256	38.9408
1240	39.2947
1224	39.5344
1208	39.3247
1192	38.8771
1176	38.8729
1160	39.2972
1144	39.1196
1128	38.6742
1112	38.3658
1096	38.9542
1080	39.1797
1064	38.6673
1048	38.0124
1032	38.4295
1016	38.6868
1000	38.4869
984	 37.9019
968	 37.7285
952	 38.2009
936	 38.3279
920	 37.7661
904	 37.1624
888	 37.4804
872	 37.8815
856	 37.3118
840	 36.3901
824	 36.549
808	 36.98
792	 36.8139
776	 36.0195
760	 35.3131
744	 35.7295
728	 36.2429
712	 35.0918
696	 34.4614
680	 34.619
664	 35.2371
648	 34.6028
632	 33.3765
616	 32.9389
600	 34.1856
584	 33.2936
568	 32.4806
552	 31.2214
536	 31.5802
520	 31.5341
504	 31.2693
488	 29.0229
472	 29.366
456	 30.0502
440	 29.2681
424	 28.5492
408	 29.9597
392	 14.2686
376	 16.4697
370	 12.1032