File: Bakgrunnsmateriale/MATLAB/FTIR/ftir_data/LPE453/Mapping_121/LPE453_t43_cm-1.asc
PE IR       SPECTRUM    SPECTRUM    ASCII       PEDS        1.60
  -1
LP59D0~1.ASC
17/05/16
17:50:06.00
17/05/16
17:50:06.00
tln
$LPE453_t0043$<tbV0>[-10.4,-5.2,8.0,0.0,27,1,0]
370
64

2002,4.07
MIRTGS : RIGHTBACK : INTERNAL 2
MIR : ON : INTERNAL 2
OPTKBR

0.200000
8
8.000000
FILLER
RATIO
SPECTRUM
UNLOCKED 256

DOUBLE
64
COMBINED
1
0
0

1.000000
RATIO

1
0
TRUE
51149
0
LEFT NOT FITTED RIGHT NOT FITTED 0
NONE
NONE
15600
12
4.427000
51148
TRUE
1 0 8 72 0 0 0 0

15798

#HDR
-1
-1
#GR
CM-1
%T
2.38419e-05
0.0
5000
-1.000000
4631
8
47.5392
-1.816344
#DATA
5000	0.005578
4984	0.103259
4968	0.668001
4952	0.189542
4936	0.149655
4920	-0.041913
4904	0.176358
4888	0.640940
4872	-0.217294
4856	0.466799
4840	0.511288
4824	0.224184
4808	0.060439
4792	0.020647
4776	-0.133085
4760	-0.091123
4744	-0.105118
4728	0.631380
4712	0.105118
4696	0.479149
4680	0.639605
4664	0.438666
4648	0.428104
4632	0.487995
4616	0.773167
4600	0.229287
4584	-1.084518
4568	-1.233625
4552	-1.096463
4536	-1.129865
4520	14.7132
4504	-1.416563
4488	-0.798273
4472	-1.684117
4456	-1.330018
4440	-1.023459
4424	-0.198864
4408	0.443720
4392	1.025867
4376	0.358819
4360	0.483417
4344	0.428247
4328	0.193643
4312	-0.067734
4296	0.270009
4280	-0.049543
4264	-0.013875
4248	-0.000953
4232	0.402450
4216	0.141215
4200	0.405526
4184	-0.188064
4168	0.622153
4152	0.237846
4136	0.272822
4120	-0.011086
4104	0.012826
4088	0.136518
4072	0.060677
4056	0.178027
4040	0.143861
4024	0.190234
4008	-0.070881
3992	0.024080
3976	0.231695
3960	0.309967
3944	0.195240
3928	0.026297
3912	0.064277
3896	-0.081205
3880	0.130510
3864	-0.114083
3848	0.114083
3832	-0.070595
3816	0.220441
3800	-0.097465
3784	0.000095
3768	0.051641
3752	0.263190
3736	0.198888
3720	0.232291
3704	0.122618
3688	-0.092148
3672	-0.011610
3656	-0.049114
3640	0.066542
3624	0.119400
3608	-0.031065
3592	0.023984
3576	0.094938
3560	0.206637
3544	0.075793
3528	-0.142145
3512	-0.047802
3496	0.081992
3480	0.312733
3464	0.002717
3448	-0.133061
3432	0.019001
3416	-0.039672
3400	0.050354
3384	0.008964
3368	-0.053644
3352	0.112271
3336	0.132942
3320	0.067186
3304	0.236678
3288	0.137042
3272	0.161385
3256	-0.054430
3240	0.154161
3224	0.092768
3208	0.020503
3192	0.177073
3176	0.009512
3160	0.093007
3144	-0.018143
3128	0.316071
3112	-0.116562
3096	0.032043
3080	0.043439
3064	-0.037646
3048	0.027751
3032	0.022554
3016	-0.054717
3000	0.016307
2984	0.113320
2968	-0.119352
2952	0.009346
2936	-0.014162
2920	0.058412
2904	-0.011610
2888	-0.017070
2872	0.032520
2856	-0.028872
2840	0.039339
2824	0.031876
2808	0.001239
2792	-0.063347
2776	-0.042939
2760	0.130891
2744	0.017881
2728	-0.066399
2712	-0.081801
2696	0.013208
2680	-0.009107
2664	0.030684
2648	0.028920
2632	0.000214
2616	0.015902
2600	-0.050354
2584	-0.095558
2568	0.022625
2552	0.035381
2536	0.144195
2520	0.140166
2504	0.052428
2488	0.047874
2472	0.026988
2456	0.036525
2440	0.021839
2424	0.028467
2408	0.148463
2392	0.046515
2376	0.035738
2360	0.094723
2344	0.132656
2328	0.227189
2312	0.440835
2296	0.502061
2280	0.947642
2264	1.295423
2248	1.754689
2232	2.434635
2216	3.445529
2200	4.476475
2184	5.753540
2168	7.451248
2152	9.114718
2136	11.2631
2120	13.0177
2104	15.2532
2088	17.3451
2072	19.1444
2056	21.251
2040	23.0721
2024	24.778
2008	26.2049
1992	27.5024
1976	28.7385
1960	29.8623
1944	30.724
1928	31.5023
1912	32.2079
1896	32.6705
1880	33.3216
1864	33.7897
1848	34.0003
1832	34.2808
1816	34.6195
1800	34.9428
1784	34.9471
1768	35.1367
1752	35.1893
1736	35.1613
1720	35.3936
1704	35.5416
1688	35.3882
1672	35.2414
1656	35.4497
1640	35.5812
1624	35.4257
1608	35.4395
1592	35.5627
1576	35.4298
1560	35.2708
1544	35.622
1528	35.5089
1512	35.3052
1496	35.2663
1480	35.4621
1464	35.2109
1448	35.0226
1432	34.9551
1416	35.3348
1400	34.9347
1384	34.6632
1368	35.1175
1352	34.9426
1336	34.5827
1320	34.7162
1304	35.0414
1288	34.6151
1272	34.3655
1256	34.7124
1240	34.6326
1224	34.2179
1208	34.2612
1192	34.7059
1176	34.4502
1160	33.8569
1144	34.2484
1128	34.3879
1112	34.0241
1096	33.4968
1080	34.1824
1064	33.9771
1048	33.3847
1032	33.4014
1016	34.001
1000	33.2899
984	 32.9558
968	 33.3202
952	 33.3698
936	 32.6755
920	 32.679
904	 32.8175
888	 32.4387
872	 31.925
856	 31.9813
840	 32.2723
824	 31.4059
808	 31.0071
792	 31.4242
776	 31.4429
760	 30.4098
744	 29.9721
728	 30.7535
712	 29.718
696	 29.5786
680	 29.5286
664	 29.7356
648	 28.8666
632	 28.6862
616	 28.3918
600	 27.7163
584	 27.0443
568	 27.1722
552	 27.5074
536	 26.5139
520	 25.3604
504	 25.8992
488	 24.2253
472	 24.2971
456	 22.5292
440	 21.1232
424	 24.3167
408	 24.2858
392	 29.1698
376	 5.253481
370	 7.262730