File: Bakgrunnsmateriale/MATLAB/FTIR/ftir_data/LPE453/Mapping_121/LPE453_t110.asc
PE IR       SPECTRUM    SPECTRUM    ASCII       PEDS        1.60
  -1
LP9378~1.ASC
17/05/16
23:21:02.00
17/05/16
23:21:28.00
tln
$LPE453_t0110$<tbV0>[-13.0,10.4,8.0,0.0,27,1,0]
27.028
64

2002,4.07
MIRTGS : RIGHTBACK : INTERNAL 2
MIR : ON : INTERNAL 2
OPTKBR

0.200000
8
8.000000
FILLER
RATIO
SPECTRUM
UNLOCKED 256

DOUBLE
64
COMBINED
1
0
0

0.002000
RATIO

1
0
TRUE
51149
0
LEFT NOT FITTED RIGHT NOT FITTED 0
NONE
NONE
15600
12
4.427000
51148
TRUE
1 0 8 72 0 0 0 0

15798

#HDR
-1
-1
#GR
µM
%T
2.38419e-05
0.0
2.000000
0.002000
12515
8
33.7663
-14.2751
#DATA
2.000000	 0.098323
2.084000	 0.123066
2.168000	 2.600772
2.252000	 0.313431
2.336000	 0.181453
2.420000	 0.541560
2.504000	 0.060909
2.588000	 0.156331
2.672000	 0.179528
2.756000	 -0.143775
2.840000	 0.035890
2.924000	 -0.113652
3.008000	 0.055896
3.092000	 -0.028508
3.176000	 0.138092
3.260000	 0.099668
3.344000	 0.043924
3.428000	 0.128512
3.512000	 -0.103918
3.596000	 0.077611
3.680000	 0.039168
3.764000	 0.018441
3.848000	 0.036367
3.932000	 -0.008368
4.016000	 -0.043529
4.100000	 -0.010104
4.184000	 0.029283
4.268000	 0.053234
4.352000	 0.459231
4.436000	 1.222102
4.520000	 2.859565
4.604000	 5.458781
4.688000	 8.928576
4.772000	 13.117
4.856000	 16.9922
4.940000	 20.2469
5.024000	 23.0079
5.108000	 25.1171
5.192000	 26.7245
5.276000	 27.91
5.359999	 28.843
5.444000	 29.5491
5.528000	 30.2444
5.612000	 30.5353
5.696000	 30.9215
5.780000	 31.1882
5.864000	 31.4432
5.948000	 31.6004
6.032000	 31.6914
6.116000	 31.9762
6.200000	 31.9344
6.284000	 32.2365
6.368000	 32.3357
6.452000	 32.3486
6.536000	 32.501
6.620000	 32.5472
6.704000	 32.3925
6.788000	 32.6795
6.872000	 32.5934
6.956000	 32.5849
7.040000	 32.6796
7.124000	 32.7508
7.208000	 32.4947
7.292000	 32.5749
7.376000	 32.8209
7.460000	 32.7571
7.544000	 32.7157
7.628000	 32.7575
7.712000	 32.6069
7.796000	 32.7703
7.880000	 32.6475
7.964000	 32.4932
8.048000	 32.5568
8.132000	 32.7308
8.216000	 32.6205
8.300000	 32.3524
8.384000	 32.231
8.468000	 32.3639
8.552000	 32.3742
8.635999	 32.283
8.719999	 32.1075
8.804000	 31.979
8.888000	 31.9378
8.972000	 31.9441
9.056000	 31.9701
9.140000	 31.5759
9.224000	 31.6011
9.308000	 31.3626
9.391999	 31.3732
9.475999	 31.4206
9.560000	 31.5893
9.644000	 31.3339
9.728000	 31.0526
9.812000	 30.8845
9.896000	 30.589
9.980000	 30.7009
10.064	30.9459
10.148	30.9139
10.232	30.6466
10.316	30.526
10.4	30.3542
10.484	30.3957
10.568	30.2095
10.652	30.0797
10.736	30.1363
10.82	30.0651
10.904	29.8554
10.988	29.6366
11.072	29.3677
11.156	29.2238
11.24	29.1871
11.324	29.2108
11.408	29.2315
11.492	29.1676
11.576	29.1049
11.66	28.9606
11.744	28.7802
11.828	28.6817
11.912	28.6006
11.996	28.4682
12.08	28.0845
12.164	28.0827
12.248	28.3225
12.332	28.4428
12.416	28.2363
12.5	27.9175
12.584	27.6931
12.668	27.6441
12.752	27.6419
12.836	27.5432
12.92	27.403
13.004	27.3469
13.088	27.2864
13.172	27.4184
13.256	27.5305
13.34	27.3606
13.424	27.1679
13.508	27.0887
13.592	27.058
13.676	26.8765
13.76	26.6404
13.844	26.5098
13.928	26.4244
14.012	26.2695
14.096	26.0964
14.18	25.9785
14.264	26.0216
14.348	26.2571
14.432	26.4801
14.516	26.4599
14.6	26.2387
14.684	26.0914
14.768	26.0543
14.852	25.9051
14.936	25.624
15.02	25.4391
15.104	25.3828
15.188	25.2819
15.272	25.1976
15.356	25.2743
15.44	25.3781
15.524	25.3203
15.608	25.1744
15.692	25.1759
15.776	25.3568
15.86	25.4813
15.944	25.4535
16.028	25.3982
16.112	25.3206
16.196	25.0934
16.28	24.6994
16.364	24.2839
16.448	24.0485
16.532	24.0526
16.616	24.1279
16.7	24.0886
16.784	23.9337
16.868	23.7745
16.952	23.7158
17.036	23.8429
17.12	24.1392
17.204	24.4044
17.288	24.4274
17.372	24.2404
17.456	24.0644
17.54	24.0321
17.624	24.0831
17.708	24.1125
17.792	24.1123
17.876	24.1536
17.96	24.2632
18.044	24.3619
18.128	24.3348
18.212	24.1444
18.296	23.8572
18.38	23.5819
18.464	23.389
18.548	23.2803
18.632	23.2139
18.716	23.1575
18.8	23.1096
18.884	23.0835
18.968	23.0926
19.052	23.1531
19.136	23.2622
19.22	23.3751
19.304	23.4311
19.388	23.4141
19.472	23.367
19.556	23.3451
19.64	23.3568
19.724	23.3599
19.808	23.3094
19.892	23.1945
19.976	23.0457
20.06	22.9204
20.144	22.8678
20.228	22.9044
20.312	22.9995
20.396	23.081
20.48	23.0564
20.564	22.8633
20.648	22.524
20.732	22.1613
20.816	21.9305
20.9	21.9046
20.984	21.9991
21.068	22.0258
21.152	21.8393
21.236	21.4586
21.32	21.0543
21.404	20.82
21.488	20.8345
21.572	21.037
21.656	21.3037
21.74	21.5415
21.824	21.7288
21.908	21.8813
21.992	21.9957
22.076	22.0415
22.16	21.9957
22.244	21.8973
22.328	21.8329
22.412	21.873
22.496	22.0177
22.58	22.1971
22.664	22.3259
22.748	22.367
22.832	22.3495
22.916	22.3313
23	22.3595
23.084	22.4309
23.168	22.4978
23.252	22.4993
23.336	22.3757
23.42	22.0908
23.504	21.6336
23.588	21.0556
23.672	20.4769
23.756	20.0667
23.84	19.9751
23.924	20.2699
24.008	20.8939
24.092	21.6649
24.176	22.3364
24.26	22.6702
24.344	22.4901
24.428	21.7556
24.512	20.5564
24.596	19.1023
24.68	17.6582
24.764	16.4546
24.848	15.6309
24.932	15.2077
25.016	15.0854
25.1	15.0852
25.184	15.0597
25.268	14.9531
25.352	14.7661
25.436	14.6284
25.52	14.7011
25.604	15.0549
25.688	15.7324
25.772	16.6792
25.856	17.7341
25.94	18.7427
26.024	19.6207
26.108	20.3986
26.192	21.1753
26.276	22.104
26.36	23.3658
26.444	25.0815
26.528	27.2093
26.612	29.6021
26.696	31.8699
26.78	33.434
26.864	33.6746
26.948	32.086
27.028	28.6866