File: Bakgrunnsmateriale/MATLAB/FTIR/ftir_data/LPE453/Mapping_121/LPE453_t78_cm-1.asc
PE IR       SPECTRUM    SPECTRUM    ASCII       PEDS        1.60
  -1
LPEA59~1.ASC
17/05/16
20:46:24.00
17/05/16
20:46:24.00
tln
$LPE453_t0078$<tbV0>[13.0,5.2,8.0,0.0,27,1,0]
370
64

2002,4.07
MIRTGS : RIGHTBACK : INTERNAL 2
MIR : ON : INTERNAL 2
OPTKBR

0.200000
8
8.000000
FILLER
RATIO
SPECTRUM
UNLOCKED 256

DOUBLE
64
COMBINED
1
0
0

1.000000
RATIO

1
0
TRUE
51149
0
LEFT NOT FITTED RIGHT NOT FITTED 0
NONE
NONE
15600
12
4.427000
51148
TRUE
1 0 8 72 0 0 0 0

15798

#HDR
-1
-1
#GR
CM-1
%T
2.38419e-05
0.0
5000
-1.000000
4631
8
39.7787
-12.0702
#DATA
5000	0.310158
4984	0.132274
4968	0.029516
4952	0.229668
4936	0.054621
4920	0.019526
4904	-0.264000
4888	-0.078582
4872	0.041484
4856	0.506472
4840	0.365734
4824	0.231099
4808	0.282192
4792	0.291585
4776	-0.042629
4760	0.101923
4744	-0.306701
4728	0.111603
4712	-0.501751
4696	0.049877
4680	-0.091433
4664	1.613020
4648	0.188398
4632	1.370382
4616	-0.431013
4600	0.175929
4584	0.545787
4568	-0.232791
4552	-0.142860
4536	-0.639081
4520	-2.957463
4504	-6.174182
4488	29.4298
4472	-0.380802
4456	-0.927591
4440	-0.026845
4424	-0.397944
4408	0.226426
4392	0.606465
4376	0.147414
4360	0.686717
4344	0.139522
4328	0.099611
4312	0.645446
4296	0.287270
4280	0.061988
4264	0.269579
4248	0.084996
4232	0.082373
4216	0.078701
4200	0.036740
4184	0.137281
4168	0.226426
4152	0.266170
4136	0.386047
4120	-0.026774
4104	0.234723
4088	-0.119638
4072	0.081729
4056	0.082850
4040	0.155282
4024	0.028491
4008	0.154304
3992	0.220370
3976	0.001239
3960	-0.156855
3944	0.077009
3928	0.058484
3912	0.113081
3896	0.062894
3880	0.136065
3864	0.245332
3848	-0.034999
3832	-0.113797
3816	0.111651
3800	0.032210
3784	0.025439
3768	-0.031137
3752	-0.044798
3736	-0.081300
3720	0.180149
3704	0.099730
3688	-0.206851
3672	0.023531
3656	0.081562
3640	0.157737
3624	0.035047
3608	0.019288
3592	0.062465
3576	0.004506
3560	-0.096821
3544	0.107431
3528	-0.050997
3512	-0.022149
3496	0.143337
3480	-0.149798
3464	-0.078129
3448	0.150847
3432	0.105190
3416	0.167465
3400	0.066566
3384	0.049114
3368	-0.098228
3352	0.180673
3336	-0.038361
3320	0.040125
3304	-0.024652
3288	-0.025248
3272	0.049591
3256	0.155758
3240	0.085520
3224	0.029635
3208	-0.118374
3192	0.101828
3176	-0.066208
3160	0.112104
3144	0.169324
3128	0.244140
3112	0.058531
3096	-0.093865
3080	0.058102
3064	0.107884
3048	0.060057
3032	-0.049138
3016	0.018978
3000	-0.023412
2984	0.058317
2968	-0.009465
2952	0.065279
2936	0.065207
2920	-0.039768
2904	0.118160
2888	0.086998
2872	-0.030541
2856	0.135588
2840	-0.021314
2824	0.136637
2808	0.087308
2792	0.075984
2776	-0.002431
2760	-0.027251
2744	-0.003600
2728	0.049448
2712	0.087165
2696	0.012350
2680	0.012183
2664	0.027918
2648	0.014781
2632	-0.015759
2616	-0.030708
2600	-0.050210
2584	0.046968
2568	0.021243
2552	0.008654
2536	0.017547
2520	0.008773
2504	0.002956
2488	0.127840
2472	-0.002479
2456	0.026988
2440	-0.001502
2424	0.057458
2408	-0.000190
2392	-0.057530
2376	0.036215
2360	-0.007748
2344	0.090336
2328	0.027680
2312	-0.008082
2296	0.069236
2280	0.207567
2264	0.163292
2248	0.150418
2232	0.303220
2216	0.522351
2200	0.742769
2184	1.008296
2168	1.668214
2152	2.159762
2136	2.785706
2120	3.625369
2104	4.453921
2088	5.344963
2072	6.433558
2056	7.428574
2040	8.243441
2024	9.272837
2008	10.0099
1992	10.9983
1976	11.7034
1960	12.3875
1944	13.0824
1928	13.5391
1912	14.0762
1896	14.5528
1880	15.0359
1864	15.3305
1848	15.6477
1832	15.9833
1816	16.2694
1800	16.3844
1784	16.7189
1768	16.9933
1752	17.1287
1736	17.2042
1720	17.5296
1704	17.7004
1688	17.6624
1672	17.824
1656	17.909
1640	18.0445
1624	18.1804
1608	18.1575
1592	18.2624
1576	18.2787
1560	18.4101
1544	18.4967
1528	18.5449
1512	18.6507
1496	18.6753
1480	18.6209
1464	18.777
1448	18.8668
1432	18.8719
1416	18.9203
1400	19.0011
1384	19.0217
1368	19.1999
1352	19.0972
1336	19.1208
1320	19.2968
1304	19.2678
1288	19.299
1272	19.4455
1256	19.4386
1240	19.4228
1224	19.4679
1208	19.384
1192	19.5988
1176	19.6328
1160	19.6043
1144	19.5381
1128	19.5522
1112	19.5964
1096	19.7232
1080	19.4562
1064	19.4757
1048	19.3606
1032	19.3412
1016	19.244
1000	19.2507
984	 19.433
968	 19.1149
952	 19.3149
936	 18.8462
920	 18.925
904	 18.9169
888	 18.5857
872	 18.8618
856	 18.4
840	 18.4024
824	 18.0223
808	 18.0048
792	 17.8565
776	 17.7209
760	 17.2925
744	 17.2307
728	 17.0218
712	 16.7665
696	 16.9062
680	 16.2385
664	 16.2629
648	 15.8868
632	 15.3033
616	 15.2724
600	 15.1628
584	 14.9251
568	 14.5346
552	 13.8377
536	 13.9623
520	 13.25
504	 12.8338
488	 12.7692
472	 12.1102
456	 10.5597
440	 10.9946
424	 10.1975
408	 8.430910
392	 2.544426
376	 38.0283
370	 33.952