File: Bakgrunnsmateriale/MATLAB/FTIR/ftir_data/LPE453/Mapping_121/LPE453_e122.asc
PE IR       SPECTRUM    SPECTRUM    ASCII       PEDS        1.60
  -1
LPE453~2.ASC
17/05/16
14:22:06.00
17/05/16
14:22:32.00
tln
$LPE453_e0122$<ebV0>[-23.3,12.1,10.0,0.0,27,1,0]
27.028
64

2002,4.07
MIRTGS : RIGHTBACK : INTERNAL 2
MIR : ON : INTERNAL 2
OPTKBR

0.200000
8
8.000000
FILLER
SINGLE
SPECTRUM
UNLOCKED 256

DOUBLE

COMBINED
1
0
0

0.002000
BACKG

1
0
TRUE
51149
0
LEFT NOT FITTED RIGHT NOT FITTED 0
NONE
NONE
15600
12
4.427000
51148
TRUE
1 0 8 72 0 0 0 0

15798

#HDR
-1
-1
#GR
µM
EGY
2.38419e-05
0.0
2.000000
0.002000
12515
8
2.391579
0.011110
#DATA
2.000000	 0.749111
2.084000	 0.846539
2.168000	 0.899089
2.252000	 1.050860
2.336000	 1.104301
2.420000	 1.205327
2.504000	 1.352754
2.588000	 1.407044
2.672000	 1.493763
2.756000	 1.530952
2.840000	 1.581396
2.924000	 1.544016
3.008000	 1.636803
3.092000	 1.736610
3.176000	 1.763402
3.260000	 1.876968
3.344000	 1.977736
3.428000	 1.791926
3.512000	 1.961239
3.596000	 2.159354
3.680000	 2.200840
3.764000	 2.166783
3.848000	 2.169770
3.932000	 2.237379
4.016000	 2.270496
4.100000	 2.236915
4.184000	 2.194037
4.268000	 2.205107
4.352000	 2.281956
4.436000	 2.318068
4.520000	 2.308722
4.604000	 2.279198
4.688000	 2.276508
4.772000	 2.278828
4.856000	 2.319996
4.940000	 2.377743
5.024000	 2.389392
5.108000	 2.365139
5.192000	 2.339777
5.276000	 2.308211
5.359999	 2.313460
5.444000	 2.338088
5.528000	 2.361341
5.612000	 2.357514
5.696000	 2.329224
5.780000	 2.253022
5.864000	 2.208758
5.948000	 2.164441
6.032000	 2.119026
6.116000	 2.071582
6.200000	 1.945267
6.284000	 1.960502
6.368000	 1.917248
6.452000	 1.896976
6.536000	 2.032521
6.620000	 2.012922
6.704000	 1.639587
6.788000	 1.915351
6.872000	 1.735381
6.956000	 1.811374
7.040000	 1.803719
7.124000	 1.680449
7.208000	 1.738804
7.292000	 1.765054
7.376000	 1.769382
7.460000	 1.767306
7.544000	 1.799912
7.628000	 1.807807
7.712000	 1.807389
7.796000	 1.803523
7.880000	 1.732911
7.964000	 1.719219
8.048000	 1.789404
8.132000	 1.781497
8.216000	 1.743232
8.300000	 1.705293
8.384000	 1.703687
8.468000	 1.675826
8.552000	 1.636441
8.635999	 1.587358
8.719999	 1.568949
8.804000	 1.538234
8.888000	 1.491852
8.972000	 1.437549
9.056000	 1.401920
9.140000	 1.391157
9.224000	 1.397098
9.308000	 1.397224
9.391999	 1.406394
9.475999	 1.328417
9.560000	 1.297542
9.644000	 1.355420
9.728000	 1.338779
9.812000	 1.329363
9.896000	 1.350106
9.980000	 1.366325
10.064	1.366795
10.148	1.353808
10.232	1.339473
10.316	1.315860
10.4	1.289574
10.484	1.261667
10.568	1.241398
10.652	1.229286
10.736	1.212806
10.82	1.198220
10.904	1.179577
10.988	1.151708
11.072	1.133411
11.156	1.124581
11.24	1.105509
11.324	1.053793
11.408	1.007875
11.492	1.024415
11.576	1.060180
11.66	1.067998
11.744	1.062315
11.828	1.053383
11.912	1.034270
11.996	0.969981
12.08	0.861748
12.164	0.832178
12.248	0.893218
12.332	0.925776
12.416	0.927151
12.5	0.924754
12.584	0.931037
12.668	0.944804
12.752	0.955866
12.836	0.958243
12.92	0.954764
13.004	0.949616
13.088	0.946019
13.172	0.941247
13.256	0.936191
13.34	0.931218
13.424	0.923627
13.508	0.914135
13.592	0.904240
13.676	0.892605
13.76	0.879507
13.844	0.866879
13.928	0.854356
14.012	0.841681
14.096	0.828738
14.18	0.814502
14.264	0.799013
14.348	0.780008
14.432	0.752482
14.516	0.724396
14.6	0.713752
14.684	0.716081
14.768	0.715548
14.852	0.709023
14.936	0.700210
15.02	0.691959
15.104	0.684627
15.188	0.677077
15.272	0.668646
15.356	0.658864
15.44	0.648439
15.524	0.639094
15.608	0.631364
15.692	0.623141
15.776	0.613161
15.86	0.603195
15.944	0.594505
16.028	0.586349
16.112	0.577706
16.196	0.567472
16.28	0.554421
16.364	0.538528
16.448	0.522916
16.532	0.512689
16.616	0.509269
16.7	0.508999
16.784	0.507914
16.868	0.505844
16.952	0.503427
17.036	0.500407
17.12	0.496672
17.204	0.493373
17.288	0.491178
17.372	0.489611
17.456	0.487926
17.54	0.485398
17.624	0.481606
17.708	0.476724
17.792	0.471569
17.876	0.466558
17.96	0.461719
18.044	0.456936
18.128	0.452327
18.212	0.448060
18.296	0.444125
18.38	0.440415
18.464	0.436710
18.548	0.432726
18.632	0.428618
18.716	0.424450
18.8	0.419841
18.884	0.414243
18.968	0.407858
19.052	0.401593
19.136	0.396107
19.22	0.391303
19.304	0.386630
19.388	0.381626
19.472	0.376054
19.556	0.370058
19.64	0.363965
19.724	0.358239
19.808	0.353233
19.892	0.348656
19.976	0.343999
20.06	0.338614
20.144	0.332429
20.228	0.325505
20.312	0.317940
20.396	0.309631
20.48	0.300809
20.564	0.291885
20.648	0.283515
20.732	0.275978
20.816	0.268993
20.9	0.262325
20.984	0.255936
21.068	0.249962
21.152	0.244405
21.236	0.239029
21.32	0.233451
21.404	0.227519
21.488	0.221496
21.572	0.215528
21.656	0.209541
21.74	0.203328
21.824	0.196773
21.908	0.190180
21.992	0.184009
22.076	0.178468
22.16	0.173386
22.244	0.168372
22.328	0.163335
22.412	0.158671
22.496	0.154856
22.58	0.152227
22.664	0.150454
22.748	0.148737
22.832	0.146332
22.916	0.142850
23	0.138459
23.084	0.133677
23.168	0.128828
23.252	0.124073
23.336	0.119291
23.42	0.114127
23.504	0.108461
23.588	0.102261
23.672	0.095847
23.756	0.089569
23.84	0.083754
23.924	0.078502
24.008	0.073809
24.092	0.069656
24.176	0.065884
24.26	0.062487
24.344	0.059455
24.428	0.056587
24.512	0.053858
24.596	0.051090
24.68	0.048341
24.764	0.045570
24.848	0.042912
24.932	0.040385
25.016	0.038029
25.1	0.035921
25.184	0.033943
25.268	0.032091
25.352	0.030326
25.436	0.028567
25.52	0.026806
25.604	0.025014
25.688	0.023115
25.772	0.021151
25.856	0.019191
25.94	0.017261
26.024	0.015590
26.108	0.014279
26.192	0.013350
26.276	0.012835
26.36	0.012511
26.444	0.012344
26.528	0.012200
26.612	0.011968
26.696	0.011713
26.78	0.011456
26.864	0.011259
26.948	0.011139
27.028	0.011110