File: Bakgrunnsmateriale/MATLAB/FTIR/ftir_data/LPE453/Mapping_121/LPE453_t26.asc
PE IR       SPECTRUM    SPECTRUM    ASCII       PEDS        1.60
  -1
LPDB91~1.ASC
17/05/16
16:31:06.00
17/05/16
16:31:32.00
tln
$LPE453_t0026$<tbV0>[5.2,-7.8,8.0,0.0,27,1,0]
27.028
64

2002,4.07
MIRTGS : RIGHTBACK : INTERNAL 2
MIR : ON : INTERNAL 2
OPTKBR

0.200000
8
8.000000
FILLER
RATIO
SPECTRUM
UNLOCKED 256

DOUBLE
64
COMBINED
1
0
0

0.002000
RATIO

1
0
TRUE
51149
0
LEFT NOT FITTED RIGHT NOT FITTED 0
NONE
NONE
15600
12
4.427000
51148
TRUE
1 0 8 72 0 0 0 0

15798

#HDR
-1
-1
#GR
µM
%T
2.38419e-05
0.0
2.000000
0.002000
12515
8
27.186
-4.014942
#DATA
2.000000	 0.228953
2.084000	 0.194243
2.168000	 1.197335
2.252000	 -1.507688
2.336000	 0.075227
2.420000	 0.200335
2.504000	 0.062568
2.588000	 0.038840
2.672000	 0.183420
2.756000	 -0.048146
2.840000	 0.008183
2.924000	 -0.012282
3.008000	 -0.080130
3.092000	 0.047392
3.176000	 0.060062
3.260000	 0.009539
3.344000	 0.005377
3.428000	 0.021023
3.512000	 0.006543
3.596000	 -0.034094
3.680000	 0.123386
3.764000	 -0.010139
3.848000	 0.108966
3.932000	 0.009220
4.016000	 0.139594
4.100000	 -0.005045
4.184000	 0.022063
4.268000	 -0.030791
4.352000	 0.002464
4.436000	 0.126095
4.520000	 0.880627
4.604000	 2.318158
4.688000	 5.075248
4.772000	 8.185334
4.856000	 11.8442
4.940000	 15.1873
5.024000	 18.1069
5.108000	 20.2971
5.192000	 22.083
5.276000	 23.557
5.359999	 24.6009
5.444000	 25.2868
5.528000	 25.6954
5.612000	 26.3365
5.696000	 26.5147
5.780000	 26.6447
5.864000	 26.8885
5.948000	 26.8731
6.032000	 27.0877
6.116000	 26.7954
6.200000	 27.0963
6.284000	 26.8849
6.368000	 27.0571
6.452000	 26.8374
6.536000	 27.0245
6.620000	 26.6549
6.704000	 27.0686
6.788000	 26.7018
6.872000	 26.8657
6.956000	 26.6381
7.040000	 26.5976
7.124000	 26.6547
7.208000	 26.381
7.292000	 26.5653
7.376000	 26.3859
7.460000	 26.1602
7.544000	 26.5261
7.628000	 26.2992
7.712000	 26.1646
7.796000	 26.2062
7.880000	 26.0561
7.964000	 25.8944
8.048000	 26.0261
8.132000	 25.9161
8.216000	 25.5946
8.300000	 25.7173
8.384000	 25.7817
8.468000	 25.5018
8.552000	 25.4094
8.635999	 25.5108
8.719999	 25.5176
8.804000	 25.2494
8.888000	 25.2444
8.972000	 25.1063
9.056000	 25.4576
9.140000	 24.8011
9.224000	 24.8628
9.308000	 24.7526
9.391999	 25.1812
9.475999	 24.8555
9.560000	 24.5068
9.644000	 24.4651
9.728000	 24.5509
9.812000	 24.5838
9.896000	 24.3031
9.980000	 24.1187
10.064	24.1032
10.148	24.2545
10.232	24.4354
10.316	23.9857
10.4	23.6552
10.484	23.4845
10.568	23.6234
10.652	23.769
10.736	23.8536
10.82	23.4729
10.904	23.2089
10.988	22.9598
11.072	23.0964
11.156	23.15
11.24	23.2571
11.324	22.9315
11.408	22.7174
11.492	22.4609
11.576	22.4681
11.66	22.7397
11.744	22.5654
11.828	22.4407
11.912	22.2545
11.996	22.0238
12.08	21.7991
12.164	21.6141
12.248	21.7166
12.332	21.7959
12.416	21.8196
12.5	21.7099
12.584	21.2789
12.668	20.9925
12.752	21.018
12.836	21.0922
12.92	20.9308
13.004	20.8121
13.088	20.7673
13.172	20.6066
13.256	20.6595
13.34	20.5508
13.424	20.4408
13.508	20.416
13.592	20.1119
13.676	19.884
13.76	19.8523
13.844	19.8892
13.928	19.8655
14.012	19.8718
14.096	19.8066
14.18	19.6358
14.264	19.5066
14.348	19.4983
14.432	19.5027
14.516	19.3166
14.6	19.1812
14.684	19.2704
14.768	19.2902
14.852	19.0447
14.936	18.7486
15.02	18.6909
15.104	18.6584
15.188	18.4032
15.272	18.1511
15.356	18.0236
15.44	17.9259
15.524	17.9393
15.608	18.0647
15.692	18.1155
15.776	18.0494
15.86	17.962
15.944	17.9421
16.028	17.9865
16.112	17.922
16.196	17.6749
16.28	17.4253
16.364	17.231
16.448	16.9855
16.532	16.757
16.616	16.657
16.7	16.6097
16.784	16.5886
16.868	16.691
16.952	16.8354
17.036	16.8197
17.12	16.6802
17.204	16.6295
17.288	16.6992
17.372	16.7346
17.456	16.6492
17.54	16.4998
17.624	16.3762
17.708	16.2953
17.792	16.2019
17.876	16.0549
17.96	15.9006
18.044	15.8087
18.128	15.7742
18.212	15.7505
18.296	15.7332
18.38	15.7225
18.464	15.6647
18.548	15.528
18.632	15.386
18.716	15.3439
18.8	15.3895
18.884	15.4091
18.968	15.3484
19.052	15.2803
19.136	15.2674
19.22	15.2424
19.304	15.0969
19.388	14.8668
19.472	14.7363
19.556	14.8447
19.64	15.1126
19.724	15.3051
19.808	15.2521
19.892	14.9847
19.976	14.6599
20.06	14.3901
20.144	14.1817
20.228	14.0191
20.312	13.9614
20.396	14.1016
20.48	14.4426
20.564	14.8262
20.648	15.0271
20.732	14.9184
20.816	14.5506
20.9	14.1077
20.984	13.7809
21.068	13.6716
21.152	13.7815
21.236	14.0408
21.32	14.3387
21.404	14.5502
21.488	14.5625
21.572	14.3097
21.656	13.798
21.74	13.1194
21.824	12.4511
21.908	12.0104
21.992	11.951
22.076	12.272
22.16	12.7901
22.244	13.2141
22.328	13.3158
22.412	13.0381
22.496	12.5322
22.58	12.0424
22.664	11.7603
22.748	11.7235
22.832	11.8333
22.916	11.9348
23	11.9265
23.084	11.818
23.168	11.7114
23.252	11.7202
23.336	11.9177
23.42	12.2929
23.504	12.7632
23.588	13.2202
23.672	13.5843
23.756	13.8222
23.84	13.9285
23.924	13.8952
24.008	13.6813
24.092	13.2102
24.176	12.4195
24.26	11.3261
24.344	10.0815
24.428	8.952951
24.512	8.301743
24.596	8.386665
24.68	9.251621
24.764	10.6678
24.848	12.231
24.932	13.4034
25.016	13.7426
25.1	13.1099
25.184	11.728
25.268	10.0794
25.352	8.664863
25.436	7.894576
25.52	7.919866
25.604	8.627335
25.688	9.709218
25.772	10.8158
25.856	11.6903
25.94	12.2113
26.024	12.3109
26.108	11.906
26.192	10.7915
26.276	8.789339
26.36	5.833160
26.444	2.391878
26.528	-0.541529
26.612	-1.699426
26.696	-0.044038
26.78	4.767468
26.864	11.9939
26.948	19.9401
27.028	26.132