File: Bakgrunnsmateriale/MATLAB/FTIR/ftir_data/LPE453/Mapping_121/LPE453_t112.asc
PE IR       SPECTRUM    SPECTRUM    ASCII       PEDS        1.60
  -1
LP9B78~1.ASC
17/05/16
23:36:28.00
17/05/16
23:36:54.00
tln
$LPE453_t0112$<tbV0>[10.4,13.0,8.0,0.0,27,1,0]
27.028
64

2002,4.07
MIRTGS : RIGHTBACK : INTERNAL 2
MIR : ON : INTERNAL 2
OPTKBR

0.200000
8
8.000000
FILLER
RATIO
SPECTRUM
UNLOCKED 256

DOUBLE
64
COMBINED
1
0
0

0.002000
RATIO

1
0
TRUE
51149
0
LEFT NOT FITTED RIGHT NOT FITTED 0
NONE
NONE
15600
12
4.427000
51148
TRUE
1 0 8 72 0 0 0 0

15798

#HDR
-1
-1
#GR
µM
%T
2.38419e-05
0.0
2.000000
0.002000
12515
8
29.7662
-2.344652
#DATA
2.000000	 0.212597
2.084000	 0.145251
2.168000	 0.316050
2.252000	 -0.699080
2.336000	 -0.143266
2.420000	 0.280956
2.504000	 0.099122
2.588000	 0.196126
2.672000	 0.014304
2.756000	 0.123513
2.840000	 0.205479
2.924000	 0.039873
3.008000	 0.219945
3.092000	 0.032139
3.176000	 -0.019759
3.260000	 0.005046
3.344000	 -0.025303
3.428000	 0.144205
3.512000	 -0.036235
3.596000	 0.004242
3.680000	 -0.061035
3.764000	 0.195511
3.848000	 0.027823
3.932000	 0.092581
4.016000	 -0.012543
4.100000	 0.005103
4.184000	 -0.017559
4.268000	 0.175789
4.352000	 0.226165
4.436000	 0.744759
4.520000	 2.046068
4.604000	 4.263800
4.688000	 7.417994
4.772000	 11.0356
4.856000	 14.4329
4.940000	 17.5404
5.024000	 20.001
5.108000	 21.9728
5.192000	 23.7239
5.276000	 24.7784
5.359999	 25.7538
5.444000	 26.4834
5.528000	 27.0181
5.612000	 27.4503
5.696000	 27.6058
5.780000	 28.0211
5.864000	 28.2708
5.948000	 28.4428
6.032000	 28.5718
6.116000	 28.8309
6.200000	 28.7779
6.284000	 29.1023
6.368000	 29.0904
6.452000	 28.8921
6.536000	 29.0981
6.620000	 29.0599
6.704000	 29.0304
6.788000	 29.1807
6.872000	 29.0219
6.956000	 29.1198
7.040000	 29.1991
7.124000	 29.19
7.208000	 29.0495
7.292000	 29.2617
7.376000	 29.112
7.460000	 28.9324
7.544000	 28.9149
7.628000	 28.9197
7.712000	 28.8565
7.796000	 28.8045
7.880000	 28.824
7.964000	 28.7775
8.048000	 28.6583
8.132000	 28.6015
8.216000	 28.6057
8.300000	 28.6013
8.384000	 28.4595
8.468000	 28.5491
8.552000	 28.5246
8.635999	 28.4517
8.719999	 28.4127
8.804000	 28.0895
8.888000	 28.2731
8.972000	 28.1109
9.056000	 28.1321
9.140000	 28.1626
9.224000	 28.0334
9.308000	 27.9152
9.391999	 27.8428
9.475999	 27.9269
9.560000	 27.8858
9.644000	 27.6401
9.728000	 27.6148
9.812000	 27.5299
9.896000	 27.5727
9.980000	 27.3323
10.064	27.4977
10.148	27.4823
10.232	27.2948
10.316	27.1733
10.4	27.1966
10.484	27.2674
10.568	27.1567
10.652	26.8659
10.736	26.9596
10.82	26.9262
10.904	26.9791
10.988	26.8473
11.072	26.6448
11.156	26.6352
11.24	26.6196
11.324	26.5423
11.408	26.4039
11.492	26.2264
11.576	26.2572
11.66	26.1484
11.744	25.9317
11.828	25.9177
11.912	25.8817
11.996	25.8905
12.08	25.8219
12.164	25.7262
12.248	25.5955
12.332	25.4606
12.416	25.397
12.5	25.4496
12.584	25.4737
12.668	25.5154
12.752	25.4985
12.836	25.3706
12.92	25.2206
13.004	25.0676
13.088	24.802
13.172	24.5703
13.256	24.466
13.34	24.6192
13.424	24.6552
13.508	24.4992
13.592	24.5454
13.676	24.5831
13.76	24.5811
13.844	24.5189
13.928	24.2458
14.012	23.9581
14.096	23.8651
14.18	23.8788
14.264	23.8063
14.348	23.742
14.432	23.6771
14.516	23.6122
14.6	23.6566
14.684	23.6217
14.768	23.5209
14.852	23.5307
14.936	23.5047
15.02	23.4143
15.104	23.3281
15.188	23.2043
15.272	23.1229
15.356	23.0623
15.44	22.9038
15.524	22.7193
15.608	22.5643
15.692	22.4648
15.776	22.5261
15.86	22.6658
15.944	22.6627
16.028	22.5282
16.112	22.4407
16.196	22.4062
16.28	22.3167
16.364	22.2334
16.448	22.2305
16.532	22.1201
16.616	21.8179
16.7	21.6139
16.784	21.6781
16.868	21.8055
16.952	21.8084
17.036	21.7434
17.12	21.7061
17.204	21.6969
17.288	21.6898
17.372	21.6869
17.456	21.6929
17.54	21.6816
17.624	21.6333
17.708	21.5708
17.792	21.5124
17.876	21.4081
17.96	21.1866
18.044	20.8673
18.128	20.5922
18.212	20.5404
18.296	20.7592
18.38	21.0513
18.464	21.1324
18.548	20.935
18.632	20.6686
18.716	20.5579
18.8	20.6162
18.884	20.709
18.968	20.7407
19.052	20.6972
19.136	20.5867
19.22	20.4275
19.304	20.2745
19.388	20.2038
19.472	20.247
19.556	20.3645
19.64	20.4818
19.724	20.5456
19.808	20.5433
19.892	20.4849
19.976	20.3813
20.06	20.23
20.144	20.0382
20.228	19.8414
20.312	19.6899
20.396	19.6053
20.48	19.5625
20.564	19.5083
20.648	19.4044
20.732	19.2539
20.816	19.1053
20.9	19.0164
20.984	19.0163
21.068	19.0885
21.152	19.1856
21.236	19.2569
21.32	19.2607
21.404	19.1715
21.488	18.9758
21.572	18.682
21.656	18.3329
21.74	17.9927
21.824	17.7118
21.908	17.4937
21.992	17.3097
22.076	17.1405
22.16	16.9979
22.244	16.918
22.328	16.9303
22.412	17.0454
22.496	17.2559
22.58	17.5475
22.664	17.8926
22.748	18.2296
22.832	18.4655
22.916	18.4947
23	18.2747
23.084	17.8451
23.168	17.3083
23.252	16.7628
23.336	16.271
23.42	15.8588
23.504	15.5327
23.588	15.311
23.672	15.2235
23.756	15.2758
23.84	15.4316
23.924	15.6195
24.008	15.7521
24.092	15.7483
24.176	15.5691
24.26	15.1599
24.344	14.4586
24.428	13.4512
24.512	12.2076
24.596	10.9086
24.68	9.780676
24.764	8.985177
24.848	8.515050
24.932	8.219384
25.016	7.876229
25.1	7.242926
25.184	6.231989
25.268	4.967826
25.352	3.683702
25.436	2.732518
25.52	2.449283
25.604	3.042721
25.688	4.605617
25.772	7.140009
25.856	10.5813
25.94	14.6304
26.024	18.7633
26.108	22.3589
26.192	25.0865
26.276	26.9406
26.36	28.254
26.444	29.2442
26.528	29.7622
26.612	29.2454
26.696	26.985
26.78	22.5524
26.864	16.0258
26.948	7.917871
27.028	-0.635361