File: Bakgrunnsmateriale/MATLAB/FTIR/ftir_data/LPE453/Mapping_121/LPE453_t56_cm-1.asc
PE IR       SPECTRUM    SPECTRUM    ASCII       PEDS        1.60
  -1
LPE95A~1.ASC
17/05/16
18:57:37.00
17/05/16
18:57:37.00
tln
$LPE453_t0056$<tbV0>[13.0,0.0,8.0,0.0,27,1,0]
370
64

2002,4.07
MIRTGS : RIGHTBACK : INTERNAL 2
MIR : ON : INTERNAL 2
OPTKBR

0.200000
8
8.000000
FILLER
RATIO
SPECTRUM
UNLOCKED 256

DOUBLE
64
COMBINED
1
0
0

1.000000
RATIO

1
0
TRUE
51149
0
LEFT NOT FITTED RIGHT NOT FITTED 0
NONE
NONE
15600
12
4.427000
51148
TRUE
1 0 8 72 0 0 0 0

15798

#HDR
-1
-1
#GR
CM-1
%T
2.38419e-05
0.0
5000
-1.000000
4631
8
24.9625
-11.8752
#DATA
5000	0.447511
4984	0.385475
4968	0.449824
4952	0.037646
4936	0.185322
4920	0.128650
4904	-0.176596
4888	0.167679
4872	0.467634
4856	0.452709
4840	-0.129938
4824	-0.031208
4808	0.482702
4792	0.299739
4776	0.360989
4760	0.270199
4744	-0.198531
4728	1.001954
4712	0.860285
4696	-0.583887
4680	1.518368
4664	0.541090
4648	0.510120
4632	0.979328
4616	-0.272059
4600	0.218272
4584	1.208734
4568	0.597286
4552	1.037478
4536	-0.652956
4520	-0.965905
4504	-3.335380
4488	24.9625
4472	-3.490138
4456	1.180028
4440	-0.997972
4424	-0.286793
4408	0.180172
4392	0.735187
4376	0.600337
4360	0.544571
4344	0.500321
4328	0.571012
4312	0.021147
4296	0.087165
4280	0.413584
4264	0.394296
4248	0.148677
4232	0.115823
4216	0.166869
4200	0.183033
4184	0.081372
4168	0.699043
4152	0.459432
4136	0.409650
4120	0.143170
4104	0.209689
4088	0.227427
4072	0.203442
4056	0.141429
4040	0.094056
4024	0.068616
4008	0.151491
3992	-0.121736
3976	0.035572
3960	0.163316
3944	0.344133
3928	0.097346
3912	0.107383
3896	0.057005
3880	0.169706
3864	0.204992
3848	0.065779
3832	0.362753
3816	0.102353
3800	0.099277
3784	0.125002
3768	0.030875
3752	0.220346
3736	0.147557
3720	0.046014
3704	0.043034
3688	0.187969
3672	0.015640
3656	0.104045
3640	0.061631
3624	0.061082
3608	0.116491
3592	0.165128
3576	-0.098204
3560	0.093460
3544	-0.002074
3528	0.031018
3512	0.002098
3496	0.098657
3480	0.124263
3464	0.261521
3448	-0.007820
3432	-0.005435
3416	0.082755
3400	-0.065350
3384	-0.032734
3368	-0.040173
3352	0.051522
3336	0.008320
3320	0.084161
3304	0.143742
3288	-0.019907
3272	-0.000548
3256	0.038838
3240	0.002837
3224	0.080728
3208	0.049042
3192	0.046133
3176	0.077795
3160	0.012230
3144	0.220417
3128	0.129556
3112	0.067734
3096	0.140333
3080	-0.005674
3064	-0.055575
3048	0.091314
3032	-0.051021
3016	-0.003886
3000	-0.040292
2984	0.065350
2968	-0.023150
2952	0.165653
2936	0.010466
2920	0.035977
2904	0.020051
2888	0.003266
2872	0.011587
2856	-0.007367
2840	0.077390
2824	0.029897
2808	0.021457
2792	0.081300
2776	0.043988
2760	-0.128531
2744	-0.098991
2728	0.123691
2712	0.058054
2696	-0.007128
2680	0.013899
2664	0.143241
2648	0.028061
2632	0.029349
2616	0.059008
2600	0.084495
2584	0.021004
2568	0.067043
2552	0.084829
2536	0.130534
2520	0.077724
2504	0.090169
2488	0.112485
2472	-0.010561
2456	-0.010871
2440	-0.013780
2424	0.007796
2408	-0.049328
2392	0.117564
2376	0.151729
2360	0.062870
2344	-0.010681
2328	-0.069069
2312	0.018548
2296	0.078511
2280	-0.030636
2264	0.195670
2248	0.278520
2232	0.435757
2216	0.648427
2200	0.906181
2184	1.402711
2168	2.106523
2152	2.753829
2136	3.690862
2120	4.757404
2104	5.915522
2088	7.248878
2072	8.632349
2056	10.0187
2040	11.2898
2024	12.5178
2008	13.7911
1992	14.9311
1976	16.0442
1960	16.9596
1944	17.8455
1928	18.594
1912	19.3369
1896	19.9131
1880	20.471
1864	20.8894
1848	21.4065
1832	21.6965
1816	22.0482
1800	22.5041
1784	22.6339
1768	22.8371
1752	23.0414
1736	23.2446
1720	23.5115
1704	23.5227
1688	23.7209
1672	23.7148
1656	23.7187
1640	23.8387
1624	23.8735
1608	23.9899
1592	24.0465
1576	24.0615
1560	24.1062
1544	23.9974
1528	24.0993
1512	24.0561
1496	23.9912
1480	24.0783
1464	23.9792
1448	24.0408
1432	24.0752
1416	24.0459
1400	23.9874
1384	23.8435
1368	23.9449
1352	23.7486
1336	23.7334
1320	23.7774
1304	23.5573
1288	23.6178
1272	23.4946
1256	23.4489
1240	23.6216
1224	23.231
1208	23.4229
1192	23.2235
1176	23.121
1160	23.3031
1144	22.9055
1128	22.8656
1112	22.8625
1096	22.3992
1080	22.5479
1064	22.5255
1048	22.3506
1032	22.2347
1016	21.9086
1000	21.951
984	 21.8691
968	 21.3268
952	 21.641
936	 21.1066
920	 20.6581
904	 20.7529
888	 20.1444
872	 20.3476
856	 19.9029
840	 19.6056
824	 19.651
808	 19.1854
792	 19.0313
776	 18.8448
760	 18.1794
744	 18.297
728	 17.9417
712	 17.4467
696	 17.3549
680	 16.7005
664	 16.3945
648	 16.6665
632	 15.5745
616	 15.5632
600	 15.0833
584	 14.9069
568	 14.4823
552	 13.7064
536	 13.8472
520	 13.4247
504	 13.0511
488	 12.5484
472	 11.7765
456	 12.2248
440	 10.5551
424	 10.2862
408	 6.523323
392	 15.8343
376	 -6.707882
370	 -2.791261