File: Bakgrunnsmateriale/MATLAB/FTIR/ftir_data/LPE453/Mapping_121/LPE453_t79_cm-1.asc
PE IR       SPECTRUM    SPECTRUM    ASCII       PEDS        1.60
  -1
LPEADC~1.ASC
17/05/16
20:51:01.00
17/05/16
20:51:01.00
tln
$LPE453_t0079$<tbV0>[10.4,5.2,8.0,0.0,27,1,0]
370
64

2002,4.07
MIRTGS : RIGHTBACK : INTERNAL 2
MIR : ON : INTERNAL 2
OPTKBR

0.200000
8
8.000000
FILLER
RATIO
SPECTRUM
UNLOCKED 256

DOUBLE
64
COMBINED
1
0
0

1.000000
RATIO

1
0
TRUE
51149
0
LEFT NOT FITTED RIGHT NOT FITTED 0
NONE
NONE
15600
12
4.427000
51148
TRUE
1 0 8 72 0 0 0 0

15798

#HDR
-1
-1
#GR
CM-1
%T
2.38419e-05
0.0
5000
-1.000000
4631
8
28.5308
-3.973007
#DATA
5000	0.505256
4984	0.232887
4968	0.108242
4952	-0.145125
4936	0.336265
4920	0.336170
4904	0.363707
4888	0.197172
4872	-0.082063
4856	0.241756
4840	0.267553
4824	0.221347
4808	0.414299
4792	0.647473
4776	0.397348
4760	0.141096
4744	0.313663
4728	0.528097
4712	-0.142407
4696	-0.114250
4680	0.607752
4664	0.171542
4648	-2.077627
4632	-0.626564
4616	-0.856399
4600	0.180220
4584	-0.260257
4568	-0.547385
4552	-1.257085
4536	-1.298737
4520	-0.428199
4504	1.222991
4488	11.0208
4472	-1.191926
4456	-0.688362
4440	-0.677084
4424	-0.327944
4408	0.267457
4392	0.320625
4376	0.282335
4360	0.381684
4344	0.045728
4328	-0.164747
4312	-0.093770
4296	0.168752
4280	0.170254
4264	-0.066566
4248	-0.125551
4232	0.104141
4216	-0.058984
4200	0.213193
4184	0.290656
4168	0.279879
4152	0.096702
4136	0.250101
4120	0.096082
4104	0.022172
4088	0.072407
4072	0.160717
4056	0.022435
4040	0.093483
4024	-0.001287
4008	0.141382
3992	-0.173568
3976	0.218796
3960	0.181674
3944	0.012516
3928	0.065350
3912	-0.048899
3896	0.121378
3880	0.090599
3864	0.175261
3848	-0.102066
3832	0.113630
3816	-0.166893
3800	0.036811
3784	-0.038218
3768	0.108194
3752	0.082969
3736	-0.058794
3720	0.008964
3704	0.220489
3688	0.107312
3672	0.135993
3656	0.125861
3640	0.107169
3624	0.154948
3608	0.018048
3592	0.011968
3576	0.070476
3560	0.049209
3544	-0.044631
3528	0.097846
3512	0.012803
3496	0.137448
3480	-0.041818
3464	-0.011062
3448	0.151586
3432	0.031208
3416	0.053620
3400	-0.077867
3384	0.150966
3368	0.097036
3352	0.174021
3336	-0.075006
3320	-0.103759
3304	0.200152
3288	-0.027132
3272	-0.011110
3256	0.084877
3240	0.033164
3224	-0.065779
3208	0.014448
3192	0.158333
3176	0.020956
3160	0.079727
3144	0.028204
3128	0.121855
3112	0.040292
3096	-0.024962
3080	0.029897
3064	0.035667
3048	0.030899
3032	0.124597
3016	0.213646
3000	0.068950
2984	0.024962
2968	0.107336
2952	0.099515
2936	0.104761
2920	-0.098514
2904	-0.116252
2888	0.050616
2872	0.047421
2856	0.073456
2840	0.077819
2824	0.008964
2808	0.039815
2792	0.065469
2776	0.050830
2760	-0.027465
2744	0.000977
2728	0.061154
2712	0.024890
2696	0.095844
2680	0.092840
2664	-0.058197
2648	0.010013
2632	0.105595
2616	0.030589
2600	0.051188
2584	0.140237
2568	0.030159
2552	0.080227
2536	-0.032734
2520	0.054430
2504	-0.049161
2488	0.060439
2472	0.007057
2456	0.000977
2440	-0.030708
2424	-0.019145
2408	-0.015974
2392	-0.051307
2376	0.116801
2360	0.034236
2344	0.075387
2328	0.029301
2312	0.017356
2296	0.010013
2280	0.243520
2264	0.234103
2248	0.411987
2232	0.674223
2216	1.036548
2200	1.423525
2184	2.245044
2168	3.099131
2152	4.144763
2136	5.381202
2120	6.710076
2104	8.186411
2088	9.780478
2072	11.4465
2056	13.199
2040	14.6518
2024	16.1411
2008	17.7124
1992	18.8778
1976	20.2615
1960	21.3335
1944	22.2836
1928	23.475
1912	23.9869
1896	24.6919
1880	25.4576
1864	25.738
1848	26.4862
1832	26.6675
1816	26.8952
1800	27.4077
1784	27.4408
1768	27.6429
1752	28.0661
1736	27.804
1720	28.2119
1704	28.2182
1688	28.1794
1672	28.3105
1656	28.3485
1640	28.3448
1624	28.474
1608	28.244
1592	28.2451
1576	28.4502
1560	28.1334
1544	28.3399
1528	28.3764
1512	28.1487
1496	28.3956
1480	28.213
1464	27.9751
1448	28.1885
1432	28.01
1416	27.9554
1400	28.2432
1384	27.8659
1368	27.8538
1352	28.0848
1336	27.606
1320	27.7063
1304	27.8274
1288	27.3237
1272	27.6576
1256	27.5306
1240	27.2854
1224	27.5464
1208	27.2197
1192	26.9245
1176	27.5685
1160	27.075
1144	26.7168
1128	27.2581
1112	26.595
1096	26.4935
1080	26.8573
1064	26.2267
1048	26.2144
1032	26.2868
1016	25.7858
1000	25.8219
984	 25.9035
968	 25.1558
952	 25.4266
936	 25.1563
920	 24.6899
904	 24.8877
888	 24.7279
872	 23.8399
856	 24.1999
840	 23.6873
824	 23.2407
808	 23.5957
792	 22.9221
776	 22.5045
760	 22.7972
744	 21.8793
728	 21.5497
712	 21.6094
696	 20.9079
680	 20.6344
664	 20.5779
648	 19.7205
632	 19.4074
616	 18.8713
600	 18.5244
584	 18.7569
568	 18.2626
552	 17.1343
536	 17.1292
520	 16.4724
504	 16.0251
488	 16.2142
472	 15.1736
456	 14.5392
440	 14.093
424	 12.889
408	 8.341622
392	 11.8005
376	 12.2011
370	 15.5