File: Bakgrunnsmateriale/MATLAB/FTIR/ftir_data/LPE453/Mapping_121/LPE453_t35.asc
PE IR       SPECTRUM    SPECTRUM    ASCII       PEDS        1.60
  -1
LPDF9D~1.ASC
17/05/16
17:13:13.00
17/05/16
17:13:39.00
tln
$LPE453_t0035$<tbV0>[10.4,-5.2,8.0,0.0,27,1,0]
27.028
64

2002,4.07
MIRTGS : RIGHTBACK : INTERNAL 2
MIR : ON : INTERNAL 2
OPTKBR

0.200000
8
8.000000
FILLER
RATIO
SPECTRUM
UNLOCKED 256

DOUBLE
64
COMBINED
1
0
0

0.002000
RATIO

1
0
TRUE
51149
0
LEFT NOT FITTED RIGHT NOT FITTED 0
NONE
NONE
15600
12
4.427000
51148
TRUE
1 0 8 72 0 0 0 0

15798

#HDR
-1
-1
#GR
µM
%T
2.38419e-05
0.0
2.000000
0.002000
12515
8
24.7167
-14.6198
#DATA
2.000000	 -0.109601
2.084000	 0.323740
2.168000	 1.488990
2.252000	 0.502187
2.336000	 0.179506
2.420000	 0.303723
2.504000	 0.086813
2.588000	 -0.177650
2.672000	 0.139718
2.756000	 0.080387
2.840000	 0.081636
2.924000	 0.154099
3.008000	 -0.034919
3.092000	 0.124832
3.176000	 0.052301
3.260000	 -0.160977
3.344000	 -0.027809
3.428000	 0.064996
3.512000	 0.029652
3.596000	 0.010318
3.680000	 0.165023
3.764000	 0.103506
3.848000	 0.035350
3.932000	 0.008713
4.016000	 0.074434
4.100000	 0.044639
4.184000	 -0.032691
4.268000	 0.002972
4.352000	 -0.024838
4.436000	 0.120799
4.520000	 0.653347
4.604000	 1.846753
4.688000	 4.059538
4.772000	 6.729076
4.856000	 10.0665
4.940000	 13.0667
5.024000	 15.8952
5.108000	 18.0012
5.192000	 19.6768
5.276000	 21.0308
5.359999	 22.1508
5.444000	 22.8271
5.528000	 23.4482
5.612000	 23.8287
5.696000	 24.0458
5.780000	 24.3277
5.864000	 24.488
5.948000	 24.444
6.032000	 24.5742
6.116000	 24.6218
6.200000	 24.6505
6.284000	 24.5755
6.368000	 24.6828
6.452000	 24.5873
6.536000	 24.5542
6.620000	 24.6292
6.704000	 24.5874
6.788000	 24.38
6.872000	 24.3896
6.956000	 24.5048
7.040000	 24.2536
7.124000	 24.1138
7.208000	 24.2234
7.292000	 23.8995
7.376000	 24.0965
7.460000	 24.0523
7.544000	 23.8135
7.628000	 23.8223
7.712000	 23.9085
7.796000	 23.7256
7.880000	 23.6434
7.964000	 23.6909
8.048000	 23.602
8.132000	 23.605
8.216000	 23.4561
8.300000	 23.4349
8.384000	 23.3494
8.468000	 23.2288
8.552000	 23.1432
8.635999	 23.1288
8.719999	 23.0754
8.804000	 22.8656
8.888000	 22.9402
8.972000	 22.8995
9.056000	 22.7889
9.140000	 22.5937
9.224000	 22.6676
9.308000	 22.5533
9.391999	 22.4207
9.475999	 22.4997
9.560000	 22.5209
9.644000	 22.1609
9.728000	 22.1961
9.812000	 22.1642
9.896000	 21.9389
9.980000	 21.913
10.064	21.7278
10.148	21.6564
10.232	21.7571
10.316	21.4169
10.4	21.4059
10.484	21.4028
10.568	21.5302
10.652	21.0029
10.736	21.1085
10.82	21.0755
10.904	20.747
10.988	20.6482
11.072	20.5763
11.156	20.3915
11.24	20.4152
11.324	20.4052
11.408	20.2794
11.492	19.8419
11.576	19.7885
11.66	19.6773
11.744	19.6662
11.828	19.7057
11.912	19.6435
11.996	19.4513
12.08	19.2688
12.164	19.1641
12.248	19.0905
12.332	19.1107
12.416	18.955
12.5	19.0421
12.584	18.9998
12.668	18.917
12.752	19.0009
12.836	18.7901
12.92	18.5612
13.004	18.4808
13.088	18.3553
13.172	18.3121
13.256	18.2404
13.34	18.1351
13.424	18.1329
13.508	18.1618
13.592	18.0859
13.676	17.9526
13.76	17.786
13.844	17.5793
13.928	17.398
14.012	17.3658
14.096	17.2884
14.18	17.036
14.264	16.9362
14.348	17.0817
14.432	17.1361
14.516	16.9649
14.6	16.7942
14.684	16.7823
14.768	16.6783
14.852	16.4521
14.936	16.4152
15.02	16.4853
15.104	16.3842
15.188	16.1188
15.272	15.9403
15.356	15.9968
15.44	16.0409
15.524	15.9116
15.608	15.8387
15.692	15.8856
15.776	15.8282
15.86	15.5678
15.944	15.212
16.028	14.9532
16.112	14.9146
16.196	15.0276
16.28	15.1251
16.364	15.0996
16.448	14.9471
16.532	14.7256
16.616	14.5118
16.7	14.3813
16.784	14.364
16.868	14.3915
16.952	14.3568
17.036	14.1895
17.12	13.9043
17.204	13.6444
17.288	13.5738
17.372	13.6822
17.456	13.8303
17.54	13.9585
17.624	14.0817
17.708	14.1678
17.792	14.1887
17.876	14.1794
17.96	14.132
18.044	13.9404
18.128	13.5614
18.212	13.1549
18.296	12.9474
18.38	12.9869
18.464	13.1349
18.548	13.252
18.632	13.313
18.716	13.3328
18.8	13.2933
18.884	13.1929
18.968	13.1216
19.052	13.2008
19.136	13.4279
19.22	13.637
19.304	13.6428
19.388	13.3997
19.472	12.9994
19.556	12.5693
19.64	12.2037
19.724	11.9719
19.808	11.9132
19.892	11.9952
19.976	12.1014
20.06	12.1028
20.144	11.9522
20.228	11.7066
20.312	11.4737
20.396	11.3427
20.48	11.3633
20.564	11.5349
20.648	11.7952
20.732	12.0311
20.816	12.14
20.9	12.1085
20.984	12.0205
21.068	11.9817
21.152	12.0233
21.236	12.0767
21.32	12.0275
21.404	11.8138
21.488	11.4572
21.572	11.0365
21.656	10.629
21.74	10.2827
21.824	10.0295
21.908	9.896825
21.992	9.891387
22.076	9.976227
22.16	10.0649
22.244	10.064
22.328	9.938703
22.412	9.749852
22.496	9.641075
22.58	9.758304
22.664	10.1808
22.748	10.87
22.832	11.6847
22.916	12.4205
23	12.8768
23.084	12.9341
23.168	12.5914
23.252	11.9712
23.336	11.2889
23.42	10.7792
23.504	10.5762
23.588	10.6822
23.672	10.9955
23.756	11.3331
23.84	11.5493
23.924	11.5959
24.008	11.5012
24.092	11.3148
24.176	11.0779
24.26	10.7787
24.344	10.3996
24.428	9.978137
24.512	9.628971
24.596	9.509570
24.68	9.715941
24.764	10.1633
24.848	10.5686
24.932	10.4001
25.016	9.084660
25.1	6.281455
25.184	2.044464
25.268	-3.084228
25.352	-8.238156
25.436	-12.3222
25.52	-14.4346
25.604	-14.1755
25.688	-11.6638
25.772	-7.510394
25.856	-2.566257
25.94	2.360559
26.024	6.620210
26.108	9.801746
26.192	11.8037
26.276	12.7483
26.36	12.8555
26.444	12.397
26.528	11.6812
26.612	11.049
26.696	10.924
26.78	11.7999
26.864	14.0092
26.948	17.4408
27.028	21.1118