File: Bakgrunnsmateriale/MATLAB/FTIR/ftir_data/LPE453/Mapping_121/LPE453_t66_cm-1.asc
PE IR       SPECTRUM    SPECTRUM    ASCII       PEDS        1.60
  -1
LP6A5A~1.ASC
17/05/16
19:43:44.00
17/05/16
19:43:44.00
tln
$LPE453_t0066$<tbV0>[-13.0,0.0,8.0,0.0,27,1,0]
370
64

2002,4.07
MIRTGS : RIGHTBACK : INTERNAL 2
MIR : ON : INTERNAL 2
OPTKBR

0.200000
8
8.000000
FILLER
RATIO
SPECTRUM
UNLOCKED 256

DOUBLE
64
COMBINED
1
0
0

1.000000
RATIO

1
0
TRUE
51149
0
LEFT NOT FITTED RIGHT NOT FITTED 0
NONE
NONE
15600
12
4.427000
51148
TRUE
1 0 8 72 0 0 0 0

15798

#HDR
-1
-1
#GR
CM-1
%T
2.38419e-05
0.0
5000
-1.000000
4631
8
39.889
-3.929185
#DATA
5000	0.444149
4984	0.198864
4968	-0.302219
4952	0.090527
4936	0.309538
4920	0.132894
4904	0.021839
4888	0.271892
4872	-0.100779
4856	0.050830
4840	0.140690
4824	0.095939
4808	0.309634
4792	-0.114941
4776	0.263977
4760	-0.097584
4744	0.187420
4728	-0.893354
4712	0.559902
4696	0.969386
4680	2.730846
4664	0.612521
4648	0.228333
4632	-0.362277
4616	-0.362300
4600	-0.025773
4584	-0.215530
4568	0.557470
4552	-0.129747
4536	0.412321
4520	-0.010752
4504	-2.146387
4488	2.567625
4472	1.270294
4456	1.000046
4440	-0.036525
4424	0.228238
4408	-0.100016
4392	-0.228428
4376	0.264883
4360	-0.058484
4344	0.148272
4328	0.538325
4312	0.151109
4296	0.111055
4280	0.112271
4264	0.146818
4248	0.082707
4232	0.290775
4216	-0.048971
4200	-0.102567
4184	0.134921
4168	-0.068283
4152	-0.049114
4136	0.058197
4120	0.026249
4104	0.077915
4088	0.068426
4072	0.131821
4056	-0.072717
4040	-0.015354
4024	-0.106978
4008	0.163364
3992	0.084686
3976	-0.103616
3960	-0.009584
3944	0.218176
3928	-0.012040
3912	0.026011
3896	0.102019
3880	0.073122
3864	-0.163865
3848	0.049948
3832	0.061726
3816	0.108599
3800	0.240778
3784	-0.012302
3768	0.063586
3752	-0.005602
3736	0.138258
3720	0.060868
3704	0.181150
3688	-0.030231
3672	0.029945
3656	0.062799
3640	-0.010871
3624	-0.049924
3608	-0.012183
3592	-0.005960
3576	0.087118
3560	0.176572
3544	0.167798
3528	0.140428
3512	0.077629
3496	0.160264
3480	-0.002932
3464	0.006365
3448	-0.024509
3432	0.238323
3416	0.039243
3400	-0.052118
3384	-0.060653
3368	0.121259
3352	0.083327
3336	0.061607
3320	0.030398
3304	-0.061440
3288	0.076985
3272	-0.025200
3256	0.071406
3240	0.066709
3224	0.117993
3208	0.089573
3192	-0.076031
3176	0.020956
3160	0.141549
3144	0.139975
3128	-0.029540
3112	-0.045657
3096	0.077033
3080	0.175905
3064	-0.011754
3048	-0.028181
3032	-0.076198
3016	-0.002312
3000	0.091171
2984	0.023579
2968	0.211238
2952	0.040912
2936	0.141525
2920	0.122952
2904	0.150513
2888	-0.083184
2872	-0.068974
2856	-0.026035
2840	0.054287
2824	-0.017046
2808	0.003385
2792	-0.000762
2776	-0.057411
2760	0.070142
2744	-0.028014
2728	0.053429
2712	-0.030136
2696	0.103259
2680	0.049471
2664	0.027751
2648	0.116181
2632	0.074386
2616	0.026011
2600	-0.076556
2584	0.052237
2568	-0.035905
2552	-0.057768
2536	0.129795
2520	0.075483
2504	-0.099396
2488	0.022220
2472	-0.008106
2456	0.043296
2440	0.163340
2424	-0.042223
2408	-0.015473
2392	0.044393
2376	0.023102
2360	0.026631
2344	-0.129222
2328	0.004267
2312	0.132107
2296	0.058746
2280	0.269770
2264	0.294566
2248	0.571250
2232	0.790953
2216	1.371526
2200	1.809477
2184	2.663683
2168	3.577065
2152	4.509377
2136	5.846142
2120	7.265472
2104	8.791089
2088	10.2768
2072	11.8696
2056	13.4701
2040	15.0837
2024	16.7115
2008	17.9448
1992	19.168
1976	20.4257
1960	21.4248
1944	22.4636
1928	23.3249
1912	23.9797
1896	24.7608
1880	25.3663
1864	25.7862
1848	26.3546
1832	26.7219
1816	27.05
1800	27.5882
1784	27.8435
1768	27.9389
1752	28.4342
1736	28.3792
1720	28.5532
1704	28.9863
1688	28.8956
1672	28.9977
1656	29.3726
1640	29.0964
1624	29.2842
1608	29.4897
1592	29.3332
1576	29.4184
1560	29.7134
1544	29.5317
1528	29.5703
1512	29.7605
1496	29.4147
1480	29.7378
1464	29.9459
1448	29.4354
1432	29.6669
1416	29.6843
1400	29.3627
1384	29.4943
1368	29.5671
1352	29.1934
1336	29.4959
1320	29.4566
1304	29.047
1288	29.2128
1272	29.2784
1256	28.9425
1240	29.0765
1224	29.0769
1208	28.5979
1192	28.8477
1176	28.8139
1160	28.0769
1144	28.4534
1128	28.4232
1112	27.8018
1096	27.9896
1080	28.039
1064	27.3383
1048	27.5301
1032	27.4976
1016	26.9127
1000	27.0553
984	 26.861
968	 26.1925
952	 26.3145
936	 26.399
920	 25.488
904	 25.595
888	 25.5427
872	 24.8736
856	 24.8231
840	 24.7369
824	 23.904
808	 23.9409
792	 23.966
776	 23.2675
760	 23.3296
744	 23.1637
728	 22.4979
712	 22.2301
696	 22.1462
680	 21.4473
664	 21.2622
648	 21.2862
632	 20.2454
616	 20.1935
600	 20.0311
584	 19.5891
568	 18.8206
552	 19.1872
536	 18.4302
520	 17.5929
504	 17.8599
488	 17.4248
472	 17.1986
456	 16.2702
440	 14.155
424	 17.1061
408	 9.279870
392	 15.08
376	 23.0036
370	 5.628299