File: Bakgrunnsmateriale/MATLAB/FTIR/ftir_data/LPE453/Mapping_121/LPE453_t101.asc
PE IR       SPECTRUM    SPECTRUM    ASCII       PEDS        1.60
  -1
LP9776~1.ASC
17/05/16
22:39:33.00
17/05/16
22:39:59.00
tln
$LPE453_t0101$<tbV0>[10.4,10.4,8.0,0.0,27,1,0]
27.028
64

2002,4.07
MIRTGS : RIGHTBACK : INTERNAL 2
MIR : ON : INTERNAL 2
OPTKBR

0.200000
8
8.000000
FILLER
RATIO
SPECTRUM
UNLOCKED 256

DOUBLE
64
COMBINED
1
0
0

0.002000
RATIO

1
0
TRUE
51149
0
LEFT NOT FITTED RIGHT NOT FITTED 0
NONE
NONE
15600
12
4.427000
51148
TRUE
1 0 8 72 0 0 0 0

15798

#HDR
-1
-1
#GR
µM
%T
2.38419e-05
0.0
2.000000
0.002000
12515
8
30.1195
-1.159362
#DATA
2.000000	 0.232505
2.084000	 -0.193637
2.168000	 0.200462
2.252000	 0.118439
2.336000	 -0.277647
2.420000	 0.217652
2.504000	 0.355046
2.588000	 0.060236
2.672000	 0.002762
2.756000	 0.135873
2.840000	 0.014897
2.924000	 -0.001295
3.008000	 0.037318
3.092000	 -0.079046
3.176000	 0.165395
3.260000	 0.013202
3.344000	 0.043015
3.428000	 -0.151258
3.512000	 0.071271
3.596000	 0.032361
3.680000	 0.137029
3.764000	 0.072924
3.848000	 0.105498
3.932000	 0.025239
4.016000	 -0.093706
4.100000	 0.026528
4.184000	 0.009015
4.268000	 -0.001943
4.352000	 0.223615
4.436000	 0.758543
4.520000	 2.097324
4.604000	 4.353947
4.688000	 7.501038
4.772000	 11.2961
4.856000	 15.0253
4.940000	 18.1496
5.024000	 20.9424
5.108000	 23.1337
5.192000	 24.7863
5.276000	 26.0525
5.359999	 27.1401
5.444000	 27.8511
5.528000	 28.4012
5.612000	 28.8699
5.696000	 29.1344
5.780000	 29.3549
5.864000	 29.4624
5.948000	 29.7826
6.032000	 29.7938
6.116000	 29.8819
6.200000	 29.9042
6.284000	 29.9183
6.368000	 30.034
6.452000	 29.9439
6.536000	 29.9636
6.620000	 30.0747
6.704000	 29.9319
6.788000	 29.9764
6.872000	 29.9441
6.956000	 29.8515
7.040000	 29.8758
7.124000	 29.898
7.208000	 30.0367
7.292000	 29.9046
7.376000	 29.8819
7.460000	 29.9409
7.544000	 29.905
7.628000	 29.7802
7.712000	 29.8546
7.796000	 29.778
7.880000	 29.7767
7.964000	 29.6344
8.048000	 29.7507
8.132000	 29.6223
8.216000	 29.8284
8.300000	 29.6677
8.384000	 29.6788
8.468000	 29.6751
8.552000	 29.5145
8.635999	 29.5275
8.719999	 29.4526
8.804000	 29.3904
8.888000	 29.4472
8.972000	 29.4784
9.056000	 29.484
9.140000	 29.2819
9.224000	 29.3228
9.308000	 29.2111
9.391999	 29.2055
9.475999	 29.1968
9.560000	 29.1357
9.644000	 28.9781
9.728000	 28.7661
9.812000	 28.8945
9.896000	 29.0885
9.980000	 28.866
10.064	28.7575
10.148	28.7118
10.232	28.5915
10.316	28.3681
10.4	28.5107
10.484	28.6117
10.568	28.441
10.652	28.4422
10.736	28.1711
10.82	28.1387
10.904	28.1476
10.988	28.1425
11.072	28.0224
11.156	27.8616
11.24	27.8069
11.324	27.6997
11.408	27.677
11.492	27.5714
11.576	27.6002
11.66	27.4657
11.744	27.5208
11.828	27.5386
11.912	27.4022
11.996	27.1514
12.08	26.9544
12.164	26.7392
12.248	26.7691
12.332	26.7979
12.416	26.7559
12.5	26.8106
12.584	26.9272
12.668	26.9162
12.752	26.6998
12.836	26.4135
12.92	26.2576
13.004	26.2116
13.088	26.1411
13.172	25.8995
13.256	25.7946
13.34	25.7562
13.424	25.7949
13.508	25.8652
13.592	25.8595
13.676	25.8981
13.76	25.778
13.844	25.5276
13.928	25.3201
14.012	25.279
14.096	25.2689
14.18	25.1369
14.264	24.9748
14.348	24.9795
14.432	24.9542
14.516	24.6639
14.6	24.5232
14.684	24.7032
14.768	24.8741
14.852	24.8822
14.936	24.8004
15.02	24.7079
15.104	24.4987
15.188	24.1744
15.272	23.9824
15.356	23.96
15.44	23.9292
15.524	23.8533
15.608	23.7541
15.692	23.6145
15.776	23.5529
15.86	23.6925
15.944	23.8766
16.028	23.8528
16.112	23.6076
16.196	23.3152
16.28	23.1035
16.364	22.9734
16.448	22.8772
16.532	22.8172
16.616	22.8638
16.7	23.0534
16.784	23.2719
16.868	23.312
16.952	23.103
17.036	22.8074
17.12	22.6304
17.204	22.5971
17.288	22.5978
17.372	22.5908
17.456	22.6268
17.54	22.7053
17.624	22.741
17.708	22.6815
17.792	22.5431
17.876	22.3418
17.96	22.1056
18.044	21.9241
18.128	21.8654
18.212	21.8762
18.296	21.8487
18.38	21.7426
18.464	21.582
18.548	21.386
18.632	21.1765
18.716	21.0095
18.8	20.9287
18.884	20.9088
18.968	20.8935
19.052	20.8847
19.136	20.9506
19.22	21.1244
19.304	21.3266
19.388	21.4311
19.472	21.3958
19.556	21.2913
19.64	21.2052
19.724	21.1395
19.808	21.0355
19.892	20.8608
19.976	20.6411
20.06	20.4056
20.144	20.1517
20.228	19.8754
20.312	19.6009
20.396	19.3636
20.48	19.1806
20.564	19.0461
20.648	18.9689
20.732	18.9743
20.816	19.073
20.9	19.2227
20.984	19.3383
21.068	19.3473
21.152	19.2389
21.236	19.0715
21.32	18.9382
21.404	18.9183
21.488	19.0253
21.572	19.202
21.656	19.3393
21.74	19.3297
21.824	19.1285
21.908	18.7849
21.992	18.4124
22.076	18.1249
22.16	17.9765
22.244	17.9427
22.328	17.9494
22.412	17.9319
22.496	17.8719
22.58	17.8129
22.664	17.8342
22.748	18.0047
22.832	18.3353
22.916	18.7634
23	19.1644
23.084	19.403
23.168	19.3748
23.252	19.0615
23.336	18.532
23.42	17.8887
23.504	17.2459
23.588	16.669
23.672	16.1608
23.756	15.6961
23.84	15.2459
23.924	14.8036
24.008	14.4087
24.092	14.1338
24.176	14.017
24.26	14.0489
24.344	14.1503
24.428	14.2021
24.512	14.1051
24.596	13.8195
24.68	13.4345
24.764	13.1844
24.848	13.3617
24.932	14.2039
25.016	15.7619
25.1	17.9214
25.184	20.4154
25.268	22.9075
25.352	25.0874
25.436	26.619
25.52	27.1907
25.604	26.5744
25.688	24.7234
25.772	21.8515
25.856	18.3726
25.94	14.8237
26.024	11.6595
26.108	9.053521
26.192	6.947856
26.276	5.163514
26.36	3.467373
26.444	1.853916
26.528	0.643760
26.612	0.346514
26.696	1.543296
26.78	4.614495
26.864	9.531129
26.948	15.7663
27.028	22.0201