File: Bakgrunnsmateriale/MATLAB/FTIR/ftir_data/LPE453/Mapping_121/LPE453_t116_cm-1.asc
PE IR       SPECTRUM    SPECTRUM    ASCII       PEDS        1.60
  -1
LP09FC~1.ASC
17/05/17
00:09:23.00
17/05/17
00:09:23.00
tln
$LPE453_t0116$<tbV0>[0.0,13.0,8.0,0.0,27,1,0]
370
64

2002,4.07
MIRTGS : RIGHTBACK : INTERNAL 2
MIR : ON : INTERNAL 2
OPTKBR

0.200000
8
8.000000
FILLER
RATIO
SPECTRUM
UNLOCKED 256

DOUBLE
64
COMBINED
1
0
0

1.000000
RATIO

1
0
TRUE
51149
0
LEFT NOT FITTED RIGHT NOT FITTED 0
NONE
NONE
15600
12
4.427000
51148
TRUE
1 0 8 72 0 0 0 0

15798

#HDR
-1
-1
#GR
CM-1
%T
2.38419e-05
0.0
5000
-1.000000
4631
8
36.1502
-2.264118
#DATA
5000	0.855875
4984	0.138115
4968	0.021505
4952	-0.391030
4936	0.307583
4920	0.217938
4904	-0.016593
4888	0.466299
4872	0.470161
4856	0.183963
4840	0.355029
4824	0.551581
4808	0.281715
4792	0.433206
4776	0.478768
4760	0.153684
4744	0.330877
4728	-0.041127
4712	0.100660
4696	-0.115203
4680	0.001287
4664	0.677871
4648	-0.193905
4632	1.365900
4616	0.848674
4600	1.015281
4584	-1.274275
4568	-0.263142
4552	-0.950860
4536	-1.273655
4520	-2.058506
4504	12.9637
4488	5.765128
4472	-1.763319
4456	-1.237082
4440	-1.417684
4424	-0.532221
4408	0.466942
4392	1.172018
4376	0.794363
4360	0.597023
4344	0.567030
4328	0.414490
4312	0.528430
4296	0.350093
4280	0.046086
4264	-0.059008
4248	0.113368
4232	0.466918
4216	0.077366
4200	0.025677
4184	0.415444
4168	0.330781
4152	0.340008
4136	0.312995
4120	0.225591
4104	0.317239
4088	0.064492
4072	0.078654
4056	0.007057
4040	0.132107
4024	0.122809
4008	0.062108
3992	0.155305
3976	0.167417
3960	0.060009
3944	0.251340
3928	0.234937
3912	0.205492
3896	0.276136
3880	0.035738
3864	-0.021958
3848	0.080299
3832	-0.012707
3816	0.012707
3800	0.067996
3784	0.025343
3768	0.073647
3752	0.302386
3736	0.224423
3720	0.200104
3704	0.148415
3688	0.062751
3672	0.087523
3656	0.102305
3640	0.020241
3624	-0.008606
3608	0.099873
3592	-0.107741
3576	0.144147
3560	-0.066089
3544	0.006699
3528	0.137686
3512	0.089192
3496	0.330257
3480	-0.059604
3464	-0.041103
3448	0.085902
3432	0.051641
3416	0.113320
3400	0.012993
3384	0.127983
3368	-0.059294
3352	0.145912
3336	0.080776
3320	0.101280
3304	-0.040626
3288	0.236487
3272	0.061726
3256	0.061893
3240	0.069665
3224	-0.000739
3208	0.061368
3192	-0.149512
3176	0.021171
3160	0.073075
3144	0.041818
3128	0.226497
3112	0.146937
3096	0.065708
3080	-0.012302
3064	0.074815
3048	0.039839
3032	0.043416
3016	-0.037145
3000	-0.014758
2984	-0.030803
2968	-0.046157
2952	0.028157
2936	0.177955
2920	0.056791
2904	0.112938
2888	0.054955
2872	0.040221
2856	0.024199
2840	0.104117
2824	0.044846
2808	-0.011610
2792	-0.028347
2776	0.017404
2760	-0.001978
2744	0.094485
2728	0.007963
2712	0.024342
2696	0.020289
2680	0.041723
2664	0.001955
2648	0.044703
2632	-0.029444
2616	0.117802
2600	-0.007152
2584	0.015330
2568	0.016403
2552	-0.026869
2536	0.025534
2520	-0.030922
2504	0.030136
2488	0.101518
2472	0.018358
2456	-0.039362
2440	0.079703
2424	0.186395
2408	0.182008
2392	0.165629
2376	0.130748
2360	0.202989
2344	0.399923
2328	0.498962
2312	0.625181
2296	0.839710
2280	1.320838
2264	1.822805
2248	2.407026
2232	3.147554
2216	4.146099
2200	5.349016
2184	6.702613
2168	8.236908
2152	10.0769
2136	11.9222
2120	13.7718
2104	15.6331
2088	17.5843
2072	19.3609
2056	21.1417
2040	22.7904
2024	24.2566
2008	25.6921
1992	26.8522
1976	27.9652
1960	28.9047
1944	29.8009
1928	30.5209
1912	31.1848
1896	31.9201
1880	32.4725
1864	32.798
1848	33.2476
1832	33.785
1816	34.1248
1800	34.2197
1784	34.4582
1768	34.8799
1752	34.9599
1736	34.9579
1720	35.1808
1704	35.4051
1688	35.5439
1672	35.467
1656	35.6224
1640	35.8308
1624	35.8294
1608	35.6843
1592	35.8249
1576	36.0606
1560	35.9489
1544	35.8641
1528	35.9652
1512	36.1502
1496	35.7159
1480	35.7588
1464	35.8519
1448	36.0022
1432	35.8273
1416	35.6445
1400	35.7549
1384	35.9456
1368	35.7229
1352	35.4784
1336	35.6821
1320	35.6708
1304	35.5565
1288	35.3715
1272	35.3724
1256	35.4674
1240	35.2283
1224	35.0208
1208	34.9662
1192	35.2466
1176	34.8321
1160	34.4814
1144	34.7926
1128	34.7775
1112	34.4205
1096	34.254
1080	34.2596
1064	34.5688
1048	34.2412
1032	33.7596
1016	33.8725
1000	33.9949
984	 33.744
968	 33.4375
952	 33.268
936	 33.6334
920	 33.323
904	 32.8445
888	 32.7472
872	 33.1862
856	 32.693
840	 32.0187
824	 31.8501
808	 32.1657
792	 32.0518
776	 31.45
760	 31.1551
744	 31.4457
728	 31.1311
712	 30.6845
696	 29.9916
680	 30.4227
664	 30.1445
648	 29.4668
632	 28.9202
616	 29.3265
600	 29.1548
584	 28.4095
568	 27.9926
552	 27.7366
536	 28.1848
520	 26.8672
504	 26.7011
488	 26.4945
472	 25.1134
456	 25.1616
440	 24.4834
424	 23.303
408	 21.2089
392	 21.1816
376	 31.392
370	 28.3298