File: Bakgrunnsmateriale/MATLAB/FTIR/ftir_data/LPE453/Mapping_121/LPE453_t82.asc
PE IR       SPECTRUM    SPECTRUM    ASCII       PEDS        1.60
  -1
LPC3B1~1.ASC
17/05/16
21:04:51.00
17/05/16
21:05:17.00
tln
$LPE453_t0082$<tbV0>[2.6,5.2,8.0,0.0,27,1,0]
27.028
64

2002,4.07
MIRTGS : RIGHTBACK : INTERNAL 2
MIR : ON : INTERNAL 2
OPTKBR

0.200000
8
8.000000
FILLER
RATIO
SPECTRUM
UNLOCKED 256

DOUBLE
64
COMBINED
1
0
0

0.002000
RATIO

1
0
TRUE
51149
0
LEFT NOT FITTED RIGHT NOT FITTED 0
NONE
NONE
15600
12
4.427000
51148
TRUE
1 0 8 72 0 0 0 0

15798

#HDR
-1
-1
#GR
µM
%T
2.38419e-05
0.0
2.000000
0.002000
12515
8
33.0471
-1.408590
#DATA
2.000000	 -0.358366
2.084000	 0.416546
2.168000	 0.204708
2.252000	 -1.278204
2.336000	 0.125085
2.420000	 0.067642
2.504000	 0.286513
2.588000	 0.060790
2.672000	 0.074234
2.756000	 0.085739
2.840000	 0.092591
2.924000	 0.061110
3.008000	 0.097871
3.092000	 -0.046164
3.176000	 0.149014
3.260000	 0.153204
3.344000	 -0.035691
3.428000	 -0.041502
3.512000	 -0.030627
3.596000	 0.040484
3.680000	 0.133673
3.764000	 0.019223
3.848000	 0.105875
3.932000	 0.036959
4.016000	 0.011139
4.100000	 0.091689
4.184000	 0.082362
4.268000	 0.163721
4.352000	 0.341694
4.436000	 1.109161
4.520000	 2.889912
4.604000	 5.831912
4.688000	 9.880813
4.772000	 14.5473
4.856000	 18.8252
4.940000	 22.3317
5.024000	 25.2302
5.108000	 27.3553
5.192000	 29.047
5.276000	 30.2548
5.359999	 31.1009
5.444000	 31.5413
5.528000	 32.0659
5.612000	 32.25
5.696000	 32.5873
5.780000	 32.6074
5.864000	 32.8934
5.948000	 32.802
6.032000	 32.9491
6.116000	 32.8402
6.200000	 32.8015
6.284000	 32.793
6.368000	 33.019
6.452000	 32.7951
6.536000	 32.7473
6.620000	 32.8685
6.704000	 32.4428
6.788000	 32.6567
6.872000	 32.4526
6.956000	 32.2086
7.040000	 32.4538
7.124000	 32.3658
7.208000	 32.1914
7.292000	 32.4497
7.376000	 32.404
7.460000	 32.0824
7.544000	 31.9026
7.628000	 32.1324
7.712000	 31.9792
7.796000	 31.6717
7.880000	 31.8749
7.964000	 31.9521
8.048000	 31.7271
8.132000	 31.4794
8.216000	 31.6908
8.300000	 31.6732
8.384000	 31.372
8.468000	 31.3332
8.552000	 31.4378
8.635999	 31.5256
8.719999	 31.1031
8.804000	 30.939
8.888000	 30.8237
8.972000	 31.3053
9.056000	 31.1458
9.140000	 30.8866
9.224000	 30.5764
9.308000	 30.7015
9.391999	 30.834
9.475999	 30.7128
9.560000	 30.2958
9.644000	 30.188
9.728000	 30.0759
9.812000	 30.4559
9.896000	 30.4007
9.980000	 30.2188
10.064	30.0773
10.148	29.8339
10.232	29.52
10.316	29.6749
10.4	29.7873
10.484	29.8768
10.568	29.6264
10.652	29.206
10.736	28.9756
10.82	28.9425
10.904	29.0365
10.988	29.1614
11.072	29.1844
11.156	28.9428
11.24	28.642
11.324	28.509
11.408	28.2367
11.492	28.2306
11.576	28.3425
11.66	28.4807
11.744	28.6045
11.828	28.434
11.912	28.1996
11.996	27.8833
12.08	27.5091
12.164	27.2054
12.248	27.2747
12.332	27.4798
12.416	27.5878
12.5	27.5731
12.584	27.5421
12.668	27.4437
12.752	27.0848
12.836	26.8057
12.92	26.7298
13.004	26.5584
13.088	26.6408
13.172	26.7547
13.256	26.816
13.34	26.8628
13.424	26.8542
13.508	26.9389
13.592	26.7535
13.676	26.228
13.76	25.955
13.844	25.8728
13.928	25.7184
14.012	25.6218
14.096	25.5858
14.18	25.526
14.264	25.327
14.348	25.0973
14.432	25.0741
14.516	25.1343
14.6	25.0341
14.684	24.8477
14.768	24.6715
14.852	24.5781
14.936	24.6643
15.02	24.808
15.104	24.8012
15.188	24.6111
15.272	24.4614
15.356	24.4992
15.44	24.5012
15.524	24.2659
15.608	23.9705
15.692	23.8729
15.776	23.8225
15.86	23.5346
15.944	23.2146
16.028	23.1652
16.112	23.2146
16.196	23.1518
16.28	23.1043
16.364	23.2194
16.448	23.4207
16.532	23.5035
16.616	23.3963
16.7	23.2593
16.784	23.2253
16.868	23.2076
16.952	23.0641
17.036	22.8058
17.12	22.5661
17.204	22.4366
17.288	22.368
17.372	22.2554
17.456	22.0816
17.54	21.9099
17.624	21.7658
17.708	21.6332
17.792	21.5508
17.876	21.5983
17.96	21.7806
18.044	22.0148
18.128	22.2146
18.212	22.324
18.296	22.2845
18.38	22.063
18.464	21.7168
18.548	21.3736
18.632	21.1325
18.716	21.0122
18.8	20.9871
18.884	21.0189
18.968	21.0359
19.052	20.9397
19.136	20.6955
19.22	20.3873
19.304	20.1439
19.388	20.0261
19.472	20.012
19.556	20.0653
19.64	20.1784
19.724	20.3427
19.808	20.5128
19.892	20.619
19.976	20.6098
20.06	20.4839
20.144	20.3045
20.228	20.1766
20.312	20.1702
20.396	20.2527
20.48	20.3069
20.564	20.229
20.648	20.0148
20.732	19.7529
20.816	19.5358
20.9	19.3851
20.984	19.2591
21.068	19.1121
21.152	18.9452
21.236	18.8029
21.32	18.7453
21.404	18.8024
21.488	18.941
21.572	19.0731
21.656	19.1002
21.74	18.9741
21.824	18.7423
21.908	18.5287
21.992	18.4454
22.076	18.5197
22.16	18.6753
22.244	18.7825
22.328	18.7513
22.412	18.5644
22.496	18.2699
22.58	17.9476
22.664	17.6728
22.748	17.4958
22.832	17.4383
22.916	17.493
23	17.5957
23.084	17.6574
23.168	17.5992
23.252	17.3992
23.336	17.1029
23.42	16.8264
23.504	16.6876
23.588	16.7532
23.672	17.0123
23.756	17.3627
23.84	17.6384
23.924	17.6658
24.008	17.3172
24.092	16.5623
24.176	15.5335
24.26	14.5092
24.344	13.8849
24.428	13.9849
24.512	14.9104
24.596	16.4452
24.68	18.0979
24.764	19.2703
24.848	19.5104
24.932	18.6129
25.016	16.7165
25.1	14.2067
25.184	11.6589
25.268	9.652567
25.352	8.637029
25.436	8.808935
25.52	10.0812
25.604	12.2067
25.688	14.8702
25.772	17.7506
25.856	20.5727
25.94	23.2127
26.024	25.677
26.108	28.017
26.192	30.1666
26.276	31.8896
26.36	32.7491
26.444	32.5395
26.528	31.389
26.612	29.7947
26.696	28.1818
26.78	26.6279
26.864	24.8326
26.948	22.5428
27.028	20.2991