File: Bakgrunnsmateriale/MATLAB/FTIR/ftir_data/LPE453/Mapping_121/LPE453_t23.asc
PE IR       SPECTRUM    SPECTRUM    ASCII       PEDS        1.60
  -1
LPCB95~1.ASC
17/05/16
16:17:16.00
17/05/16
16:17:42.00
tln
$LPE453_t0023$<tbV0>[13.0,-7.8,8.0,0.0,27,1,0]
27.028
64

2002,4.07
MIRTGS : RIGHTBACK : INTERNAL 2
MIR : ON : INTERNAL 2
OPTKBR

0.200000
8
8.000000
FILLER
RATIO
SPECTRUM
UNLOCKED 256

DOUBLE
64
COMBINED
1
0
0

0.002000
RATIO

1
0
TRUE
51149
0
LEFT NOT FITTED RIGHT NOT FITTED 0
NONE
NONE
15600
12
4.427000
51148
TRUE
1 0 8 72 0 0 0 0

15798

#HDR
-1
-1
#GR
µM
%T
2.38419e-05
0.0
2.000000
0.002000
12515
8
27.3301
-55.3728
#DATA
2.000000	 0.240468
2.084000	 0.118976
2.168000	 0.605528
2.252000	 -0.286231
2.336000	 0.184897
2.420000	 0.075956
2.504000	 -0.282487
2.588000	 0.033648
2.672000	 0.084266
2.756000	 0.045460
2.840000	 -0.043000
2.924000	 0.158203
3.008000	 0.144682
3.092000	 0.082090
3.176000	 0.139855
3.260000	 0.060446
3.344000	 0.071524
3.428000	 0.037667
3.512000	 0.097812
3.596000	 -0.010892
3.680000	 0.061724
3.764000	 -0.036264
3.848000	 0.062287
3.932000	 -0.051174
4.016000	 -0.028593
4.100000	 0.066210
4.184000	 0.080345
4.268000	 0.010820
4.352000	 0.193016
4.436000	 0.470337
4.520000	 1.277281
4.604000	 2.997685
4.688000	 5.781786
4.772000	 8.972498
4.856000	 12.4026
4.940000	 15.3836
5.024000	 18.0426
5.108000	 20.1442
5.192000	 21.7988
5.276000	 22.9887
5.359999	 24.0724
5.444000	 24.869
5.528000	 25.362
5.612000	 25.809
5.696000	 26.2064
5.780000	 26.3249
5.864000	 26.6415
5.948000	 26.81
6.032000	 26.8223
6.116000	 27.0942
6.200000	 27.103
6.284000	 27.154
6.368000	 27.0427
6.452000	 27.2559
6.536000	 27.2298
6.620000	 27.2154
6.704000	 27.1898
6.788000	 27.14
6.872000	 27.2068
6.956000	 27.1873
7.040000	 27.1481
7.124000	 27.0761
7.208000	 26.992
7.292000	 27.0555
7.376000	 27.1728
7.460000	 27.0213
7.544000	 26.943
7.628000	 26.959
7.712000	 26.9041
7.796000	 26.7786
7.880000	 26.832
7.964000	 26.8165
8.048000	 26.7485
8.132000	 26.7543
8.216000	 26.8186
8.300000	 26.6795
8.384000	 26.5614
8.468000	 26.4408
8.552000	 26.4604
8.635999	 26.3165
8.719999	 26.2077
8.804000	 26.2976
8.888000	 26.1708
8.972000	 26.133
9.056000	 25.927
9.140000	 25.8278
9.224000	 25.9911
9.308000	 26.0434
9.391999	 25.849
9.475999	 25.8984
9.560000	 25.3177
9.644000	 25.4213
9.728000	 25.7129
9.812000	 25.7759
9.896000	 25.3906
9.980000	 25.1653
10.064	25.2305
10.148	25.1636
10.232	24.9976
10.316	25.1854
10.4	24.9404
10.484	24.7796
10.568	24.5576
10.652	24.6535
10.736	24.8934
10.82	24.6553
10.904	24.3928
10.988	24.1475
11.072	23.9037
11.156	23.7292
11.24	24.0082
11.324	24.102
11.408	23.961
11.492	23.9806
11.576	23.7613
11.66	23.4114
11.744	23.4124
11.828	23.525
11.912	23.7326
11.996	23.6912
12.08	23.4318
12.164	23.241
12.248	22.8517
12.332	22.6907
12.416	22.7324
12.5	22.8084
12.584	22.9236
12.668	22.9417
12.752	22.6766
12.836	22.4313
12.92	22.4847
13.004	22.3097
13.088	22.0915
13.172	22.1658
13.256	22.261
13.34	22.1279
13.424	21.943
13.508	21.9173
13.592	21.9277
13.676	21.8068
13.76	21.6464
13.844	21.6405
13.928	21.5981
14.012	21.2857
14.096	21.0889
14.18	21.1477
14.264	21.1036
14.348	20.9833
14.432	20.9224
14.516	20.8363
14.6	20.6685
14.684	20.5382
14.768	20.5023
14.852	20.438
14.936	20.2995
15.02	20.1236
15.104	19.9494
15.188	19.9278
15.272	20.0729
15.356	20.1441
15.44	20.0797
15.524	19.9985
15.608	19.9217
15.692	19.8644
15.776	19.8089
15.86	19.6548
15.944	19.4359
16.028	19.2995
16.112	19.2474
16.196	19.1699
16.28	19.1092
16.364	19.2588
16.448	19.6048
16.532	19.8186
16.616	19.6618
16.7	19.2963
16.784	19.0257
16.868	18.8956
16.952	18.7452
17.036	18.5356
17.12	18.4064
17.204	18.4481
17.288	18.6068
17.372	18.7709
17.456	18.8714
17.54	18.9126
17.624	18.8773
17.708	18.6995
17.792	18.4033
17.876	18.151
17.96	18.0598
18.044	18.0652
18.128	18.0414
18.212	17.9511
18.296	17.8301
18.38	17.7088
18.464	17.5778
18.548	17.412
18.632	17.2225
18.716	17.0518
18.8	16.9055
18.884	16.7229
18.968	16.4806
19.052	16.2964
19.136	16.3308
19.22	16.5817
19.304	16.8489
19.388	16.9348
19.472	16.8341
19.556	16.7018
19.64	16.6729
19.724	16.7462
19.808	16.831
19.892	16.8413
19.976	16.7464
20.06	16.5596
20.144	16.3116
20.228	16.0423
20.312	15.803
20.396	15.6446
20.48	15.597
20.564	15.649
20.648	15.7561
20.732	15.8665
20.816	15.9449
20.9	15.9796
20.984	15.9618
21.068	15.8779
21.152	15.72
21.236	15.5043
21.32	15.2743
21.404	15.0743
21.488	14.9236
21.572	14.822
21.656	14.7635
21.74	14.7609
21.824	14.8462
21.908	15.0362
21.992	15.3065
22.076	15.5953
22.16	15.8248
22.244	15.9531
22.328	15.9704
22.412	15.8744
22.496	15.6477
22.58	15.27
22.664	14.7633
22.748	14.2519
22.832	13.9333
22.916	13.9775
23	14.4459
23.084	15.2074
23.168	15.953
23.252	16.369
23.336	16.2495
23.42	15.5723
23.504	14.486
23.588	13.249
23.672	12.1118
23.756	11.2501
23.84	10.7619
23.924	10.6919
24.008	11.0193
24.092	11.6074
24.176	12.1753
24.26	12.3174
24.344	11.5287
24.428	9.461883
24.512	6.171701
24.596	2.134001
24.68	-1.742372
24.764	-4.332987
24.848	-4.827862
24.932	-3.021238
25.016	0.491037
25.1	4.555300
25.184	7.794335
25.268	9.245097
25.352	8.691752
25.436	6.675520
25.52	4.275655
25.604	2.613724
25.688	2.453699
25.772	3.845748
25.856	6.131905
25.94	8.194600
26.024	8.725798
26.108	6.705203
26.192	1.571244
26.276	-6.609463
26.36	-17.0763
26.444	-28.5538
26.528	-39.5286
26.612	-48.344
26.696	-53.7559
26.78	-55.3637
26.864	-53.6798
26.948	-49.7705
27.028	-44.9725