File: Bakgrunnsmateriale/MATLAB/FTIR/ftir_data/LPE453/Mapping_121/LPE453_t108.asc
PE IR       SPECTRUM    SPECTRUM    ASCII       PEDS        1.60
  -1
LP9396~1.ASC
17/05/16
23:11:49.00
17/05/16
23:12:15.00
tln
$LPE453_t0108$<tbV0>[-7.8,10.4,8.0,0.0,27,1,0]
27.028
64

2002,4.07
MIRTGS : RIGHTBACK : INTERNAL 2
MIR : ON : INTERNAL 2
OPTKBR

0.200000
8
8.000000
FILLER
RATIO
SPECTRUM
UNLOCKED 256

DOUBLE
64
COMBINED
1
0
0

0.002000
RATIO

1
0
TRUE
51149
0
LEFT NOT FITTED RIGHT NOT FITTED 0
NONE
NONE
15600
12
4.427000
51148
TRUE
1 0 8 72 0 0 0 0

15798

#HDR
-1
-1
#GR
µM
%T
2.38419e-05
0.0
2.000000
0.002000
12515
8
37.2319
-4.695597
#DATA
2.000000	 0.448870
2.084000	 -0.072582
2.168000	 1.045503
2.252000	 0.149276
2.336000	 -0.105842
2.420000	 -0.054906
2.504000	 0.121753
2.588000	 0.151015
2.672000	 0.110358
2.756000	 -0.052978
2.840000	 0.194099
2.924000	 -0.014709
3.008000	 -0.084682
3.092000	 0.027715
3.176000	 -0.002779
3.260000	 0.041751
3.344000	 0.015492
3.428000	 0.025228
3.512000	 0.169297
3.596000	 -0.016922
3.680000	 -0.067251
3.764000	 0.068402
3.848000	 0.018186
3.932000	 -0.007938
4.016000	 -0.006824
4.100000	 -0.064738
4.184000	 0.162813
4.268000	 0.268974
4.352000	 0.770769
4.436000	 1.902903
4.520000	 4.072692
4.604000	 7.722245
4.688000	 12.2649
4.772000	 17.1314
4.856000	 21.8528
4.940000	 25.7419
5.024000	 28.6882
5.108000	 31.247
5.192000	 32.4696
5.276000	 34.2724
5.359999	 34.6149
5.444000	 35.8039
5.528000	 35.6056
5.612000	 36.5944
5.696000	 36.0457
5.780000	 36.7599
5.864000	 36.4011
5.948000	 36.6347
6.032000	 37.017
6.116000	 36.363
6.200000	 36.9745
6.284000	 36.7505
6.368000	 36.408
6.452000	 37.2151
6.536000	 36.5907
6.620000	 36.2727
6.704000	 36.7977
6.788000	 36.6212
6.872000	 35.955
6.956000	 36.4695
7.040000	 36.7358
7.124000	 35.8032
7.208000	 35.9138
7.292000	 36.7106
7.376000	 36.3292
7.460000	 35.5618
7.544000	 35.8997
7.628000	 36.4991
7.712000	 36.1725
7.796000	 35.3886
7.880000	 35.3988
7.964000	 36.0524
8.048000	 36.1201
8.132000	 35.5959
8.216000	 35.1325
8.300000	 35.4849
8.384000	 36.0245
8.468000	 35.9119
8.552000	 35.3904
8.635999	 34.7532
8.719999	 35.066
8.804000	 35.7092
8.888000	 35.8859
8.972000	 35.3917
9.056000	 34.9799
9.140000	 34.4884
9.224000	 34.8907
9.308000	 35.3638
9.391999	 35.6993
9.475999	 35.2676
9.560000	 34.6381
9.644000	 34.3919
9.728000	 34.3837
9.812000	 34.8419
9.896000	 35.3959
9.980000	 35.2195
10.064	34.9098
10.148	34.4426
10.232	33.9473
10.316	33.7905
10.4	34.185
10.484	34.5752
10.568	34.8351
10.652	34.7336
10.736	34.2696
10.82	33.7196
10.904	33.3094
10.988	33.222
11.072	33.3107
11.156	33.6277
11.24	34.0506
11.324	34.316
11.408	34.0389
11.492	33.6183
11.576	33.0988
11.66	32.818
11.744	32.7779
11.828	32.6574
11.912	32.8132
11.996	33.0951
12.08	33.3945
12.164	33.4422
12.248	33.4403
12.332	33.1066
12.416	32.6633
12.5	32.2663
12.584	32.0628
12.668	31.9164
12.752	31.9041
12.836	32.0339
12.92	32.2224
13.004	32.3989
13.088	32.4353
13.172	32.383
13.256	32.3338
13.34	32.1377
13.424	31.743
13.508	31.4812
13.592	31.2215
13.676	30.919
13.76	30.7521
13.844	30.6698
13.928	30.8962
14.012	31.2017
14.096	31.3453
14.18	31.4905
14.264	31.5716
14.348	31.492
14.432	31.3782
14.516	31.2176
14.6	30.9092
14.684	30.5228
14.768	30.157
14.852	29.8529
14.936	29.7426
15.02	29.8253
15.104	29.9222
15.188	30.0167
15.272	30.1559
15.356	30.3259
15.44	30.5052
15.524	30.6196
15.608	30.6379
15.692	30.6116
15.776	30.4809
15.86	30.1559
15.944	29.7801
16.028	29.5312
16.112	29.3833
16.196	29.2942
16.28	29.2495
16.364	29.1158
16.448	28.8443
16.532	28.6789
16.616	28.8185
16.7	29.0874
16.784	29.1912
16.868	29.103
16.952	29.0294
17.036	29.0825
17.12	29.1573
17.204	29.1479
17.288	29.1001
17.372	29.0643
17.456	28.9958
17.54	28.871
17.624	28.7241
17.708	28.5556
17.792	28.344
17.876	28.1061
17.96	27.875
18.044	27.6674
18.128	27.514
18.212	27.4425
18.296	27.4144
18.38	27.3508
18.464	27.2328
18.548	27.1287
18.632	27.1223
18.716	27.2244
18.8	27.3588
18.884	27.423
18.968	27.3631
19.052	27.2266
19.136	27.1438
19.22	27.228
19.304	27.453
19.388	27.6504
19.472	27.6494
19.556	27.4212
19.64	27.0825
19.724	26.7602
19.808	26.4939
19.892	26.2656
19.976	26.0795
20.06	25.9737
20.144	25.9644
20.228	26.0073
20.312	26.0171
20.396	25.9346
20.48	25.7732
20.564	25.6025
20.648	25.4958
20.732	25.4776
20.816	25.5227
20.9	25.5874
20.984	25.6472
21.068	25.7025
21.152	25.7571
21.236	25.8106
21.32	25.8752
21.404	25.982
21.488	26.1458
21.572	26.3296
21.656	26.4466
21.74	26.4063
21.824	26.1785
21.908	25.8133
21.992	25.4025
22.076	25.031
22.16	24.7441
22.244	24.5549
22.328	24.4607
22.412	24.4453
22.496	24.4765
22.58	24.5218
22.664	24.5692
22.748	24.641
22.832	24.7704
22.916	24.9556
23	25.1256
23.084	25.1495
23.168	24.8888
23.252	24.2899
23.336	23.4136
23.42	22.4356
23.504	21.5717
23.588	20.9953
23.672	20.7847
23.756	20.9141
23.84	21.28
23.924	21.7661
24.008	22.2681
24.092	22.6872
24.176	22.9479
24.26	23.0088
24.344	22.8397
24.428	22.4211
24.512	21.768
24.596	20.9104
24.68	19.8921
24.764	18.7788
24.848	17.6538
24.932	16.6063
25.016	15.716
25.1	15.0556
25.184	14.6763
25.268	14.6294
25.352	14.9997
25.436	15.951
25.52	17.6518
25.604	20.1596
25.688	23.3498
25.772	26.7882
25.856	29.772
25.94	31.585
26.024	31.6635
26.108	29.8088
26.192	26.2768
26.276	21.7169
26.36	17.0608
26.444	13.1965
26.528	10.7471
26.612	9.982991
26.696	10.8717
26.78	13.1417
26.864	16.4448
26.948	20.4206
27.028	24.4389