File: Bakgrunnsmateriale/MATLAB/FTIR/ftir_data/LPE453/Mapping_121/LPE453_t32_cm-1.asc
PE IR       SPECTRUM    SPECTRUM    ASCII       PEDS        1.60
  -1
LPD850~1.ASC
17/05/16
16:58:46.00
17/05/16
16:58:46.00
tln
$LPE453_t0032$<tbV0>[-10.4,-7.8,8.0,0.0,27,1,0]
370
64

2002,4.07
MIRTGS : RIGHTBACK : INTERNAL 2
MIR : ON : INTERNAL 2
OPTKBR

0.200000
8
8.000000
FILLER
RATIO
SPECTRUM
UNLOCKED 256

DOUBLE
64
COMBINED
1
0
0

1.000000
RATIO

1
0
TRUE
51149
0
LEFT NOT FITTED RIGHT NOT FITTED 0
NONE
NONE
15600
12
4.427000
51148
TRUE
1 0 8 72 0 0 0 0

15798

#HDR
-1
-1
#GR
CM-1
%T
2.38419e-05
0.0
5000
-1.000000
4631
8
50.2027
-1.038861
#DATA
5000	-0.107073
4984	0.175738
4968	-0.461530
4952	-0.047755
4936	0.195169
4920	0.168061
4904	-0.029611
4888	0.728106
4872	-0.279998
4856	0.080370
4840	-0.231575
4824	0.150704
4808	0.177574
4792	0.100493
4776	0.054621
4760	-0.010085
4744	-0.335240
4728	-0.091004
4712	0.050354
4696	-0.233912
4680	0.000762
4664	0.486660
4648	0.388050
4632	0.752735
4616	0.191211
4600	0.231432
4584	0.266981
4568	-0.703811
4552	0.181245
4536	0.094008
4520	3.910231
4504	2.005004
4488	-0.068783
4472	-0.112867
4456	0.365328
4440	0.079059
4424	0.256943
4408	0.121951
4392	0.257992
4376	0.264191
4360	0.155591
4344	-0.018930
4328	0.131106
4312	-0.043773
4296	0.081443
4280	0.252580
4264	0.303053
4248	-0.061035
4232	0.114989
4216	-0.016260
4200	0.259280
4184	0.163936
4168	-0.132179
4152	0.001287
4136	0.136780
4120	0.026750
4104	-0.080299
4088	0.180578
4072	-0.042700
4056	0.170087
4040	0.026464
4024	0.079393
4008	0.031018
3992	0.049638
3976	0.098633
3960	0.001835
3944	0.139474
3928	0.124740
3912	-0.095272
3896	0.095319
3880	-0.145077
3864	0.005197
3848	0.093722
3832	0.303530
3816	-0.039339
3800	0.044965
3784	0.071287
3768	0.122904
3752	0.100803
3736	-0.038933
3720	0.000143
3704	-0.010728
3688	0.217175
3672	0.100517
3656	0.203824
3640	0.154399
3624	0.101208
3608	-0.233554
3592	0.191283
3576	-0.043964
3560	0.006604
3544	-0.011706
3528	0.167465
3512	0.200080
3496	0.060653
3480	-0.124382
3464	0.012660
3448	0.068855
3432	-0.033950
3416	0.139093
3400	-0.091767
3384	-0.011420
3368	0.136852
3352	0.078821
3336	0.021243
3320	-0.076317
3304	0.007796
3288	0.013160
3272	0.163602
3256	0.125432
3240	0.020503
3224	-0.078201
3208	0.069212
3192	0.031828
3176	-0.005173
3160	0.177955
3144	-0.154638
3128	0.223660
3112	0.079512
3096	0.046157
3080	-0.032472
3064	-0.013542
3048	0.039696
3032	0.012779
3016	0.012612
3000	-0.086784
2984	0.050449
2968	-0.042581
2952	0.080943
2936	0.125408
2920	0.209426
2904	0.115251
2888	0.073456
2872	-0.026845
2856	0.158333
2840	0.038456
2824	0.085973
2808	-0.052595
2792	0.087237
2776	-0.032949
2760	0.096535
2744	-0.000286
2728	0.102782
2712	-0.043392
2696	0.022912
2680	0.077819
2664	0.037765
2648	-0.070309
2632	-0.033307
2616	0.065708
2600	0.125503
2584	-0.005936
2568	0.114440
2552	-0.005555
2536	0.119686
2520	-0.029969
2504	-0.253009
2488	0.127983
2472	-0.067496
2456	0.138306
2440	0.046706
2424	-0.006651
2408	0.125265
2392	-0.009274
2376	0.166773
2360	0.155138
2344	0.104165
2328	0.268292
2312	0.346302
2296	0.477480
2280	0.712871
2264	1.135563
2248	1.575422
2232	2.163195
2216	2.956533
2200	3.752374
2184	5.014681
2168	6.298542
2152	8.031606
2136	9.703540
2120	11.3477
2104	13.2663
2088	15.1597
2072	17.0339
2056	18.8523
2040	20.4231
2024	21.8846
2008	23.2597
1992	24.5493
1976	25.7454
1960	26.5648
1944	27.5056
1928	28.2542
1912	28.9293
1896	29.4924
1880	29.9454
1864	30.4335
1848	30.8338
1832	31.0065
1816	31.2569
1800	31.5007
1784	31.5557
1768	31.6941
1752	31.832
1736	31.78
1720	32.1231
1704	31.9957
1688	32.0973
1672	32.1326
1656	32.2922
1640	32.2483
1624	32.2785
1608	32.2397
1592	32.2619
1576	32.2062
1560	32.2834
1544	32.297
1528	32.3173
1512	32.2934
1496	32.2299
1480	32.2213
1464	32.0116
1448	32.1796
1432	32.3009
1416	32.023
1400	32.0098
1384	32.0984
1368	32.1549
1352	31.9619
1336	32.0796
1320	32.1633
1304	32.0621
1288	31.886
1272	31.9124
1256	31.9712
1240	31.9031
1224	31.7966
1208	32.0363
1192	31.9816
1176	31.7602
1160	31.6338
1144	31.9047
1128	31.9335
1112	31.3713
1096	31.69
1080	31.7972
1064	31.5085
1048	31.4024
1032	31.531
1016	31.6988
1000	31.0099
984	 31.1166
968	 31.5552
952	 31.1987
936	 30.7929
920	 31.0905
904	 31.2477
888	 30.6626
872	 30.2058
856	 30.6185
840	 30.6673
824	 30.106
808	 29.7613
792	 30.3672
776	 30.1497
760	 29.6493
744	 29.1316
728	 29.9158
712	 29.2683
696	 28.8389
680	 29.0998
664	 28.802
648	 28.1111
632	 28.3499
616	 28.2304
600	 27.0445
584	 26.4335
568	 27.2274
552	 26.6527
536	 26.3469
520	 25.2696
504	 25.6536
488	 25.2568
472	 24.6632
456	 22.9123
440	 24.7957
424	 21.3526
408	 21.0912
392	 19.761
376	 46.271
370	 17.6825