File: Bakgrunnsmateriale/MATLAB/FTIR/ftir_data/LPE453/Mapping_121/LPE453_t98_cm-1.asc
PE IR       SPECTRUM    SPECTRUM    ASCII       PEDS        1.60
  -1
LPEB59~1.ASC
17/05/16
22:25:07.00
17/05/16
22:25:07.00
tln
$LPE453_t0098$<tbV0>[-10.4,7.8,8.0,0.0,27,1,0]
370
64

2002,4.07
MIRTGS : RIGHTBACK : INTERNAL 2
MIR : ON : INTERNAL 2
OPTKBR

0.200000
8
8.000000
FILLER
RATIO
SPECTRUM
UNLOCKED 256

DOUBLE
64
COMBINED
1
0
0

1.000000
RATIO

1
0
TRUE
51149
0
LEFT NOT FITTED RIGHT NOT FITTED 0
NONE
NONE
15600
12
4.427000
51148
TRUE
1 0 8 72 0 0 0 0

15798

#HDR
-1
-1
#GR
CM-1
%T
2.38419e-05
0.0
5000
-1.000000
4631
8
37.5853
-13.1976
#DATA
5000	0.151920
4984	0.409054
4968	0.212383
4952	-0.402355
4936	-0.002098
4920	-0.207281
4904	0.543260
4888	0.146293
4872	-0.298333
4856	0.129032
4840	0.328731
4824	-0.157928
4808	0.349712
4792	0.062465
4776	0.191855
4760	0.050044
4744	0.243663
4728	-0.186300
4712	0.301289
4696	0.499987
4680	-0.820636
4664	-1.071476
4648	1.046037
4632	0.507164
4616	1.421856
4600	0.912880
4584	1.701283
4568	0.738763
4552	0.612688
4536	0.471568
4520	-0.458097
4504	0.733208
4488	14.5981
4472	-0.108504
4456	0.979113
4440	0.036120
4424	-0.113940
4408	0.778937
4392	-0.014805
4376	0.276255
4360	0.457525
4344	0.394320
4328	0.243234
4312	0.123047
4296	0.045704
4280	0.102114
4264	0.142216
4248	-0.031900
4232	-0.080251
4216	0.057888
4200	0.057864
4184	-0.156712
4168	0.399160
4152	0.163173
4136	-0.040936
4120	0.031495
4104	0.016593
4088	0.095963
4072	0.273752
4056	0.133967
4040	0.020575
4024	-0.045323
4008	0.153017
3992	-0.171160
3976	0.101637
3960	0.161552
3944	0.019359
3928	0.110769
3912	0.154805
3896	-0.007414
3880	-0.046491
3864	0.009560
3848	0.146961
3832	0.169968
3816	-0.051426
3800	0.076007
3784	0.019931
3768	-0.018191
3752	0.039267
3736	0.078058
3720	-0.029397
3704	0.060820
3688	0.149273
3672	0.014901
3656	0.115680
3640	0.117564
3624	0.082468
3608	0.010633
3592	0.083732
3576	0.101542
3560	-0.001573
3544	-0.027132
3528	0.108861
3512	-0.051856
3496	0.087189
3480	0.001740
3464	0.165939
3448	-0.040531
3432	0.020933
3416	0.027585
3400	0.009679
3384	0.024056
3368	0.052809
3352	0.122022
3336	0.060033
3320	0.007128
3304	0.018811
3288	-0.032758
3272	0.048303
3256	0.007462
3240	0.113630
3224	0.040936
3208	0.016379
3192	-0.001978
3176	0.043725
3160	0.071692
3144	0.012254
3128	0.125050
3112	0.098896
3096	0.015330
3080	-0.011539
3064	0.017309
3048	0.121283
3032	-0.007915
3016	0.063514
3000	0.056624
2984	-0.051021
2968	0.102233
2952	0.093269
2936	-0.078392
2920	-0.018119
2904	0.206208
2888	0.033330
2872	-0.083041
2856	0.205564
2840	0.024223
2824	-0.069165
2808	0.011253
2792	-0.052666
2776	-0.038456
2760	0.106239
2744	0.160288
2728	0.085425
2712	-0.004720
2696	-0.076127
2680	0.041985
2664	0.177264
2648	0.145721
2632	0.007963
2616	0.044870
2600	-0.024938
2584	0.038981
2568	0.030851
2552	-0.010442
2536	0.072073
2520	-0.007390
2504	-0.003457
2488	-0.032162
2472	-0.001573
2456	-0.027632
2440	0.112009
2424	0.293207
2408	-0.046849
2392	0.000834
2376	0.132060
2360	0.178909
2344	0.164294
2328	0.259995
2312	0.636839
2296	0.932550
2280	1.155304
2264	1.603007
2248	2.221632
2232	2.968978
2216	3.911471
2200	5.243301
2184	6.509780
2168	8.243322
2152	10.2248
2136	12.0473
2120	14.2176
2104	16.4902
2088	18.3607
2072	20.4766
2056	22.5981
2040	24.4162
2024	25.8705
2008	27.7219
1992	29.1553
1976	30.1378
1960	30.9998
1944	32.515
1928	33.2372
1912	33.358
1896	34.2153
1880	35.2099
1864	35.2532
1848	35.1503
1832	36.0857
1816	36.5999
1800	36.1242
1784	36.1667
1768	37.0416
1752	36.9341
1736	36.2551
1720	36.8343
1704	37.4601
1688	37.1034
1672	36.5714
1656	37.191
1640	37.5438
1624	36.8411
1608	36.6112
1592	37.2561
1576	37.3431
1560	36.6064
1544	36.6167
1528	37.2769
1512	37.145
1496	36.1704
1480	36.6436
1464	37.2253
1448	36.6641
1432	36.094
1416	36.3781
1400	37.1486
1384	36.5546
1368	35.8556
1352	36.4211
1336	36.8419
1320	36.1921
1304	35.6126
1288	36.298
1272	36.6346
1256	35.8336
1240	35.459
1224	36.1673
1208	36.4292
1192	35.435
1176	35.2444
1160	36.0308
1144	36.113
1128	35.1171
1112	35.0733
1096	35.8698
1080	35.8968
1064	34.8342
1048	34.6038
1032	35.7056
1016	35.2546
1000	34.3204
984	 34.5285
968	 35.3203
952	 34.7021
936	 33.8375
920	 34.0847
904	 34.7965
888	 34.1738
872	 33.0675
856	 33.4555
840	 34.2628
824	 33.284
808	 32.4408
792	 32.9652
776	 33.4762
760	 32.6843
744	 31.6915
728	 32.4731
712	 32.6255
696	 31.5767
680	 30.8116
664	 31.0764
648	 31.5611
632	 30.4839
616	 29.6037
600	 30.0013
584	 29.7009
568	 29.1094
552	 28.0502
536	 28.7442
520	 28.8157
504	 27.5674
488	 26.5987
472	 27.6975
456	 27.0059
440	 23.1417
424	 23.481
408	 21.6617
392	 18.5138
376	 23.8886
370	 17.4504