File: Bakgrunnsmateriale/MATLAB/FTIR/ftir_data/LPE453/Mapping_121/LPE453_t39_cm-1.asc
PE IR       SPECTRUM    SPECTRUM    ASCII       PEDS        1.60
  -1
LPE8D9~1.ASC
17/05/16
17:31:40.00
17/05/16
17:31:40.00
tln
$LPE453_t0039$<tbV0>[0.0,-5.2,8.0,0.0,27,1,0]
370
64

2002,4.07
MIRTGS : RIGHTBACK : INTERNAL 2
MIR : ON : INTERNAL 2
OPTKBR

0.200000
8
8.000000
FILLER
RATIO
SPECTRUM
UNLOCKED 256

DOUBLE
64
COMBINED
1
0
0

1.000000
RATIO

1
0
TRUE
51149
0
LEFT NOT FITTED RIGHT NOT FITTED 0
NONE
NONE
15600
12
4.427000
51148
TRUE
1 0 8 72 0 0 0 0

15798

#HDR
-1
-1
#GR
CM-1
%T
2.38419e-05
0.0
5000
-1.000000
4631
8
38.4603
-5.418682
#DATA
5000	-0.064992
4984	0.228738
4968	-0.038146
4952	-0.067663
4936	0.241494
4920	0.138664
4904	0.208044
4888	0.093412
4872	-0.043296
4856	0.285935
4840	0.201487
4824	0.286221
4808	0.055265
4792	-0.110435
4776	0.171780
4760	0.373053
4744	0.153255
4728	-0.159573
4712	0.195097
4696	0.065732
4680	-0.225639
4664	0.569009
4648	0.174474
4632	-0.036644
4616	-0.050330
4600	-0.340771
4584	-0.274205
4568	0.415611
4552	0.781583
4536	1.067781
4520	-0.490689
4504	2.812552
4488	0.815010
4472	0.507450
4456	0.259470
4440	0.537610
4424	0.147438
4408	0.195360
4392	0.276947
4376	0.364375
4360	0.201869
4344	-0.008583
4328	-0.000119
4312	0.026583
4296	-0.176787
4280	0.223374
4264	0.080394
4248	0.395727
4232	0.020194
4216	-0.077915
4200	-0.030112
4184	0.498723
4168	-0.027799
4152	0.079965
4136	-0.054168
4120	0.149202
4104	0.138950
4088	-0.033712
4072	0.070261
4056	0.035572
4040	0.069928
4024	0.257992
4008	0.139880
3992	0.159788
3976	0.156497
3960	-0.140500
3944	0.006985
3928	0.112271
3912	-0.024843
3896	-0.074219
3880	0.211215
3864	-0.112271
3848	-0.142598
3832	0.102424
3816	0.189185
3800	0.014948
3784	0.128197
3768	0.053930
3752	0.049662
3736	0.097131
3720	0.034666
3704	0.001144
3688	-0.039172
3672	0.106835
3656	0.108551
3640	-0.121569
3624	-0.054621
3608	0.094532
3592	-0.026321
3576	0.054574
3560	-0.022101
3544	0.022482
3528	0.042438
3512	0.119900
3496	0.033521
3480	0.260090
3464	-0.026178
3448	0.254058
3432	0.021624
3416	0.072979
3400	0.098323
3384	0.035429
3368	0.063610
3352	-0.017857
3336	0.167918
3320	-0.024247
3304	0.047421
3288	0.031638
3272	-0.136351
3256	0.167608
3240	-0.080370
3224	0.055789
3208	0.194239
3192	0.094509
3176	0.111174
3160	0.055837
3144	0.104022
3128	0.133323
3112	-0.010395
3096	0.206136
3080	0.080823
3064	0.118374
3048	0.048327
3032	0.104093
3016	-0.039649
3000	0.043678
2984	0.076007
2968	0.055003
2952	0.005555
2936	0.078392
2920	0.153183
2904	-0.042724
2888	0.060296
2872	-0.001668
2856	0.012803
2840	0.014805
2824	0.088644
2808	0.036025
2792	0.089550
2776	-0.014519
2760	-0.068306
2744	0.053191
2728	0.056266
2712	0.071096
2696	-0.007605
2680	-0.030970
2664	-0.022435
2648	0.019168
2632	-0.066184
2616	0.084805
2600	0.062990
2584	0.045490
2568	0.050449
2552	0.108361
2536	0.058460
2520	-0.024962
2504	-0.099778
2488	-0.102019
2472	0.042557
2456	0.110316
2440	-0.023436
2424	0.083398
2408	0.003647
2392	0.045442
2376	-0.007843
2360	0.112891
2344	-0.030398
2328	0.103592
2312	0.057339
2296	0.299715
2280	0.280618
2264	0.389194
2248	0.688648
2232	0.878763
2216	1.403665
2200	2.057218
2184	2.814173
2168	3.971695
2152	5.266332
2136	6.410813
2120	8.205652
2104	10.023
2088	11.5465
2072	13.4451
2056	15.2816
2040	16.8958
2024	18.6498
2008	20.0211
1992	21.4491
1976	22.6389
1960	23.7388
1944	24.72
1928	25.5143
1912	26.4407
1896	27.0365
1880	27.5978
1864	27.9775
1848	28.6638
1832	28.9104
1816	29.1905
1800	29.4942
1784	29.5864
1768	29.7973
1752	29.9809
1736	30.1122
1720	30.1589
1704	30.3514
1688	30.2942
1672	30.292
1656	30.4399
1640	30.3651
1624	30.373
1608	30.3604
1592	30.4503
1576	30.4982
1560	30.3424
1544	30.1942
1528	30.2928
1512	30.2753
1496	30.147
1480	30.1518
1464	30.1713
1448	30.0068
1432	30.111
1416	29.9327
1400	29.947
1384	30.0458
1368	29.8763
1352	29.784
1336	29.8885
1320	29.5873
1304	29.5238
1288	29.8152
1272	29.5057
1256	29.3888
1240	29.3321
1224	29.2689
1208	29.2075
1192	29.2136
1176	29.0054
1160	28.9815
1144	28.8989
1128	28.6972
1112	28.8259
1096	28.7563
1080	28.3729
1064	28.3635
1048	28.1203
1032	27.8962
1016	27.6404
1000	27.7893
984	 27.1746
968	 27.3393
952	 27.3354
936	 26.7681
920	 26.8991
904	 26.4544
888	 26.2183
872	 26.1643
856	 25.9018
840	 25.1877
824	 25.5487
808	 24.9045
792	 24.8089
776	 24.4324
760	 24.1419
744	 23.3512
728	 23.5465
712	 23.1531
696	 22.6444
680	 23.0538
664	 21.9123
648	 21.6729
632	 21.6809
616	 21.0723
600	 20.0596
584	 20.6388
568	 19.4605
552	 19.2255
536	 18.7448
520	 18.5065
504	 18.2416
488	 18.0819
472	 16.0417
456	 15.8631
440	 15.9913
424	 14.9142
408	 20.9892
392	 12.2519
376	 6.336808
370	 20.6551