File: Bakgrunnsmateriale/MATLAB/FTIR/ftir_data/LPE453/Mapping_121/LPE453_t79.asc
PE IR       SPECTRUM    SPECTRUM    ASCII       PEDS        1.60
  -1
LPEFAD~1.ASC
17/05/16
20:51:01.00
17/05/16
20:51:27.00
tln
$LPE453_t0079$<tbV0>[10.4,5.2,8.0,0.0,27,1,0]
27.028
64

2002,4.07
MIRTGS : RIGHTBACK : INTERNAL 2
MIR : ON : INTERNAL 2
OPTKBR

0.200000
8
8.000000
FILLER
RATIO
SPECTRUM
UNLOCKED 256

DOUBLE
64
COMBINED
1
0
0

0.002000
RATIO

1
0
TRUE
51149
0
LEFT NOT FITTED RIGHT NOT FITTED 0
NONE
NONE
15600
12
4.427000
51148
TRUE
1 0 8 72 0 0 0 0

15798

#HDR
-1
-1
#GR
µM
%T
2.38419e-05
0.0
2.000000
0.002000
12515
8
28.5321
-4.001184
#DATA
2.000000	 0.505256
2.084000	 0.771159
2.168000	 -0.434425
2.252000	 -0.654139
2.336000	 0.206564
2.420000	 0.151729
2.504000	 -0.173606
2.588000	 0.175152
2.672000	 -0.068529
2.756000	 0.183933
2.840000	 0.021587
2.924000	 0.053412
3.008000	 -0.116592
3.092000	 -0.039000
3.176000	 -0.022146
3.260000	 0.132429
3.344000	 0.065711
3.428000	 -0.032603
3.512000	 0.085939
3.596000	 0.015885
3.680000	 0.078024
3.764000	 0.053149
3.848000	 0.047428
3.932000	 -0.060963
4.016000	 0.053701
4.100000	 -0.018069
4.184000	 -0.043658
4.268000	 0.068561
4.352000	 0.003829
4.436000	 0.438170
4.520000	 1.170108
4.604000	 2.857555
4.688000	 5.684066
4.772000	 9.059258
4.856000	 12.8639
4.940000	 16.1111
5.024000	 18.9903
5.108000	 21.4302
5.192000	 23.5777
5.276000	 24.723
5.359999	 25.7177
5.444000	 26.6148
5.528000	 27.1013
5.612000	 27.4608
5.696000	 28.0155
5.780000	 27.9112
5.864000	 28.2421
5.948000	 28.2667
6.032000	 28.3813
6.116000	 28.3731
6.200000	 28.3583
6.284000	 28.2657
6.368000	 28.2904
6.452000	 28.1853
6.536000	 28.3813
6.620000	 28.1481
6.704000	 28.4101
6.788000	 28.0207
6.872000	 28.0945
6.956000	 28.1705
7.040000	 27.8156
7.124000	 28.2103
7.208000	 27.9726
7.292000	 27.7258
7.376000	 28.1416
7.460000	 27.747
7.544000	 27.5699
7.628000	 27.9352
7.712000	 27.5754
7.796000	 27.3697
7.880000	 27.7694
7.964000	 27.521
8.048000	 27.3442
8.132000	 27.3886
8.216000	 27.6447
8.300000	 27.1249
8.384000	 26.9268
8.468000	 27.4152
8.552000	 27.4312
8.635999	 26.9811
8.719999	 26.6111
8.804000	 27.0172
8.888000	 27.2207
8.972000	 26.7634
9.056000	 26.3855
9.140000	 26.5166
9.224000	 26.741
9.308000	 26.7795
9.391999	 26.2501
9.475999	 26.0993
9.560000	 26.257
9.644000	 26.4294
9.728000	 26.0611
9.812000	 25.903
9.896000	 25.7504
9.980000	 25.7828
10.064	25.9053
10.148	25.9285
10.232	25.686
10.316	25.1618
10.4	25.288
10.484	25.3772
10.568	25.4972
10.652	25.2798
10.736	24.9347
10.82	24.6708
10.904	24.7757
10.988	24.8697
11.072	24.8784
11.156	24.7439
11.24	24.7502
11.324	24.5372
11.408	24.1512
11.492	23.7764
11.576	23.9209
11.66	24.1524
11.744	24.2631
11.828	24.0587
11.912	23.6534
11.996	23.3542
12.08	23.246
12.164	23.2611
12.248	23.4074
12.332	23.5411
12.416	23.5916
12.5	23.3598
12.584	23.0752
12.668	22.7937
12.752	22.6959
12.836	22.5655
12.92	22.4891
13.004	22.4206
13.088	22.5655
13.172	22.8183
13.256	22.8043
13.34	22.5818
13.424	21.9857
13.508	21.6897
13.592	21.6622
13.676	21.4957
13.76	21.6152
13.844	21.7628
13.928	21.6536
14.012	21.5998
14.096	21.5979
14.18	21.4051
14.264	21.1492
14.348	20.9627
14.432	20.6875
14.516	20.4846
14.6	20.5147
14.684	20.602
14.768	20.7695
14.852	20.9022
14.936	20.7861
15.02	20.6314
15.104	20.5034
15.188	20.2932
15.272	20.0953
15.356	19.9039
15.44	19.7049
15.524	19.6041
15.608	19.5462
15.692	19.4385
15.776	19.3819
15.86	19.4449
15.944	19.4815
16.028	19.31
16.112	19.0005
16.196	18.8475
16.28	18.9482
16.364	19.0435
16.448	18.9221
16.532	18.6917
16.616	18.5466
16.7	18.5305
16.784	18.5986
16.868	18.7161
16.952	18.8159
17.036	18.8245
17.12	18.7599
17.204	18.694
17.288	18.6522
17.372	18.6127
17.456	18.5404
17.54	18.4005
17.624	18.2266
17.708	18.1097
17.792	18.0524
17.876	17.9306
17.96	17.6676
18.044	17.3466
18.128	17.1093
18.212	17.0335
18.296	17.1143
18.38	17.2657
18.464	17.356
18.548	17.3108
18.632	17.1725
18.716	17.0434
18.8	16.9861
18.884	16.9895
18.968	16.9959
19.052	16.9298
19.136	16.7487
19.22	16.5024
19.304	16.3159
19.388	16.2881
19.472	16.3919
19.556	16.4907
19.64	16.4599
19.724	16.2938
19.808	16.0917
19.892	15.9479
19.976	15.8678
20.06	15.7932
20.144	15.7033
20.228	15.6655
20.312	15.7642
20.396	15.9868
20.48	16.1958
20.564	16.2369
20.648	16.076
20.732	15.8317
20.816	15.6629
20.9	15.6267
20.984	15.6369
21.068	15.5551
21.152	15.3117
21.236	14.9596
21.32	14.6272
21.404	14.4196
21.488	14.3538
21.572	14.3759
21.656	14.4212
21.74	14.4564
21.824	14.4869
21.908	14.5272
21.992	14.5732
22.076	14.6105
22.16	14.6333
22.244	14.6523
22.328	14.681
22.412	14.6994
22.496	14.6503
22.58	14.4982
22.664	14.2667
22.748	14.0455
22.832	13.9348
22.916	13.9721
23	14.0873
23.084	14.1481
23.168	14.0309
23.252	13.7133
23.336	13.2887
23.42	12.9153
23.504	12.754
23.588	12.9
23.672	13.3473
23.756	13.9783
23.84	14.6106
23.924	15.0021
24.008	14.9363
24.092	14.3071
24.176	13.1533
24.26	11.6763
24.344	10.1986
24.428	9.018947
24.512	8.330418
24.596	8.167304
24.68	8.435037
24.764	8.972008
24.848	9.658018
24.932	10.4546
25.016	11.3796
25.1	12.4339
25.184	13.4856
25.268	14.2427
25.352	14.3294
25.436	13.4466
25.52	11.5285
25.604	8.753243
25.688	5.508582
25.772	2.254315
25.856	-0.617466
25.94	-2.762821
26.024	-3.887661
26.108	-3.794551
26.192	-2.458280
26.276	-0.030540
26.36	3.148274
26.444	6.617861
26.528	9.906742
26.612	12.6853
26.696	14.7631
26.78	16.0929
26.864	16.6611
26.948	16.437
27.028	15.5