File: Bakgrunnsmateriale/MATLAB/FTIR/ftir_data/LPE453/Mapping_121/LPE453_t47.asc
PE IR       SPECTRUM    SPECTRUM    ASCII       PEDS        1.60
  -1
LPD3A5~1.ASC
17/05/16
18:15:30.00
17/05/16
18:15:56.00
tln
$LPE453_t0047$<tbV0>[7.8,-2.6,8.0,0.0,27,1,0]
27.028
64

2002,4.07
MIRTGS : RIGHTBACK : INTERNAL 2
MIR : ON : INTERNAL 2
OPTKBR

0.200000
8
8.000000
FILLER
RATIO
SPECTRUM
UNLOCKED 256

DOUBLE
64
COMBINED
1
0
0

0.002000
RATIO

1
0
TRUE
51149
0
LEFT NOT FITTED RIGHT NOT FITTED 0
NONE
NONE
15600
12
4.427000
51148
TRUE
1 0 8 72 0 0 0 0

15798

#HDR
-1
-1
#GR
µM
%T
2.38419e-05
0.0
2.000000
0.002000
12515
8
22.2555
-15.2378
#DATA
2.000000	 0.009989
2.084000	 -0.106312
2.168000	 -0.162279
2.252000	 0.683871
2.336000	 0.106797
2.420000	 -0.252974
2.504000	 0.155194
2.588000	 0.357184
2.672000	 -0.016980
2.756000	 0.090985
2.840000	 0.100078
2.924000	 -0.019083
3.008000	 0.139166
3.092000	 0.056348
3.176000	 -0.023741
3.260000	 0.019850
3.344000	 -0.087716
3.428000	 0.163247
3.512000	 0.028975
3.596000	 0.084676
3.680000	 0.111795
3.764000	 0.037872
3.848000	 0.011344
3.932000	 -0.033978
4.016000	 0.016293
4.100000	 0.099313
4.184000	 0.074444
4.268000	 0.017158
4.352000	 0.023474
4.436000	 -0.022379
4.520000	 0.371650
4.604000	 1.199014
4.688000	 2.990783
4.772000	 5.415642
4.856000	 8.431870
4.940000	 11.0878
5.024000	 13.724
5.108000	 15.8527
5.192000	 17.5378
5.276000	 18.765
5.359999	 19.7463
5.444000	 20.5661
5.528000	 21.1508
5.612000	 21.4827
5.696000	 21.6546
5.780000	 21.8002
5.864000	 22.062
5.948000	 22.1026
6.032000	 22.0349
6.116000	 22.2539
6.200000	 22.0192
6.284000	 22.162
6.368000	 22.1206
6.452000	 21.9196
6.536000	 22.1323
6.620000	 21.9968
6.704000	 21.8562
6.788000	 21.9192
6.872000	 21.8647
6.956000	 21.8657
7.040000	 21.7656
7.124000	 21.5494
7.208000	 21.6254
7.292000	 21.5672
7.376000	 21.4242
7.460000	 21.3666
7.544000	 21.2968
7.628000	 21.2898
7.712000	 21.147
7.796000	 21.2138
7.880000	 20.9888
7.964000	 21.1352
8.048000	 21.0175
8.132000	 20.9188
8.216000	 20.8809
8.300000	 20.8189
8.384000	 20.6717
8.468000	 20.5515
8.552000	 20.725
8.635999	 20.4811
8.719999	 20.4593
8.804000	 20.3788
8.888000	 20.3436
8.972000	 20.283
9.056000	 20.0013
9.140000	 19.9835
9.224000	 19.9065
9.308000	 20.0177
9.391999	 19.6716
9.475999	 19.6852
9.560000	 19.4287
9.644000	 19.3829
9.728000	 19.57
9.812000	 19.2817
9.896000	 19.2261
9.980000	 19.0549
10.064	19.0619
10.148	19.1269
10.232	18.9269
10.316	18.7579
10.4	18.6204
10.484	18.5947
10.568	18.4123
10.652	18.4383
10.736	18.2846
10.82	18.3389
10.904	18.1555
10.988	17.906
11.072	17.8268
11.156	17.7783
11.24	17.7796
11.324	17.5956
11.408	17.4236
11.492	17.3731
11.576	17.3953
11.66	17.2158
11.744	17.1591
11.828	17.2686
11.912	17.0218
11.996	16.9438
12.08	16.9247
12.164	16.6529
12.248	16.4834
12.332	16.2994
12.416	16.1754
12.5	16.1676
12.584	16.0764
12.668	16.1262
12.752	16.0536
12.836	15.874
12.92	15.7984
13.004	15.6896
13.088	15.637
13.172	15.512
13.256	15.5282
13.34	15.4727
13.424	15.3285
13.508	15.2069
13.592	14.9432
13.676	14.7597
13.76	14.7635
13.844	14.7479
13.928	14.7732
14.012	14.7584
14.096	14.6652
14.18	14.3974
14.264	14.0866
14.348	13.9768
14.432	13.8393
14.516	13.8168
14.6	14.0167
14.684	14.0165
14.768	13.8149
14.852	13.6681
14.936	13.5959
15.02	13.5591
15.104	13.5286
15.188	13.4497
15.272	13.3593
15.356	13.3205
15.44	13.2235
15.524	13.0585
15.608	13.0428
15.692	13.1771
15.776	13.2196
15.86	13.0896
15.944	12.913
16.028	12.8259
16.112	12.7901
16.196	12.6328
16.28	12.3719
16.364	12.2056
16.448	12.1433
16.532	12.0658
16.616	12.0069
16.7	12.0052
16.784	11.9507
16.868	11.807
16.952	11.6777
17.036	11.5747
17.12	11.42
17.204	11.2599
17.288	11.2071
17.372	11.2534
17.456	11.3223
17.54	11.4049
17.624	11.5088
17.708	11.5565
17.792	11.4428
17.876	11.1503
17.96	10.793
18.044	10.5429
18.128	10.4996
18.212	10.6004
18.296	10.6792
18.38	10.626
18.464	10.4746
18.548	10.3431
18.632	10.3158
18.716	10.3671
18.8	10.3925
18.884	10.3139
18.968	10.1542
19.052	10.006
19.136	9.926413
19.22	9.897964
19.304	9.880039
19.388	9.858998
19.472	9.823211
19.556	9.731035
19.64	9.556111
19.724	9.357593
19.808	9.255404
19.892	9.313006
19.976	9.477317
20.06	9.648849
20.144	9.778563
20.228	9.875714
20.312	9.933549
20.396	9.894341
20.48	9.710484
20.564	9.413319
20.648	9.105997
20.732	8.888848
20.816	8.803120
20.9	8.826028
20.984	8.895452
21.068	8.942941
21.152	8.925403
21.236	8.849764
21.32	8.765066
21.404	8.722545
21.488	8.711783
21.572	8.656103
21.656	8.475587
21.74	8.153809
21.824	7.776003
21.908	7.479660
21.992	7.351864
22.076	7.386290
22.16	7.501765
22.244	7.610125
22.328	7.681066
22.412	7.732931
22.496	7.807437
22.58	7.959144
22.664	8.241348
22.748	8.671687
22.832	9.188250
22.916	9.620278
23	9.728569
23.084	9.319806
23.168	8.363501
23.252	7.046404
23.336	5.716473
23.42	4.755464
23.504	4.433231
23.588	4.793919
23.672	5.674462
23.756	6.769094
23.84	7.760787
23.924	8.393903
24.008	8.508185
24.092	8.042394
24.176	7.050286
24.26	5.697183
24.344	4.245986
24.428	2.948076
24.512	1.978004
24.596	1.315547
24.68	0.754658
24.764	0.009525
24.848	-1.141035
24.932	-2.711972
25.016	-4.460295
25.1	-6.005408
25.184	-6.993155
25.268	-7.262684
25.352	-6.851736
25.436	-5.982654
25.52	-4.904014
25.604	-3.732796
25.688	-2.483313
25.772	-1.113230
25.856	0.378608
25.94	1.871680
26.024	3.095501
26.108	3.692263
26.192	3.449225
26.276	2.322862
26.36	0.429271
26.444	-2.007383
26.528	-4.722047
26.612	-7.518076
26.696	-10.2084
26.78	-12.5997
26.864	-14.4095
26.948	-15.2325
27.028	-14.6789