File: Bakgrunnsmateriale/MATLAB/FTIR/ftir_data/LPE453/Mapping_121/LPE453_t45_cm-1.asc
PE IR       SPECTRUM    SPECTRUM    ASCII       PEDS        1.60
  -1
LP69DB~1.ASC
17/05/16
18:06:16.00
17/05/16
18:06:16.00
tln
$LPE453_t0045$<tbV0>[13.0,-2.6,8.0,0.0,27,1,0]
370
64

2002,4.07
MIRTGS : RIGHTBACK : INTERNAL 2
MIR : ON : INTERNAL 2
OPTKBR

0.200000
8
8.000000
FILLER
RATIO
SPECTRUM
UNLOCKED 256

DOUBLE
64
COMBINED
1
0
0

1.000000
RATIO

1
0
TRUE
51149
0
LEFT NOT FITTED RIGHT NOT FITTED 0
NONE
NONE
15600
12
4.427000
51148
TRUE
1 0 8 72 0 0 0 0

15798

#HDR
-1
-1
#GR
CM-1
%T
2.38419e-05
0.0
5000
-1.000000
4631
8
61.9129
-4.807329
#DATA
5000	-0.150012
4984	0.618791
4968	0.277256
4952	-0.249886
4936	0.295591
4920	0.006246
4904	-0.044703
4888	0.620794
4872	0.182867
4856	0.086832
4840	-0.165390
4824	0.235557
4808	0.168800
4792	0.052595
4776	-0.121450
4760	0.183653
4744	-0.049757
4728	-0.001454
4712	0.097775
4696	0.112867
4680	-0.017762
4664	0.533652
4648	0.001168
4632	0.509309
4616	0.279426
4600	0.324177
4584	-0.558042
4568	0.175929
4552	-1.012349
4536	-0.957846
4520	12.8867
4504	0.081348
4488	2.292633
4472	-1.043081
4456	-0.450515
4440	0.289821
4424	-0.498223
4408	0.207328
4392	0.316762
4376	-0.137090
4360	0.169277
4344	0.075531
4328	0.006628
4312	-0.022387
4296	-0.085425
4280	0.060796
4264	0.131106
4248	0.248527
4232	-0.136017
4216	0.188136
4200	0.162267
4184	0.327134
4168	0.195527
4152	0.209045
4136	-0.051474
4120	0.395750
4104	0.163507
4088	0.013852
4072	0.016665
4056	0.318217
4040	0.053930
4024	-0.039029
4008	-0.049448
3992	0.102448
3976	0.172328
3960	-0.013613
3944	0.026369
3928	-0.036525
3912	0.075483
3896	0.057172
3880	-0.076484
3864	-0.045919
3848	0.095844
3832	0.424361
3816	0.058770
3800	-0.057792
3784	0.018572
3768	-0.075817
3752	0.146389
3736	0.018429
3720	0.018215
3704	0.095772
3688	0.070190
3672	-0.063371
3656	-0.049233
3640	0.113081
3624	0.061750
3608	0.116252
3592	-0.059461
3576	-0.100946
3560	0.147485
3544	0.110173
3528	0.059747
3512	-0.043439
3496	0.003790
3480	-0.038766
3464	0.213599
3448	0.055742
3432	0.049090
3416	0.087141
3400	-0.049757
3384	-0.130581
3368	0.178360
3352	0.165748
3336	-0.060582
3320	0.007867
3304	0.015473
3288	0.292873
3272	0.074028
3256	-0.079607
3240	-0.020384
3224	0.106191
3208	0.051617
3192	0.064349
3176	0.191664
3160	0.084710
3144	0.074028
3128	0.219869
3112	-0.115203
3096	0.088477
3080	0.019645
3064	0.170755
3048	0.028777
3032	0.145530
3016	0.073242
3000	0.070714
2984	0.053906
2968	0.110483
2952	0.056171
2936	0.177311
2920	-0.039529
2904	-0.142884
2888	0.010967
2872	0.029778
2856	-0.103425
2840	0.008678
2824	0.059652
2808	0.000119
2792	0.006341
2776	0.120663
2760	0.009584
2744	0.133109
2728	0.163364
2712	-0.069904
2696	0.084853
2680	0.029087
2664	0.028324
2648	0.038957
2632	-0.014615
2616	-0.056195
2600	0.081586
2584	-0.015759
2568	0.003027
2552	0.011134
2536	0.011253
2520	0.061035
2504	-0.142550
2488	0.092935
2472	0.067472
2456	0.023221
2440	0.107932
2424	0.078368
2408	-0.147294
2392	0.013279
2376	-0.043392
2360	-0.002098
2344	-0.010752
2328	0.057315
2312	-0.001239
2296	0.046706
2280	0.153970
2264	0.173258
2248	0.310611
2232	0.518870
2216	0.873422
2200	1.326155
2184	1.745200
2168	2.470970
2152	3.208374
2136	4.267144
2120	5.521011
2104	6.799411
2088	8.147931
2072	9.573268
2056	10.9915
2040	12.231
2024	13.6034
2008	14.887
1992	15.9051
1976	17.0288
1960	18.0177
1944	18.8206
1928	19.6079
1912	20.3237
1896	20.8588
1880	21.5828
1864	22.0062
1848	22.4212
1832	22.8707
1816	23.2023
1800	23.4782
1784	23.7423
1768	23.9574
1752	24.1109
1736	24.2079
1720	24.5528
1704	24.543
1688	24.78
1672	24.8167
1656	24.9982
1640	24.9006
1624	25.1751
1608	25.1493
1592	24.9991
1576	25.0913
1560	25.1546
1544	25.124
1528	25.2585
1512	25.2099
1496	25.3226
1480	25.3025
1464	25.1841
1448	25.2599
1432	25.1727
1416	25.2027
1400	25.3556
1384	25.0748
1368	25.1029
1352	25.21
1336	25.0129
1320	25.136
1304	25.0795
1288	24.826
1272	25.0384
1256	24.8768
1240	24.8267
1224	24.8829
1208	24.5917
1192	24.6675
1176	24.731
1160	24.3795
1144	24.496
1128	24.4127
1112	24.2573
1096	24.2538
1080	23.9337
1064	23.8902
1048	24.0714
1032	23.6001
1016	23.56
1000	23.68
984	 22.9909
968	 23.1924
952	 23.154
936	 22.5918
920	 22.7429
904	 22.35
888	 22.1066
872	 22.2143
856	 21.7988
840	 21.5385
824	 21.272
808	 20.9236
792	 20.8656
776	 20.6922
760	 19.896
744	 20.0694
728	 19.6996
712	 19.2053
696	 19.2284
680	 18.4807
664	 18.3831
648	 18.4364
632	 17.0842
616	 17.3069
600	 17.0882
584	 16.4595
568	 16.2439
552	 15.9332
536	 15.58
520	 14.304
504	 14.3233
488	 13.6197
472	 13.6517
456	 14.8501
440	 13.2132
424	 11.3185
408	 8.753180
392	 21.668
376	 56.5531
370	 35.5398