File: Bakgrunnsmateriale/MATLAB/FTIR/ftir_data/LPE453/Mapping_121/LPE453_t119.asc
PE IR       SPECTRUM    SPECTRUM    ASCII       PEDS        1.60
  -1
LP9798~1.ASC
17/05/17
00:23:13.00
17/05/17
00:23:39.00
tln
$LPE453_t0119$<tbV0>[-7.8,13.0,8.0,0.0,27,1,0]
27.028
64

2002,4.07
MIRTGS : RIGHTBACK : INTERNAL 2
MIR : ON : INTERNAL 2
OPTKBR

0.200000
8
8.000000
FILLER
RATIO
SPECTRUM
UNLOCKED 256

DOUBLE
64
COMBINED
1
0
0

0.002000
RATIO

1
0
TRUE
51149
0
LEFT NOT FITTED RIGHT NOT FITTED 0
NONE
NONE
15600
12
4.427000
51148
TRUE
1 0 8 72 0 0 0 0

15798

#HDR
-1
-1
#GR
µM
%T
2.38419e-05
0.0
2.000000
0.002000
12515
8
34.7157
-2.406913
#DATA
2.000000	 0.275731
2.084000	 0.279480
2.168000	 0.854268
2.252000	 -0.322779
2.336000	 0.226934
2.420000	 0.397059
2.504000	 -0.016624
2.588000	 -0.049209
2.672000	 0.188740
2.756000	 0.104264
2.840000	 0.203875
2.924000	 0.066960
3.008000	 0.032199
3.092000	 -0.092984
3.176000	 0.010317
3.260000	 0.047530
3.344000	 -0.028014
3.428000	 0.073141
3.512000	 0.039141
3.596000	 0.093902
3.680000	 0.050342
3.764000	 0.012745
3.848000	 0.049547
3.932000	 0.114742
4.016000	 -0.019975
4.100000	 0.074969
4.184000	 0.032378
4.268000	 0.334191
4.352000	 0.520267
4.436000	 1.495065
4.520000	 3.342552
4.604000	 6.514814
4.688000	 10.4505
4.772000	 14.7858
4.856000	 18.892
4.940000	 22.2268
5.024000	 24.9194
5.108000	 27.2796
5.192000	 28.8359
5.276000	 30.1525
5.359999	 30.9068
5.444000	 31.9073
5.528000	 32.3853
5.612000	 33.03
5.696000	 33.1414
5.780000	 33.5929
5.864000	 33.7984
5.948000	 33.9152
6.032000	 34.2864
6.116000	 34.0998
6.200000	 34.3259
6.284000	 34.4492
6.368000	 34.2688
6.452000	 34.5874
6.536000	 34.5858
6.620000	 34.3204
6.704000	 34.5223
6.788000	 34.5887
6.872000	 34.1804
6.956000	 34.4704
7.040000	 34.3435
7.124000	 34.2189
7.208000	 33.9967
7.292000	 34.3327
7.376000	 34.2501
7.460000	 33.7828
7.544000	 33.8594
7.628000	 34.0612
7.712000	 34.0312
7.796000	 33.6334
7.880000	 33.5741
7.964000	 33.58
8.048000	 33.7668
8.132000	 33.5247
8.216000	 33.241
8.300000	 33.227
8.384000	 33.4584
8.468000	 33.469
8.552000	 33.2535
8.635999	 32.8998
8.719999	 32.8511
8.804000	 33.0513
8.888000	 33.0727
8.972000	 32.9533
9.056000	 32.5573
9.140000	 32.311
9.224000	 32.4992
9.308000	 32.5242
9.391999	 32.6046
9.475999	 32.5423
9.560000	 32.0963
9.644000	 31.9509
9.728000	 31.9804
9.812000	 31.964
9.896000	 32.117
9.980000	 32.0914
10.064	32.077
10.148	31.7959
10.232	31.7077
10.316	31.4402
10.4	31.3366
10.484	31.367
10.568	31.3607
10.652	31.6538
10.736	31.5982
10.82	31.1133
10.904	30.9905
10.988	30.6499
11.072	30.5004
11.156	30.6163
11.24	30.615
11.324	30.6564
11.408	30.8347
11.492	30.6708
11.576	30.4573
11.66	30.313
11.744	30.06
11.828	29.8555
11.912	29.8491
11.996	29.8793
12.08	29.8748
12.164	30.0578
12.248	30.1615
12.332	29.9133
12.416	29.8921
12.5	29.7071
12.584	29.4047
12.668	29.2466
12.752	29.12
12.836	28.9593
12.92	29.062
13.004	29.186
13.088	29.2687
13.172	29.3847
13.256	29.411
13.34	29.1866
13.424	28.9111
13.508	28.674
13.592	28.5079
13.676	28.3888
13.76	28.3486
13.844	28.3384
13.928	28.4056
14.012	28.3774
14.096	28.2347
14.18	28.2809
14.264	28.4045
14.348	28.4729
14.432	28.4236
14.516	28.2036
14.6	28.0315
14.684	27.9646
14.768	27.7757
14.852	27.453
14.936	27.2616
15.02	27.2411
15.104	27.2064
15.188	27.1996
15.272	27.2422
15.356	27.2927
15.44	27.4129
15.524	27.5211
15.608	27.5028
15.692	27.3789
15.776	27.2389
15.86	27.2311
15.944	27.3629
16.028	27.3591
16.112	27.0772
16.196	26.752
16.28	26.5699
16.364	26.4061
16.448	26.1695
16.532	25.9731
16.616	25.9015
16.7	25.8857
16.784	25.8468
16.868	25.8164
16.952	25.8434
17.036	25.8914
17.12	25.9412
17.204	26.0513
17.288	26.1932
17.372	26.2482
17.456	26.1967
17.54	26.0923
17.624	25.9283
17.708	25.7156
17.792	25.5651
17.876	25.5327
17.96	25.5048
18.044	25.3761
18.128	25.2046
18.212	25.0943
18.296	25.0419
18.38	24.9844
18.464	24.923
18.548	24.8891
18.632	24.8409
18.716	24.7087
18.8	24.5197
18.884	24.3765
18.968	24.3366
19.052	24.3779
19.136	24.4718
19.22	24.6108
19.304	24.7617
19.388	24.8351
19.472	24.7494
19.556	24.5152
19.64	24.2439
19.724	24.0669
19.808	24.0515
19.892	24.1699
19.976	24.3297
20.06	24.4215
20.144	24.3633
20.228	24.1232
20.312	23.7257
20.396	23.2389
20.48	22.7506
20.564	22.3448
20.648	22.0885
20.732	22.0199
20.816	22.1373
20.9	22.3968
20.984	22.7245
21.068	23.0365
21.152	23.2551
21.236	23.3241
21.32	23.2197
21.404	22.9654
21.488	22.6311
21.572	22.3134
21.656	22.0953
21.74	22.0167
21.824	22.0727
21.908	22.2292
21.992	22.4368
22.076	22.6342
22.16	22.7585
22.244	22.7767
22.328	22.6907
22.412	22.5479
22.496	22.4131
22.58	22.3401
22.664	22.3587
22.748	22.4645
22.832	22.6284
22.916	22.7994
23	22.9081
23.084	22.8937
23.168	22.731
23.252	22.4463
23.336	22.0989
23.42	21.7205
23.504	21.2965
23.588	20.7469
23.672	19.9783
23.756	18.9675
23.84	17.8
23.924	16.6504
24.008	15.7077
24.092	15.1007
24.176	14.8415
24.26	14.8636
24.344	15.0711
24.428	15.3837
24.512	15.7333
24.596	16.0505
24.68	16.2734
24.764	16.3768
24.848	16.4223
24.932	16.5704
25.016	17.0157
25.1	17.8833
25.184	19.227
25.268	20.9489
25.352	22.7659
25.436	24.2377
25.52	24.8956
25.604	24.4012
25.688	22.7141
25.772	20.1877
25.856	17.4334
25.94	14.981
26.024	13.1448
26.108	11.9766
26.192	11.3613
26.276	11.1807
26.36	11.436
26.444	12.2353
26.528	13.6578
26.612	15.638
26.696	17.8068
26.78	19.5098
26.864	19.908
26.948	18.268
27.028	14.5922