File: Bakgrunnsmateriale/MATLAB/FTIR/ftir_data/LPE453/Mapping_121/LPE453_t27_cm-1.asc
PE IR       SPECTRUM    SPECTRUM    ASCII       PEDS        1.60
  -1
LP68DA~1.ASC
17/05/16
16:35:42.00
17/05/16
16:35:42.00
tln
$LPE453_t0027$<tbV0>[2.6,-7.8,8.0,0.0,27,1,0]
370
64

2002,4.07
MIRTGS : RIGHTBACK : INTERNAL 2
MIR : ON : INTERNAL 2
OPTKBR

0.200000
8
8.000000
FILLER
RATIO
SPECTRUM
UNLOCKED 256

DOUBLE
64
COMBINED
1
0
0

1.000000
RATIO

1
0
TRUE
51149
0
LEFT NOT FITTED RIGHT NOT FITTED 0
NONE
NONE
15600
12
4.427000
51148
TRUE
1 0 8 72 0 0 0 0

15798

#HDR
-1
-1
#GR
CM-1
%T
2.38419e-05
0.0
5000
-1.000000
4631
8
29.339
-19.2886
#DATA
5000	-0.009989
4984	0.166773
4968	0.972485
4952	-0.241374
4936	0.147509
4920	0.164914
4904	0.177741
4888	-0.534462
4872	0.114798
4856	-0.305199
4840	0.263833
4824	0.227212
4808	0.269508
4792	0.020265
4776	-0.191569
4760	-0.130414
4744	0.106215
4728	-0.171160
4712	-0.014209
4696	0.042629
4680	0.541567
4664	0.140500
4648	0.157308
4632	0.321221
4616	0.526857
4600	1.006817
4584	-0.513195
4568	-0.205540
4552	-0.009989
4536	1.419019
4520	8.939814
4504	-16.2897
4488	1.007819
4472	0.397729
4456	0.270795
4440	-0.002431
4424	0.673937
4408	0.800728
4392	0.200033
4376	0.311279
4360	0.277113
4344	-0.037074
4328	-0.076627
4312	-0.159835
4296	0.047612
4280	-0.052022
4264	0.162959
4248	-0.067377
4232	0.054526
4216	-0.002598
4200	0.098443
4184	0.096535
4168	-0.056171
4152	0.153160
4136	0.086212
4120	0.162911
4104	0.296592
4088	0.078105
4072	-0.124025
4056	0.071382
4040	0.135612
4024	0.418019
4008	0.193762
3992	0.306272
3976	0.195050
3960	0.196385
3944	0.213575
3928	0.256562
3912	0.104856
3896	0.130748
3880	0.179886
3864	0.046491
3848	0.018525
3832	0.017166
3816	0.075149
3800	0.003266
3784	0.027108
3768	-0.035881
3752	0.058913
3736	-0.048327
3720	0.143313
3704	0.089073
3688	0.097393
3672	0.003433
3656	-0.005292
3640	-0.136184
3624	0.185799
3608	-0.089883
3592	0.048732
3576	0.001478
3560	0.112414
3544	-0.027775
3528	-0.084090
3512	0.150609
3496	0.074815
3480	0.048851
3464	0.011181
3448	0.035405
3432	-0.029230
3416	-0.013804
3400	-0.002193
3384	0.051259
3368	-0.187182
3352	0.064826
3336	0.061941
3320	-0.026035
3304	0.085663
3288	0.078392
3272	0.137138
3256	0.082778
3240	0.058150
3224	0.002288
3208	0.021529
3192	0.088667
3176	0.103688
3160	-0.051546
3144	-0.011944
3128	0.144553
3112	0.055623
3096	0.022196
3080	-0.005912
3064	0.019693
3048	0.256347
3032	0.030398
3016	-0.087261
3000	0.119352
2984	0.071930
2968	0.033736
2952	-0.076246
2936	0.057983
2920	0.077390
2904	0.063610
2888	-0.040864
2872	0.070357
2856	0.213003
2840	-0.022625
2824	-0.042676
2808	0.022268
2792	0.086283
2776	0.023937
2760	-0.017499
2744	-0.000286
2728	-0.033211
2712	0.072336
2696	0.073552
2680	0.044584
2664	0.007557
2648	0.077199
2632	0.062823
2616	0.077176
2600	0.047087
2584	0.000119
2568	-0.019168
2552	0.011229
2536	-0.096869
2520	-0.019693
2504	0.179147
2488	0.092339
2472	0.049257
2456	0.015473
2440	0.011658
2424	0.086236
2408	0.015735
2392	-0.086402
2376	-0.012135
2360	0.109052
2344	0.164341
2328	-0.033736
2312	0.038409
2296	-0.025916
2280	0.079107
2264	0.111865
2248	0.383281
2232	0.600361
2216	1.080369
2200	1.413822
2184	2.131462
2168	2.997732
2152	4.049205
2136	5.223417
2120	6.577968
2104	8.008289
2088	9.638047
2072	11.6433
2056	13.3311
2040	14.6638
2024	16.2645
2008	17.6216
1992	18.9745
1976	20.2432
1960	21.2941
1944	22.2884
1928	23.1495
1912	23.8522
1896	24.5332
1880	25.1125
1864	25.8319
1848	26.1043
1832	26.4033
1816	26.8397
1800	26.9452
1784	27.2828
1768	27.4586
1752	27.5759
1736	27.7092
1720	27.794
1704	27.8253
1688	27.9758
1672	27.9366
1656	28.1325
1640	27.9768
1624	27.902
1608	27.939
1592	27.9518
1576	27.9673
1560	27.9224
1544	27.9292
1528	27.813
1512	27.9217
1496	27.8554
1480	27.7089
1464	27.6563
1448	27.6566
1432	27.5797
1416	27.525
1400	27.5404
1384	27.4315
1368	27.5108
1352	27.3484
1336	27.3799
1320	27.0761
1304	27.1636
1288	27.0679
1272	27.0368
1256	27.0188
1240	26.8183
1224	26.8917
1208	26.6925
1192	26.7276
1176	26.6083
1160	26.5204
1144	26.2658
1128	26.1674
1112	26.0316
1096	26.0729
1080	25.8954
1064	25.7251
1048	25.6262
1032	25.5042
1016	25.2033
1000	25.1478
984	 25.0778
968	 24.7423
952	 24.6954
936	 24.2781
920	 24.0146
904	 24.2644
888	 23.6283
872	 23.6854
856	 23.5333
840	 22.8102
824	 22.8988
808	 22.5498
792	 22.0321
776	 22.1512
760	 21.438
744	 21.5662
728	 20.9666
712	 20.806
696	 20.2982
680	 20.4145
664	 19.4931
648	 19.3347
632	 19.0393
616	 18.5899
600	 18.0866
584	 17.711
568	 16.9399
552	 16.8789
536	 15.9782
520	 15.335
504	 15.2945
488	 14.2242
472	 14.7574
456	 14.2624
440	 13.2059
424	 11.952
408	 9.891915
392	 25.2118
376	 -0.076079
370	 -17.5223