File: Bakgrunnsmateriale/MATLAB/FTIR/ftir_data/LPE453/Mapping_121/LPE453_t11.asc
PE IR       SPECTRUM    SPECTRUM    ASCII       PEDS        1.60
  -1
LPC79D~1.ASC
17/05/16
15:14:09.00
17/05/16
15:14:35.00
tln
$LPE453_t0011$<tbV0>[-13.0,-13.0,8.0,0.0,27,1,0]
27.028
64

2002,4.07
MIRTGS : RIGHTBACK : INTERNAL 2
MIR : ON : INTERNAL 2
OPTKBR

0.200000
8
8.000000
FILLER
RATIO
SPECTRUM
UNLOCKED 256

DOUBLE
64
COMBINED
1
0
0

0.002000
RATIO

1
0
TRUE
51149
0
LEFT NOT FITTED RIGHT NOT FITTED 0
NONE
NONE
15600
12
4.427000
51148
TRUE
1 0 8 72 0 0 0 0

15798

#HDR
-1
-1
#GR
µM
%T
2.38419e-05
0.0
2.000000
0.002000
12515
8
37.5073
-10.7721
#DATA
2.000000	 0.407242
2.084000	 0.016042
2.168000	 0.311468
2.252000	 -0.554665
2.336000	 -0.134270
2.420000	 -0.028442
2.504000	 0.186372
2.588000	 -0.044579
2.672000	 0.110160
2.756000	 0.050028
2.840000	 -0.026376
2.924000	 -0.005451
3.008000	 0.073616
3.092000	 -0.036840
3.176000	 0.115239
3.260000	 0.101456
3.344000	 0.049767
3.428000	 0.055003
3.512000	 -0.088854
3.596000	 0.009909
3.680000	 0.108346
3.764000	 -0.131356
3.848000	 0.075206
3.932000	 0.101201
4.016000	 0.149952
4.100000	 0.231736
4.184000	 0.038025
4.268000	 0.122523
4.352000	 0.244393
4.436000	 0.767030
4.520000	 1.622134
4.604000	 3.195386
4.688000	 5.339720
4.772000	 8.062621
4.856000	 10.2777
4.940000	 12.6069
5.024000	 14.4508
5.108000	 15.8791
5.192000	 16.6832
5.276000	 17.5052
5.359999	 18.0516
5.444000	 18.5446
5.528000	 19.0694
5.612000	 19.4218
5.696000	 19.5986
5.780000	 20
5.864000	 20.1015
5.948000	 20.2257
6.032000	 20.2779
6.116000	 20.4257
6.200000	 20.3493
6.284000	 20.736
6.368000	 20.7865
6.452000	 20.867
6.536000	 21.0769
6.620000	 21.2611
6.704000	 21.1648
6.788000	 21.3191
6.872000	 21.0362
6.956000	 21.2158
7.040000	 21.2637
7.124000	 21.3304
7.208000	 21.1479
7.292000	 20.9894
7.376000	 21.2474
7.460000	 21.3951
7.544000	 21.7273
7.628000	 21.9666
7.712000	 22.2091
7.796000	 22.1176
7.880000	 22.2901
7.964000	 22.6305
8.048000	 22.7093
8.132000	 22.337
8.216000	 22.6004
8.300000	 22.6584
8.384000	 22.6659
8.468000	 22.6729
8.552000	 22.5575
8.635999	 22.6647
8.719999	 22.8235
8.804000	 22.9792
8.888000	 22.8176
8.972000	 22.7592
9.056000	 22.4108
9.140000	 22.5058
9.224000	 22.7536
9.308000	 22.6573
9.391999	 22.5539
9.475999	 22.6863
9.560000	 22.6552
9.644000	 22.7652
9.728000	 22.8373
9.812000	 22.9149
9.896000	 22.765
9.980000	 22.7199
10.064	22.845
10.148	23.0053
10.232	23.097
10.316	22.8216
10.4	22.5395
10.484	22.4189
10.568	22.4248
10.652	22.5313
10.736	22.517
10.82	22.6328
10.904	22.6227
10.988	22.5771
11.072	22.346
11.156	21.9792
11.24	21.9878
11.324	22.0565
11.408	22.3108
11.492	22.2239
11.576	22.2868
11.66	22.482
11.744	22.3524
11.828	22.1104
11.912	21.8952
11.996	22.0796
12.08	22.133
12.164	21.9859
12.248	21.921
12.332	21.9945
12.416	21.9606
12.5	21.8823
12.584	21.7636
12.668	21.807
12.752	21.7237
12.836	21.5687
12.92	21.6373
13.004	21.7196
13.088	21.8072
13.172	22.049
13.256	22.1796
13.34	22.1388
13.424	21.5936
13.508	21.271
13.592	21.6439
13.676	21.7679
13.76	21.4198
13.844	21.2276
13.928	21.3362
14.012	21.3054
14.096	21.2226
14.18	21.2264
14.264	21.2162
14.348	20.9646
14.432	20.6756
14.516	20.743
14.6	20.8614
14.684	20.8928
14.768	21.0342
14.852	21.1371
14.936	21.0228
15.02	20.6702
15.104	20.3128
15.188	20.1963
15.272	20.2364
15.356	20.3622
15.44	20.5517
15.524	20.5942
15.608	20.5
15.692	20.6325
15.776	20.9934
15.86	21.1636
15.944	20.9925
16.028	20.688
16.112	20.4465
16.196	20.3194
16.28	20.2557
16.364	20.2015
16.448	20.1563
16.532	20.1478
16.616	20.1721
16.7	20.2065
16.784	20.2686
16.868	20.3801
16.952	20.4528
17.036	20.3607
17.12	20.1281
17.204	19.9359
17.288	19.9328
17.372	20.0428
17.456	20.0208
17.54	19.7521
17.624	19.4198
17.708	19.2623
17.792	19.2875
17.876	19.3308
17.96	19.3007
18.044	19.2376
18.128	19.2177
18.212	19.2864
18.296	19.4356
18.38	19.5777
18.464	19.6027
18.548	19.5009
18.632	19.3858
18.716	19.3764
18.8	19.4901
18.884	19.6487
18.968	19.7404
19.052	19.677
19.136	19.4586
19.22	19.2023
19.304	19.0596
19.388	19.0792
19.472	19.1713
19.556	19.2032
19.64	19.1198
19.724	18.9572
19.808	18.783
19.892	18.6458
19.976	18.5779
20.06	18.5951
20.144	18.6812
20.228	18.7738
20.312	18.7845
20.396	18.653
20.48	18.39
20.564	18.0835
20.648	17.8583
20.732	17.8121
20.816	17.9729
20.9	18.2867
20.984	18.6528
21.068	18.9701
21.152	19.1752
21.236	19.2417
21.32	19.1811
21.404	19.0299
21.488	18.8588
21.572	18.751
21.656	18.7644
21.74	18.8875
21.824	19.0285
21.908	19.0691
21.992	18.9459
22.076	18.6922
22.16	18.408
22.244	18.1623
22.328	17.939
22.412	17.6124
22.496	17.0572
22.58	16.2392
22.664	15.2466
22.748	14.269
22.832	13.4682
22.916	12.9291
23	12.6278
23.084	12.4897
23.168	12.4304
23.252	12.3941
23.336	12.3583
23.42	12.348
23.504	12.4032
23.588	12.6707
23.672	13.3897
23.756	14.7803
23.84	16.9801
23.924	19.9248
24.008	23.3221
24.092	26.7134
24.176	29.6244
24.26	31.7088
24.344	32.8052
24.428	32.9963
24.512	32.6019
24.596	32.027
24.68	31.631
24.764	31.5921
24.848	31.8451
24.932	31.9549
25.016	31.2366
25.1	29.0096
25.184	24.8625
25.268	18.9612
25.352	12.0321
25.436	5.237964
25.52	-0.210471
25.604	-3.436568
25.688	-3.947935
25.772	-1.840661
25.856	2.209161
25.94	7.028828
26.024	11.1226
26.108	13.1041
26.192	12.2096
26.276	8.542243
26.36	3.069045
26.444	-2.732494
26.528	-7.436645
26.612	-10.1602
26.696	-10.7208
26.78	-9.612358
26.864	-7.652484
26.948	-5.646537
27.028	-4.255723