File: Bakgrunnsmateriale/MATLAB/FTIR/ftir_data/LPE453/Mapping_121/LPE453_t87.asc
PE IR       SPECTRUM    SPECTRUM    ASCII       PEDS        1.60
  -1
LPD3B5~1.ASC
17/05/16
21:27:55.00
17/05/16
21:28:21.00
tln
$LPE453_t0087$<tbV0>[-10.4,5.2,8.0,0.0,27,1,0]
27.028
64

2002,4.07
MIRTGS : RIGHTBACK : INTERNAL 2
MIR : ON : INTERNAL 2
OPTKBR

0.200000
8
8.000000
FILLER
RATIO
SPECTRUM
UNLOCKED 256

DOUBLE
64
COMBINED
1
0
0

0.002000
RATIO

1
0
TRUE
51149
0
LEFT NOT FITTED RIGHT NOT FITTED 0
NONE
NONE
15600
12
4.427000
51148
TRUE
1 0 8 72 0 0 0 0

15798

#HDR
-1
-1
#GR
µM
%T
2.38419e-05
0.0
2.000000
0.002000
12515
8
51.8504
-7.415131
#DATA
2.000000	 -0.188159
2.084000	 0.123807
2.168000	 0.665384
2.252000	 -0.485687
2.336000	 -0.005960
2.420000	 0.133266
2.504000	 0.080492
2.588000	 0.170175
2.672000	 0.065452
2.756000	 0.025987
2.840000	 0.053990
2.924000	 0.026977
3.008000	 0.084959
3.092000	 0.035045
3.176000	 0.009210
3.260000	 0.014004
3.344000	 0.141577
3.428000	 0.175122
3.512000	 -0.066135
3.596000	 0.223235
3.680000	 0.004683
3.764000	 0.068131
3.848000	 0.062200
3.932000	 0.026268
4.016000	 -0.119934
4.100000	 0.037951
4.184000	 0.034620
4.268000	 0.155377
4.352000	 0.527426
4.436000	 1.453401
4.520000	 3.517594
4.604000	 6.559287
4.688000	 10.8726
4.772000	 15.3746
4.856000	 19.5647
4.940000	 23.3077
5.024000	 26.3031
5.108000	 28.3413
5.192000	 30.0206
5.276000	 31.2434
5.359999	 32.0289
5.444000	 32.6549
5.528000	 33.0216
5.612000	 33.423
5.696000	 33.5461
5.780000	 33.5683
5.864000	 33.7082
5.948000	 33.8153
6.032000	 33.9269
6.116000	 33.8399
6.200000	 33.9488
6.284000	 33.925
6.368000	 33.7735
6.452000	 34.0389
6.536000	 33.7618
6.620000	 33.8001
6.704000	 33.8321
6.788000	 33.5939
6.872000	 33.615
6.956000	 33.6576
7.040000	 33.6822
7.124000	 33.3192
7.208000	 33.5826
7.292000	 33.5773
7.376000	 33.2508
7.460000	 33.3805
7.544000	 33.5027
7.628000	 33.462
7.712000	 33.0916
7.796000	 33.1949
7.880000	 33.4417
7.964000	 33.4891
8.048000	 33.2177
8.132000	 33.0142
8.216000	 33.2178
8.300000	 33.5041
8.384000	 33.2418
8.468000	 32.984
8.552000	 32.7067
8.635999	 33.1408
8.719999	 33.2276
8.804000	 32.9788
8.888000	 32.6776
8.972000	 32.5299
9.056000	 33.0134
9.140000	 33.0067
9.224000	 33.0872
9.308000	 32.9296
9.391999	 32.546
9.475999	 32.4917
9.560000	 32.634
9.644000	 32.858
9.728000	 32.907
9.812000	 32.661
9.896000	 32.1518
9.980000	 32.0305
10.064	32.0953
10.148	32.2292
10.232	32.5982
10.316	32.5805
10.4	32.4735
10.484	32.0868
10.568	31.7197
10.652	31.6933
10.736	31.7406
10.82	32.0052
10.904	32.2281
10.988	32.2627
11.072	32.1499
11.156	31.571
11.24	31.2632
11.324	31.2242
11.408	31.2541
11.492	31.2547
11.576	31.4321
11.66	31.5167
11.744	31.8188
11.828	31.6924
11.912	31.352
11.996	31.0431
12.08	30.7462
12.164	30.6177
12.248	30.6466
12.332	30.6416
12.416	30.6611
12.5	30.9446
12.584	31.2564
12.668	31.1325
12.752	30.8687
12.836	30.6509
12.92	30.3325
13.004	30.0629
13.088	29.8094
13.172	29.6853
13.256	29.8528
13.34	29.9796
13.424	29.9835
13.508	30.2731
13.592	30.6219
13.676	30.5797
13.76	30.3003
13.844	29.9769
13.928	29.6301
14.012	29.3026
14.096	29.1365
14.18	29.1616
14.264	29.263
14.348	29.3553
14.432	29.3407
14.516	29.2703
14.6	29.2464
14.684	29.2566
14.768	29.3419
14.852	29.4177
14.936	29.4015
15.02	29.3343
15.104	29.2028
15.188	28.9944
15.272	28.7219
15.356	28.4479
15.44	28.2777
15.524	28.2209
15.608	28.2092
15.692	28.1854
15.776	28.1244
15.86	28.079
15.944	28.1735
16.028	28.3781
16.112	28.4961
16.196	28.5244
16.28	28.5943
16.364	28.5648
16.448	28.2443
16.532	27.8114
16.616	27.5581
16.7	27.5092
16.784	27.5192
16.868	27.4819
16.952	27.3922
17.036	27.2981
17.12	27.2205
17.204	27.173
17.288	27.2134
17.372	27.3447
17.456	27.4276
17.54	27.3388
17.624	27.1546
17.708	27.0432
17.792	27.0449
17.876	27.0729
17.96	27.0816
18.044	27.1177
18.128	27.2115
18.212	27.2976
18.296	27.2732
18.38	27.0947
18.464	26.7937
18.548	26.433
18.632	26.077
18.716	25.7928
18.8	25.6389
18.884	25.6273
18.968	25.7147
19.052	25.8381
19.136	25.9403
19.22	25.969
19.304	25.89
19.388	25.7241
19.472	25.5494
19.556	25.4506
19.64	25.4531
19.724	25.5138
19.808	25.5747
19.892	25.6119
19.976	25.632
20.06	25.6362
20.144	25.6178
20.228	25.5876
20.312	25.5772
20.396	25.5958
20.48	25.5852
20.564	25.447
20.648	25.1262
20.732	24.6742
20.816	24.2228
20.9	23.8975
20.984	23.7472
21.068	23.7378
21.152	23.7938
21.236	23.8477
21.32	23.8609
21.404	23.8287
21.488	23.7798
21.572	23.7602
21.656	23.8026
21.74	23.8997
21.824	24.0106
21.908	24.0932
21.992	24.125
22.076	24.1066
22.16	24.0614
22.244	24.0386
22.328	24.0974
22.412	24.274
22.496	24.5563
22.58	24.882
22.664	25.1663
22.748	25.3342
22.832	25.3505
22.916	25.2212
23	24.9753
23.084	24.6614
23.168	24.3408
23.252	24.0702
23.336	23.8992
23.42	23.8281
23.504	23.8182
23.588	23.8149
23.672	23.7801
23.756	23.7159
23.84	23.6762
23.924	23.7101
24.008	23.828
24.092	24.0001
24.176	24.1722
24.26	24.3158
24.344	24.4804
24.428	24.7744
24.512	25.2856
24.596	26.0485
24.68	27.0347
24.764	28.161
24.848	29.3319
24.932	30.4559
25.016	31.4686
25.1	32.3845
25.184	33.0883
25.268	33.3413
25.352	32.916
25.436	31.685
25.52	29.6824
25.604	27.0669
25.688	24.2065
25.772	21.537
25.856	19.4263
25.94	18.3316
26.024	18.7636
26.108	21.0799
26.192	25.2703
26.276	30.7706
26.36	36.3184
26.444	40.5628
26.528	42.6552
26.612	42.5818
26.696	41.2437
26.78	40.1417
26.864	40.9098
26.948	44.777
27.028	51.8504