File: Bakgrunnsmateriale/MATLAB/FTIR/ftir_data/LPE453/Mapping_121/LPE453_t89.asc
PE IR       SPECTRUM    SPECTRUM    ASCII       PEDS        1.60
  -1
LPE3BD~1.ASC
17/05/16
21:43:36.00
17/05/16
21:44:02.00
tln
$LPE453_t0089$<tbV0>[13.0,7.8,8.0,0.0,27,1,0]
27.028
64

2002,4.07
MIRTGS : RIGHTBACK : INTERNAL 2
MIR : ON : INTERNAL 2
OPTKBR

0.200000
8
8.000000
FILLER
RATIO
SPECTRUM
UNLOCKED 256

DOUBLE
64
COMBINED
1
0
0

0.002000
RATIO

1
0
TRUE
51149
0
LEFT NOT FITTED RIGHT NOT FITTED 0
NONE
NONE
15600
12
4.427000
51148
TRUE
1 0 8 72 0 0 0 0

15798

#HDR
-1
-1
#GR
µM
%T
2.38419e-05
0.0
2.000000
0.002000
12515
8
24.8753
-5.700245
#DATA
2.000000	 -0.293803
2.084000	 0.445650
2.168000	 -1.200498
2.252000	 -0.222088
2.336000	 -0.368284
2.420000	 0.186600
2.504000	 -0.139613
2.588000	 0.207323
2.672000	 -0.061546
2.756000	 0.052667
2.840000	 -0.027437
2.924000	 0.060718
3.008000	 -0.077514
3.092000	 0.169812
3.176000	 -0.004940
3.260000	 0.080582
3.344000	 -0.016714
3.428000	 0.062103
3.512000	 -0.009068
3.596000	 -0.000158
3.680000	 0.037430
3.764000	 -0.014621
3.848000	 0.071751
3.932000	 -0.019845
4.016000	 -0.097773
4.100000	 0.192292
4.184000	 -0.011799
4.268000	 -0.094527
4.352000	 0.080069
4.436000	 0.401683
4.520000	 0.973692
4.604000	 2.304513
4.688000	 4.502792
4.772000	 7.379065
4.856000	 10.2907
4.940000	 13.1322
5.024000	 15.5137
5.108000	 17.5347
5.192000	 18.9995
5.276000	 20.19
5.359999	 21.1368
5.444000	 21.9162
5.528000	 22.4513
5.612000	 22.8296
5.696000	 23.1891
5.780000	 23.3803
5.864000	 23.6975
5.948000	 23.9809
6.032000	 24.1231
6.116000	 24.2745
6.200000	 24.3387
6.284000	 24.4966
6.368000	 24.3603
6.452000	 24.5099
6.536000	 24.6274
6.620000	 24.5807
6.704000	 24.6832
6.788000	 24.6581
6.872000	 24.7282
6.956000	 24.8681
7.040000	 24.8026
7.124000	 24.7933
7.208000	 24.7534
7.292000	 24.7346
7.376000	 24.7455
7.460000	 24.6994
7.544000	 24.8311
7.628000	 24.7807
7.712000	 24.6718
7.796000	 24.5752
7.880000	 24.5203
7.964000	 24.5852
8.048000	 24.6237
8.132000	 24.5311
8.216000	 24.4703
8.300000	 24.4808
8.384000	 24.4292
8.468000	 24.3122
8.552000	 24.3274
8.635999	 24.4041
8.719999	 24.4335
8.804000	 24.276
8.888000	 24.1229
8.972000	 24.0946
9.056000	 24.1827
9.140000	 24.0083
9.224000	 24.0945
9.308000	 24.0334
9.391999	 23.9125
9.475999	 23.9184
9.560000	 23.8139
9.644000	 23.8801
9.728000	 23.6151
9.812000	 23.7311
9.896000	 23.7783
9.980000	 23.5177
10.064	23.4289
10.148	23.4187
10.232	23.4033
10.316	23.312
10.4	23.1328
10.484	23.1806
10.568	23.2167
10.652	23.0985
10.736	22.9846
10.82	22.888
10.904	22.8226
10.988	22.8099
11.072	22.8553
11.156	22.6001
11.24	22.446
11.324	22.382
11.408	22.3834
11.492	22.1878
11.576	22.1592
11.66	22.1389
11.744	21.9029
11.828	21.896
11.912	21.9197
11.996	21.7495
12.08	21.6411
12.164	21.6559
12.248	21.6929
12.332	21.5494
12.416	21.3911
12.5	21.3381
12.584	21.2203
12.668	21.1382
12.752	21.0963
12.836	21.0186
12.92	20.9415
13.004	21.0337
13.088	21.0432
13.172	20.9125
13.256	20.7462
13.34	20.8235
13.424	20.919
13.508	20.7612
13.592	20.4916
13.676	20.2578
13.76	20.2746
13.844	20.3236
13.928	20.2033
14.012	20.0226
14.096	19.9047
14.18	19.9488
14.264	19.9821
14.348	19.9318
14.432	19.9186
14.516	19.9032
14.6	19.7359
14.684	19.4404
14.768	19.3146
14.852	19.3696
14.936	19.2313
15.02	18.8904
15.104	18.7572
15.188	18.9265
15.272	19.1026
15.356	19.0703
15.44	18.876
15.524	18.7076
15.608	18.6326
15.692	18.6291
15.776	18.7485
15.86	18.8805
15.944	18.7879
16.028	18.5026
16.112	18.2426
16.196	18.1052
16.28	18.0477
16.364	17.9584
16.448	17.7765
16.532	17.5769
16.616	17.4798
16.7	17.4945
16.784	17.5311
16.868	17.5652
16.952	17.6516
17.036	17.7581
17.12	17.743
17.204	17.5389
17.288	17.2358
17.372	16.9665
17.456	16.8232
17.54	16.8495
17.624	16.9948
17.708	17.1177
17.792	17.1172
17.876	17.0226
17.96	16.8924
18.044	16.724
18.128	16.5328
18.212	16.4198
18.296	16.4707
18.38	16.6395
18.464	16.7885
18.548	16.8102
18.632	16.6789
18.716	16.4459
18.8	16.2127
18.884	16.0627
18.968	15.9944
19.052	15.9301
19.136	15.8016
19.22	15.6155
19.304	15.4439
19.388	15.3441
19.472	15.3061
19.556	15.277
19.64	15.2193
19.724	15.1406
19.808	15.0782
19.892	15.0653
19.976	15.1089
20.06	15.1781
20.144	15.2055
20.228	15.1226
20.312	14.9283
20.396	14.7076
20.48	14.5556
20.564	14.4943
20.648	14.4769
20.732	14.4635
20.816	14.4601
20.9	14.4847
20.984	14.5106
21.068	14.4694
21.152	14.3211
21.236	14.103
21.32	13.9036
21.404	13.7812
21.488	13.7288
21.572	13.6955
21.656	13.6363
21.74	13.5477
21.824	13.4656
21.908	13.4391
21.992	13.4964
22.076	13.6223
22.16	13.7619
22.244	13.8472
22.328	13.8303
22.412	13.693
22.496	13.448
22.58	13.1146
22.664	12.7047
22.748	12.2356
22.832	11.7549
22.916	11.3527
23	11.1573
23.084	11.2632
23.168	11.6896
23.252	12.3453
23.336	13.0287
23.42	13.5425
23.504	13.7522
23.588	13.6554
23.672	13.3672
23.756	13.0708
23.84	12.9244
23.924	13.0044
24.008	13.267
24.092	13.5637
24.176	13.7243
24.26	13.6381
24.344	13.2767
24.428	12.6712
24.512	11.8515
24.596	10.795
24.68	9.418615
24.764	7.636704
24.848	5.471701
24.932	3.090285
25.016	0.779216
25.1	-1.144683
25.184	-2.409965
25.268	-2.897919
25.352	-2.655446
25.436	-1.839359
25.52	-0.647805
25.604	0.747868
25.688	2.244833
25.772	3.767670
25.856	5.198637
25.94	6.344729
26.024	6.950740
26.108	6.796831
26.192	5.849833
26.276	4.329770
26.36	2.698176
26.444	1.531797
26.528	1.323004
26.612	2.286894
26.696	4.331776
26.78	7.085770
26.864	10.0572
26.948	12.7828
27.028	14.822