File: Bakgrunnsmateriale/MATLAB/FTIR/ftir_data/LPE453/Mapping_121/LPE453_t65_cm-1.asc
PE IR       SPECTRUM    SPECTRUM    ASCII       PEDS        1.60
  -1
LP6ADB~1.ASC
17/05/16
19:39:07.00
17/05/16
19:39:07.00
tln
$LPE453_t0065$<tbV0>[-10.4,0.0,8.0,0.0,27,1,0]
370
64

2002,4.07
MIRTGS : RIGHTBACK : INTERNAL 2
MIR : ON : INTERNAL 2
OPTKBR

0.200000
8
8.000000
FILLER
RATIO
SPECTRUM
UNLOCKED 256

DOUBLE
64
COMBINED
1
0
0

1.000000
RATIO

1
0
TRUE
51149
0
LEFT NOT FITTED RIGHT NOT FITTED 0
NONE
NONE
15600
12
4.427000
51148
TRUE
1 0 8 72 0 0 0 0

15798

#HDR
-1
-1
#GR
CM-1
%T
2.38419e-05
0.0
5000
-1.000000
4631
8
31.8995
-12.9589
#DATA
5000	0.094962
4984	0.307559
4968	-0.054097
4952	-0.017619
4936	0.098299
4920	0.215935
4904	-0.070357
4888	0.157642
4872	0.282835
4856	0.255537
4840	-0.036716
4824	0.336956
4808	0.088715
4792	0.732684
4776	-0.139045
4760	-0.269126
4744	-0.125432
4728	0.710463
4712	0.509476
4696	0.805282
4680	-2.231693
4664	0.141882
4648	-0.134301
4632	0.099158
4616	-0.100922
4600	0.673007
4584	-0.135564
4568	0.920915
4552	0.665521
4536	-0.094580
4520	-0.737357
4504	0.817584
4488	-2.348661
4472	3.664970
4456	0.624227
4440	-0.325369
4424	-0.585865
4408	0.266289
4392	0.176000
4376	0.096797
4360	0.314569
4344	0.196146
4328	0.050330
4312	0.566220
4296	0.225353
4280	0.179195
4264	-0.219440
4248	0.280070
4232	0.068497
4216	0.078892
4200	0.328326
4184	-0.039219
4168	0.449705
4152	-0.072169
4136	0.212168
4120	-0.281238
4104	-0.007772
4088	-0.021839
4072	0.043249
4056	-0.021505
4040	0.123167
4024	0.101780
4008	-0.016570
3992	0.042819
3976	0.205326
3960	-0.015974
3944	0.050806
3928	0.227665
3912	0.000691
3896	-0.029611
3880	0.218200
3864	0.169277
3848	0.023436
3832	0.006580
3816	0.123476
3800	0.065565
3784	0.144672
3768	0.109219
3752	0.060558
3736	0.018048
3720	0.105237
3704	0.108337
3688	-0.034451
3672	0.071430
3656	-0.045824
3640	0.133514
3624	0.072908
3608	0.071215
3592	0.091624
3576	0.070428
3560	0.116086
3544	0.021624
3528	0.188422
3512	-0.055980
3496	0.051856
3480	-0.135755
3464	0.093340
3448	0.152230
3432	0.169348
3416	0.108075
3400	-0.011086
3384	-0.069069
3368	0.144004
3352	0.027012
3336	0.046539
3320	0.167322
3304	-0.070381
3288	-0.112557
3272	0.003862
3256	0.013303
3240	0.062799
3224	-0.052022
3208	-0.093007
3192	0.186777
3176	-0.131440
3160	0.081706
3144	0.107955
3128	0.224900
3112	0.100803
3096	0.008296
3080	0.063991
3064	0.040411
3048	0.044417
3032	0.012755
3016	0.007152
3000	0.078773
2984	-0.075674
2968	0.019645
2952	0.008893
2936	-0.025463
2920	-0.060224
2904	0.027608
2888	0.122046
2872	0.069189
2856	-0.021219
2840	0.125741
2824	0.023746
2808	0.038599
2792	0.088834
2776	0.094103
2760	0.055646
2744	0.040054
2728	0.067830
2712	-0.050616
2696	-0.030350
2680	-0.002813
2664	0.069761
2648	0.148653
2632	0.077295
2616	-0.028324
2600	0.055384
2584	-0.074601
2568	0.039863
2552	0.161743
2536	0.017809
2520	0.077247
2504	0.034141
2488	0.021648
2472	0.059485
2456	0.027704
2440	0.065827
2424	0.126934
2408	0.182032
2392	0.030636
2376	0.002431
2360	-0.043344
2344	0.053572
2328	0.083732
2312	0.077033
2296	0.272011
2280	0.268793
2264	0.589847
2248	0.898027
2232	1.365900
2216	1.798224
2200	2.765512
2184	3.634977
2168	4.763436
2152	6.029343
2136	7.927131
2120	9.648895
2104	11.5522
2088	13.3491
2072	15.1402
2056	17.2533
2040	18.7735
2024	20.5621
2008	22.0301
1992	23.3918
1976	24.5456
1960	25.6422
1944	26.674
1928	27.5373
1912	28.1794
1896	28.7362
1880	29.3519
1864	29.8358
1848	30.107
1832	30.5215
1816	30.7124
1800	31.0361
1784	31.1826
1768	31.3609
1752	31.3604
1736	31.5218
1720	31.6277
1704	31.7065
1688	31.7906
1672	31.6885
1656	31.6977
1640	31.8974
1624	31.7697
1608	31.7682
1592	31.8252
1576	31.7144
1560	31.7278
1544	31.73
1528	31.6987
1512	31.6064
1496	31.5817
1480	31.3316
1464	31.4743
1448	31.217
1432	31.223
1416	31.3654
1400	31.3596
1384	31.1483
1368	31.1589
1352	30.9898
1336	30.8666
1320	30.9505
1304	30.9346
1288	30.6961
1272	30.8383
1256	30.8981
1240	30.5447
1224	30.5556
1208	30.5
1192	30.1382
1176	30.4011
1160	30.3996
1144	30.1325
1128	29.9906
1112	30.0319
1096	29.8833
1080	29.7294
1064	29.8064
1048	29.4564
1032	29.3071
1016	29.5915
1000	29.1891
984	 29.1202
968	 28.9987
952	 28.8297
936	 28.7286
920	 28.5419
904	 28.0905
888	 27.932
872	 28.0616
856	 27.6978
840	 27.4414
824	 27.2338
808	 27.0069
792	 26.7015
776	 26.5691
760	 26.2142
744	 25.9304
728	 25.6441
712	 25.5462
696	 24.72
680	 24.7092
664	 24.9315
648	 23.929
632	 23.7662
616	 23.5215
600	 22.8262
584	 22.7253
568	 22.217
552	 21.9489
536	 21.5767
520	 20.0422
504	 20.5807
488	 19.3078
472	 19.6813
456	 18.6837
440	 19.2876
424	 16.5533
408	 21.3514
392	 0.061917
376	 7.102203
370	 -12.9589