File: Bakgrunnsmateriale/MATLAB/FTIR/ftir_data/LPE453/Mapping_121/LPE453_t88.asc
PE IR       SPECTRUM    SPECTRUM    ASCII       PEDS        1.60
  -1
LPE3B9~1.ASC
17/05/16
21:32:31.00
17/05/16
21:32:57.00
tln
$LPE453_t0088$<tbV0>[-13.0,5.2,8.0,0.0,27,1,0]
27.028
64

2002,4.07
MIRTGS : RIGHTBACK : INTERNAL 2
MIR : ON : INTERNAL 2
OPTKBR

0.200000
8
8.000000
FILLER
RATIO
SPECTRUM
UNLOCKED 256

DOUBLE
64
COMBINED
1
0
0

0.002000
RATIO

1
0
TRUE
51149
0
LEFT NOT FITTED RIGHT NOT FITTED 0
NONE
NONE
15600
12
4.427000
51148
TRUE
1 0 8 72 0 0 0 0

15798

#HDR
-1
-1
#GR
µM
%T
2.38419e-05
0.0
2.000000
0.002000
12515
8
33.0478
-4.199703
#DATA
2.000000	 -0.499010
2.084000	 0.262633
2.168000	 0.917453
2.252000	 -0.233178
2.336000	 -0.072125
2.420000	 -0.229268
2.504000	 -0.038029
2.588000	 0.097309
2.672000	 0.032896
2.756000	 -0.033704
2.840000	 -0.001814
2.924000	 -0.011982
3.008000	 -0.052884
3.092000	 -0.001004
3.176000	 0.027626
3.260000	 -0.008559
3.344000	 0.005505
3.428000	 -0.071493
3.512000	 0.083326
3.596000	 -0.011950
3.680000	 0.021362
3.764000	 0.012920
3.848000	 0.038653
3.932000	 0.162225
4.016000	 -0.013181
4.100000	 -0.045164
4.184000	 0.006413
4.268000	 0.054275
4.352000	 0.216469
4.436000	 0.928314
4.520000	 2.406070
4.604000	 4.871087
4.688000	 8.406208
4.772000	 12.357
4.856000	 16.2878
4.940000	 19.9391
5.024000	 22.6776
5.108000	 24.9695
5.192000	 26.8119
5.276000	 28.0688
5.359999	 29.2155
5.444000	 29.9364
5.528000	 30.5268
5.612000	 31.0449
5.696000	 31.5079
5.780000	 31.8647
5.864000	 32.0851
5.948000	 32.2
6.032000	 32.3176
6.116000	 32.4956
6.200000	 32.3678
6.284000	 32.6697
6.368000	 32.727
6.452000	 32.8129
6.536000	 32.8868
6.620000	 32.9595
6.704000	 32.8533
6.788000	 32.9168
6.872000	 32.8928
6.956000	 32.9854
7.040000	 33.0468
7.124000	 32.9037
7.208000	 32.8413
7.292000	 32.9113
7.376000	 32.8818
7.460000	 32.7825
7.544000	 32.8887
7.628000	 32.91
7.712000	 32.7829
7.796000	 32.8566
7.880000	 32.884
7.964000	 32.6719
8.048000	 32.7414
8.132000	 32.5417
8.216000	 32.6406
8.300000	 32.5984
8.384000	 32.4543
8.468000	 32.4368
8.552000	 32.5005
8.635999	 32.2904
8.719999	 32.1142
8.804000	 32.0927
8.888000	 31.935
8.972000	 32.0353
9.056000	 31.8173
9.140000	 31.7646
9.224000	 31.5741
9.308000	 31.5656
9.391999	 31.6616
9.475999	 31.5002
9.560000	 31.4448
9.644000	 31.2813
9.728000	 31.0539
9.812000	 31.1491
9.896000	 31.1603
9.980000	 30.9859
10.064	30.8043
10.148	30.5428
10.232	30.3655
10.316	30.5229
10.4	30.6702
10.484	30.2652
10.568	30.1412
10.652	30.0673
10.736	29.9136
10.82	29.6115
10.904	29.4232
10.988	29.6779
11.072	29.6911
11.156	29.4135
11.24	29.3768
11.324	29.2024
11.408	28.9286
11.492	28.8579
11.576	28.8726
11.66	29.0142
11.744	29.0816
11.828	29.0477
11.912	28.7342
11.996	28.374
12.08	28.3086
12.164	28.5639
12.248	28.2635
12.332	28.149
12.416	28.2515
12.5	28.0469
12.584	27.8601
12.668	27.8324
12.752	27.7912
12.836	27.5956
12.92	27.4119
13.004	27.1871
13.088	26.9572
13.172	26.8265
13.256	26.9287
13.34	27.0924
13.424	26.9536
13.508	26.9257
13.592	26.8975
13.676	26.6417
13.76	26.5539
13.844	26.5471
13.928	26.4433
14.012	26.2357
14.096	25.9983
14.18	25.9827
14.264	26.0284
14.348	25.7575
14.432	25.5891
14.516	25.7398
14.6	25.8446
14.684	25.7899
14.768	25.6798
14.852	25.5829
14.936	25.5149
15.02	25.3916
15.104	25.1861
15.188	24.949
15.272	24.7244
15.356	24.629
15.44	24.6205
15.524	24.52
15.608	24.4435
15.692	24.598
15.776	24.8823
15.86	25.0844
15.944	25.0904
16.028	24.9249
16.112	24.7263
16.196	24.5534
16.28	24.3479
16.364	24.1407
16.448	24.0447
16.532	24.0242
16.616	23.9042
16.7	23.635
16.784	23.401
16.868	23.4017
16.952	23.6137
17.036	23.8851
17.12	24.1582
17.204	24.433
17.288	24.6042
17.372	24.5454
17.456	24.2786
17.54	23.9179
17.624	23.5463
17.708	23.1983
17.792	22.8872
17.876	22.6182
17.96	22.4161
18.044	22.3326
18.128	22.4065
18.212	22.6173
18.296	22.8754
18.38	23.0528
18.464	23.0735
18.548	22.977
18.632	22.8414
18.716	22.6944
18.8	22.5335
18.884	22.3893
18.968	22.3132
19.052	22.3152
19.136	22.3589
19.22	22.4148
19.304	22.4871
19.388	22.5672
19.472	22.6084
19.556	22.5662
19.64	22.4494
19.724	22.2972
19.808	22.119
19.892	21.884
19.976	21.5713
20.06	21.209
20.144	20.855
20.228	20.5504
20.312	20.3169
20.396	20.1824
20.48	20.1873
20.564	20.3422
20.648	20.5891
20.732	20.8069
20.816	20.8812
20.9	20.7781
20.984	20.5639
21.068	20.3687
21.152	20.3095
21.236	20.4262
21.32	20.6497
21.404	20.8472
21.488	20.9222
21.572	20.8663
21.656	20.7395
21.74	20.5981
21.824	20.4436
21.908	20.245
21.992	20.0006
22.076	19.7655
22.16	19.6267
22.244	19.6342
22.328	19.7687
22.412	19.9716
22.496	20.1843
22.58	20.3605
22.664	20.438
22.748	20.3166
22.832	19.8999
22.916	19.1578
23	18.1909
23.084	17.2125
23.168	16.4887
23.252	16.1988
23.336	16.3837
23.42	16.9151
23.504	17.5859
23.588	18.2012
23.672	18.6447
23.756	18.89
23.84	18.9616
23.924	18.8838
24.008	18.6631
24.092	18.3065
24.176	17.8454
24.26	17.3749
24.344	17.0332
24.428	16.9343
24.512	17.1444
24.596	17.6351
24.68	18.3206
24.764	19.1111
24.848	19.9535
24.932	20.8272
25.016	21.7244
25.1	22.6464
25.184	23.5001
25.268	24.1287
25.352	24.4181
25.436	24.2907
25.52	23.7341
25.604	22.7903
25.688	21.5575
25.772	20.1506
25.856	18.6544
25.94	17.0925
26.024	15.4563
26.108	13.7466
26.192	12.0447
26.276	10.4588
26.36	9.044798
26.444	7.786200
26.528	6.669540
26.612	5.674987
26.696	4.997608
26.78	5.037328
26.864	6.419521
26.948	9.761020
27.028	15.0275