File: Bakgrunnsmateriale/MATLAB/FTIR/ftir_data/LPE453/Mapping_121/LPE453_t107.asc
PE IR       SPECTRUM    SPECTRUM    ASCII       PEDS        1.60
  -1
LP9F86~1.ASC
17/05/16
23:07:12.00
17/05/16
23:07:39.00
tln
$LPE453_t0107$<tbV0>[-5.2,10.4,8.0,0.0,27,1,0]
27.028
64

2002,4.07
MIRTGS : RIGHTBACK : INTERNAL 2
MIR : ON : INTERNAL 2
OPTKBR

0.200000
8
8.000000
FILLER
RATIO
SPECTRUM
UNLOCKED 256

DOUBLE
64
COMBINED
1
0
0

0.002000
RATIO

1
0
TRUE
51149
0
LEFT NOT FITTED RIGHT NOT FITTED 0
NONE
NONE
15600
12
4.427000
51148
TRUE
1 0 8 72 0 0 0 0

15798

#HDR
-1
-1
#GR
µM
%T
2.38419e-05
0.0
2.000000
0.002000
12515
8
35.959
-8.684990
#DATA
2.000000	 -0.003767
2.084000	 0.009283
2.168000	 1.189188
2.252000	 0.784108
2.336000	 0.136820
2.420000	 0.115915
2.504000	 0.338881
2.588000	 0.071094
2.672000	 0.122039
2.756000	 0.156371
2.840000	 0.074522
2.924000	 0.090130
3.008000	 0.073559
3.092000	 0.036704
3.176000	 0.112194
3.260000	 0.148465
3.344000	 0.025065
3.428000	 0.089088
3.512000	 0.048453
3.596000	 -0.009151
3.680000	 -0.088824
3.764000	 0.069455
3.848000	 -0.012586
3.932000	 0.032561
4.016000	 -0.045318
4.100000	 -0.043495
4.184000	 0.175533
4.268000	 0.213531
4.352000	 0.711306
4.436000	 1.632505
4.520000	 3.779412
4.604000	 7.152156
4.688000	 11.5638
4.772000	 16.1073
4.856000	 20.3553
4.940000	 23.8744
5.024000	 26.9483
5.108000	 28.8524
5.192000	 30.6392
5.276000	 31.7688
5.359999	 32.5254
5.444000	 33.2941
5.528000	 33.5539
5.612000	 33.9647
5.696000	 34.1779
5.780000	 34.1096
5.864000	 34.5742
5.948000	 34.0454
6.032000	 34.9341
6.116000	 34.5448
6.200000	 34.5494
6.284000	 34.9981
6.368000	 34.2756
6.452000	 34.7629
6.536000	 35.0394
6.620000	 34.2737
6.704000	 34.4422
6.788000	 35.0305
6.872000	 34.1814
6.956000	 34.2882
7.040000	 34.9986
7.124000	 34.529
7.208000	 33.9344
7.292000	 34.6293
7.376000	 34.8427
7.460000	 34.3428
7.544000	 34.0105
7.628000	 34.632
7.712000	 34.8458
7.796000	 34.2991
7.880000	 33.7625
7.964000	 34.1118
8.048000	 34.7795
8.132000	 34.7028
8.216000	 34.0225
8.300000	 33.7573
8.384000	 34.2539
8.468000	 34.7376
8.552000	 34.5802
8.635999	 33.8612
8.719999	 33.6448
8.804000	 33.782
8.888000	 34.4378
8.972000	 34.4981
9.056000	 33.99
9.140000	 33.4653
9.224000	 33.2925
9.308000	 33.6206
9.391999	 34.1088
9.475999	 34.2987
9.560000	 33.8524
9.644000	 33.3738
9.728000	 32.9469
9.812000	 33.0939
9.896000	 33.5701
9.980000	 34.1023
10.064	34.0767
10.148	33.6849
10.232	33.2586
10.316	32.6283
10.4	32.6576
10.484	32.9633
10.568	33.5733
10.652	33.6944
10.736	33.7665
10.82	33.4342
10.904	32.7022
10.988	32.2334
11.072	32.2935
11.156	32.3879
11.24	32.5299
11.324	32.7978
11.408	33.0761
11.492	33.1954
11.576	32.7515
11.66	32.2448
11.744	31.6863
11.828	31.4873
11.912	31.6516
11.996	32.0463
12.08	32.1342
12.164	32.36
12.248	32.6849
12.332	32.5514
12.416	32.1518
12.5	31.6702
12.584	31.2235
12.668	31.1334
12.752	31.116
12.836	31.1199
12.92	31.0154
13.004	31.0934
13.088	31.419
13.172	31.7451
13.256	31.6468
13.34	31.3158
13.424	31.2057
13.508	30.8929
13.592	30.454
13.676	30.2268
13.76	29.9377
13.844	29.7229
13.928	29.9172
14.012	30.2079
14.096	30.3344
14.18	30.4403
14.264	30.5871
14.348	30.7596
14.432	30.8802
14.516	30.6886
14.6	30.335
14.684	30.0824
14.768	29.8464
14.852	29.4431
14.936	28.9853
15.02	28.8369
15.104	28.9587
15.188	29.0447
15.272	29.0276
15.356	28.9382
15.44	28.9117
15.524	29.1661
15.608	29.5651
15.692	29.8097
15.776	29.907
15.86	29.8658
15.944	29.6021
16.028	29.2306
16.112	28.8897
16.196	28.5914
16.28	28.3447
16.364	28.1021
16.448	27.8129
16.532	27.5988
16.616	27.6047
16.7	27.7648
16.784	27.9007
16.868	27.9388
16.952	27.9337
17.036	27.9645
17.12	28.0343
17.204	28.0725
17.288	28.0512
17.372	28.0293
17.456	28.0633
17.54	28.1481
17.624	28.234
17.708	28.2271
17.792	28.0171
17.876	27.5897
17.96	27.0843
18.044	26.6766
18.128	26.4374
18.212	26.3313
18.296	26.2961
18.38	26.2803
18.464	26.2491
18.548	26.2088
18.632	26.2041
18.716	26.2799
18.8	26.4327
18.884	26.5806
18.968	26.6097
19.052	26.4711
19.136	26.2326
19.22	26.0292
19.304	25.9588
19.388	26.027
19.472	26.1664
19.556	26.2908
19.64	26.3418
19.724	26.3125
19.808	26.2358
19.892	26.1414
19.976	26.0155
20.06	25.8101
20.144	25.5122
20.228	25.1905
20.312	24.9553
20.396	24.8687
20.48	24.9012
20.564	24.9679
20.648	25.0002
20.732	24.9763
20.816	24.9152
20.9	24.8533
20.984	24.8353
21.068	24.9047
21.152	25.0709
21.236	25.2943
21.32	25.4971
21.404	25.6098
21.488	25.6012
21.572	25.4812
21.656	25.272
21.74	24.9911
21.824	24.6607
21.908	24.3219
21.992	24.0374
22.076	23.8778
22.16	23.8882
22.244	24.0782
22.328	24.4129
22.412	24.8288
22.496	25.2415
22.58	25.5764
22.664	25.7897
22.748	25.8866
22.832	25.9132
22.916	25.9211
23	25.9138
23.084	25.8373
23.168	25.5901
23.252	25.093
23.336	24.3445
23.42	23.4406
23.504	22.5385
23.588	21.7859
23.672	21.2643
23.756	20.9757
23.84	20.8458
23.924	20.7891
24.008	20.7525
24.092	20.7187
24.176	20.6897
24.26	20.6903
24.344	20.744
24.428	20.8635
24.512	21.0782
24.596	21.4184
24.68	21.8895
24.764	22.4481
24.848	22.9935
24.932	23.3963
25.016	23.5773
25.1	23.5704
25.184	23.5384
25.268	23.7444
25.352	24.4851
25.436	25.9604
25.52	28.1475
25.604	30.7913
25.688	33.3904
25.772	35.3036
25.856	35.955
25.94	35.0738
26.024	32.7824
26.108	29.5644
26.192	26.0853
26.276	22.9805
26.36	20.7107
26.444	19.4246
26.528	18.9947
26.612	19.1024
26.696	19.4544
26.78	19.9178
26.864	20.5917
26.948	21.763
27.028	23.6245