File: Bakgrunnsmateriale/MATLAB/FTIR/ftir_data/LPE453/Mapping_121/LPE453_t68.asc
PE IR       SPECTRUM    SPECTRUM    ASCII       PEDS        1.60
  -1
LPEBA9~1.ASC
17/05/16
19:59:41.00
17/05/16
20:00:07.00
tln
$LPE453_t0068$<tbV0>[10.4,2.6,8.0,0.0,27,1,0]
27.028
64

2002,4.07
MIRTGS : RIGHTBACK : INTERNAL 2
MIR : ON : INTERNAL 2
OPTKBR

0.200000
8
8.000000
FILLER
RATIO
SPECTRUM
UNLOCKED 256

DOUBLE
64
COMBINED
1
0
0

0.002000
RATIO

1
0
TRUE
51149
0
LEFT NOT FITTED RIGHT NOT FITTED 0
NONE
NONE
15600
12
4.427000
51148
TRUE
1 0 8 72 0 0 0 0

15798

#HDR
-1
-1
#GR
µM
%T
2.38419e-05
0.0
2.000000
0.002000
12515
8
24.9105
-12.8892
#DATA
2.000000	 0.128793
2.084000	 -0.154527
2.168000	 -0.001863
2.252000	 -0.940782
2.336000	 -0.034404
2.420000	 0.135385
2.504000	 0.074964
2.588000	 -0.090627
2.672000	 0.122858
2.756000	 0.090629
2.840000	 0.060024
2.924000	 0.007749
3.008000	 -0.038015
3.092000	 0.023517
3.176000	 0.014981
3.260000	 0.025708
3.344000	 0.162803
3.428000	 -0.026472
3.512000	 0.073536
3.596000	 0.037400
3.680000	 0.061015
3.764000	 0.045720
3.848000	 0.044494
3.932000	 0.046532
4.016000	 0.065022
4.100000	 0.130952
4.184000	 -0.050033
4.268000	 0.054945
4.352000	 0.047911
4.436000	 0.127354
4.520000	 0.683612
4.604000	 1.855079
4.688000	 4.044850
4.772000	 6.792408
4.856000	 10.1218
4.940000	 13.2105
5.024000	 15.6607
5.108000	 18.1132
5.192000	 19.8826
5.276000	 21.2673
5.359999	 22.1981
5.444000	 22.9897
5.528000	 23.538
5.612000	 23.9596
5.696000	 24.2181
5.780000	 24.3627
5.864000	 24.5918
5.948000	 24.6569
6.032000	 24.7483
6.116000	 24.8959
6.200000	 24.6944
6.284000	 24.8902
6.368000	 24.7494
6.452000	 24.8133
6.536000	 24.6842
6.620000	 24.7582
6.704000	 24.6505
6.788000	 24.6855
6.872000	 24.5258
6.956000	 24.51
7.040000	 24.4738
7.124000	 24.333
7.208000	 24.4084
7.292000	 24.2193
7.376000	 24.2214
7.460000	 24.2118
7.544000	 24.0145
7.628000	 24.1142
7.712000	 24.0883
7.796000	 23.9827
7.880000	 23.9667
7.964000	 24.0114
8.048000	 23.8654
8.132000	 23.7495
8.216000	 23.7615
8.300000	 23.6265
8.384000	 23.6313
8.468000	 23.6841
8.552000	 23.4486
8.635999	 23.4214
8.719999	 23.3467
8.804000	 23.3982
8.888000	 23.3241
8.972000	 22.9299
9.056000	 22.7253
9.140000	 22.7214
9.224000	 22.9167
9.308000	 22.9755
9.391999	 22.757
9.475999	 22.7256
9.560000	 22.536
9.644000	 22.4534
9.728000	 22.4367
9.812000	 22.3973
9.896000	 22.1431
9.980000	 22.0528
10.064	21.7718
10.148	21.8016
10.232	22.0091
10.316	21.9794
10.4	21.724
10.484	21.4611
10.568	21.362
10.652	21.3035
10.736	21.294
10.82	21.1819
10.904	20.9119
10.988	20.8698
11.072	20.7209
11.156	20.7865
11.24	20.6918
11.324	20.5845
11.408	20.3928
11.492	20.3082
11.576	20.276
11.66	20.3041
11.744	20.2654
11.828	20.1498
11.912	20.0402
11.996	19.8748
12.08	19.6968
12.164	19.8313
12.248	19.6821
12.332	19.6402
12.416	19.7586
12.5	19.5659
12.584	19.2346
12.668	18.9128
12.752	18.706
12.836	18.7533
12.92	18.7192
13.004	18.6409
13.088	18.565
13.172	18.3667
13.256	18.1325
13.34	17.9549
13.424	17.9276
13.508	17.9288
13.592	17.8549
13.676	17.9045
13.76	17.93
13.844	17.8477
13.928	17.5945
14.012	17.3558
14.096	17.3512
14.18	17.3306
14.264	17.2127
14.348	17.2363
14.432	17.3509
14.516	17.3751
14.6	17.3451
14.684	17.2075
14.768	16.9835
14.852	16.8806
14.936	16.8138
15.02	16.6036
15.104	16.3716
15.188	16.2153
15.272	16.1
15.356	16.0717
15.44	16.1161
15.524	16.1845
15.608	16.3012
15.692	16.3258
15.776	16.0627
15.86	15.6562
15.944	15.3772
16.028	15.2388
16.112	15.1712
16.196	15.2262
16.28	15.3981
16.364	15.5567
16.448	15.6362
16.532	15.6211
16.616	15.4631
16.7	15.1921
16.784	14.9574
16.868	14.8749
16.952	14.9137
17.036	14.9127
17.12	14.7224
17.204	14.3785
17.288	14.0669
17.372	13.9094
17.456	13.8904
17.54	13.9527
17.624	14.0315
17.708	14.0434
17.792	13.9588
17.876	13.837
17.96	13.7405
18.044	13.6703
18.128	13.6159
18.212	13.6038
18.296	13.6388
18.38	13.6379
18.464	13.5077
18.548	13.2564
18.632	12.9801
18.716	12.7654
18.8	12.6529
18.884	12.6625
18.968	12.8013
19.052	13.0312
19.136	13.2649
19.22	13.4139
19.304	13.4352
19.388	13.3411
19.472	13.1722
19.556	12.9769
19.64	12.8023
19.724	12.6929
19.808	12.6709
19.892	12.7077
19.976	12.7318
20.06	12.6845
20.144	12.5814
20.228	12.5063
20.312	12.5335
20.396	12.6485
20.48	12.746
20.564	12.7122
20.648	12.5097
20.732	12.195
20.816	11.8675
20.9	11.6077
20.984	11.4578
21.068	11.4273
21.152	11.4948
21.236	11.5989
21.32	11.6485
21.404	11.5704
21.488	11.3683
21.572	11.1346
21.656	10.9887
21.74	10.9923
21.824	11.1021
21.908	11.1982
21.992	11.1697
22.076	10.9794
22.16	10.681
22.244	10.3746
22.328	10.1431
22.412	10.0206
22.496	9.996069
22.58	10.043
22.664	10.145
22.748	10.2959
22.832	10.4814
22.916	10.6764
23	10.8202
23.084	10.8663
23.168	10.8088
23.252	10.6944
23.336	10.6132
23.42	10.6322
23.504	10.7646
23.588	10.9598
23.672	11.131
23.756	11.1915
23.84	11.1326
23.924	11.007
24.008	10.9064
24.092	10.9437
24.176	11.2087
24.26	11.807
24.344	12.8339
24.428	14.3083
24.512	16.153
24.596	18.1715
24.68	20.0985
24.764	21.6931
24.848	22.8344
24.932	23.5213
25.016	23.8259
25.1	23.8141
25.184	23.3973
25.268	22.3753
25.352	20.6009
25.436	18.0048
25.52	14.7394
25.604	11.1823
25.688	7.752724
25.772	4.719401
25.856	2.109111
25.94	-0.242064
26.024	-2.546078
26.108	-4.898987
26.192	-7.216693
26.276	-9.296096
26.36	-10.9988
26.444	-12.1902
26.528	-12.7921
26.612	-12.8621
26.696	-12.5654
26.78	-12.157
26.864	-11.8201
26.948	-11.4059
27.028	-10.3092