File: Bakgrunnsmateriale/MATLAB/FTIR/ftir_data/LPE453/Mapping_121/LPE453_t95_cm-1.asc
PE IR       SPECTRUM    SPECTRUM    ASCII       PEDS        1.60
  -1
LPEBDA~1.ASC
17/05/16
22:11:16.00
17/05/16
22:11:16.00
tln
$LPE453_t0095$<tbV0>[-2.6,7.8,8.0,0.0,27,1,0]
370
64

2002,4.07
MIRTGS : RIGHTBACK : INTERNAL 2
MIR : ON : INTERNAL 2
OPTKBR

0.200000
8
8.000000
FILLER
RATIO
SPECTRUM
UNLOCKED 256

DOUBLE
64
COMBINED
1
0
0

1.000000
RATIO

1
0
TRUE
51149
0
LEFT NOT FITTED RIGHT NOT FITTED 0
NONE
NONE
15600
12
4.427000
51148
TRUE
1 0 8 72 0 0 0 0

15798

#HDR
-1
-1
#GR
CM-1
%T
2.38419e-05
0.0
5000
-1.000000
4631
8
37.5821
-2.152156
#DATA
5000	-0.306487
4984	-0.099301
4968	0.305080
4952	0.153827
4936	-0.462722
4920	0.070190
4904	0.138115
4888	-0.106239
4872	0.281429
4856	0.439262
4840	0.275802
4824	0.332856
4808	0.181865
4792	0.366735
4776	-0.190758
4760	0.162148
4744	0.811505
4728	-0.131440
4712	-0.238370
4696	-0.939583
4680	0.057125
4664	0.366306
4648	1.777172
4632	1.408314
4616	1.860690
4600	0.740885
4584	0.355982
4568	-1.070380
4552	-1.455783
4536	-0.461196
4520	-1.006269
4504	17.4952
4488	2.994680
4472	-1.097583
4456	-0.747084
4440	-0.759983
4424	-0.307774
4408	0.419831
4392	0.852060
4376	0.603437
4360	0.461435
4344	0.436758
4328	0.036263
4312	-0.197315
4296	-0.008440
4280	0.066447
4264	0.167512
4248	-0.007295
4232	0.176644
4216	0.325131
4200	0.122976
4184	0.215506
4168	0.478625
4152	0.114321
4136	0.002312
4120	0.018692
4104	0.371098
4088	-0.074505
4072	0.061440
4056	0.188159
4040	0.027561
4024	0.164389
4008	0.184130
3992	0.192761
3976	0.022101
3960	0.304031
3944	0.174665
3928	0.109195
3912	0.073456
3896	0.079298
3880	0.072431
3864	-0.068736
3848	0.086426
3832	0.224256
3816	0.091218
3800	0.014591
3784	0.156474
3768	0.128602
3752	0.055885
3736	0.012063
3720	0.149846
3704	0.071883
3688	0.094604
3672	-0.043630
3656	-0.000500
3640	0.066518
3624	0.055789
3608	0.015687
3592	0.133466
3576	-0.189852
3560	-0.060701
3544	0.087118
3528	0.183892
3512	0.074768
3496	-0.018906
3480	0.131964
3464	-0.021195
3448	0.046038
3432	0.056409
3416	0.028371
3400	0.168704
3384	-0.059700
3368	0.057744
3352	-0.196671
3336	0.142455
3320	-0.025606
3304	0.113654
3288	-0.010514
3272	0.111913
3256	0.146865
3240	0.025272
3224	0.090789
3208	-0.008606
3192	-0.023555
3176	-0.034809
3160	-0.008225
3144	-0.026440
3128	-0.199174
3112	0.181317
3096	-0.051283
3080	0.009489
3064	0.152802
3048	0.060009
3032	0.067949
3016	0.145602
3000	0.050997
2984	0.062608
2968	0.185036
2952	0.078487
2936	0.113701
2920	0.051641
2904	0.128936
2888	0.060844
2872	0.124812
2856	0.080156
2840	0.037527
2824	-0.067543
2808	0.032496
2792	-0.069522
2776	0.046491
2760	0.030946
2744	0.110626
2728	0.033116
2712	0.049638
2696	-0.050091
2680	0.074481
2664	0.041604
2648	0.029110
2632	0.073099
2616	-0.099134
2600	0.164103
2584	0.039458
2568	0.026535
2552	0.012707
2536	-0.003504
2520	0.056886
2504	-0.030422
2488	-0.079107
2472	0.000739
2456	-0.009274
2440	-0.112414
2424	-0.012445
2408	0.139093
2392	0.062966
2376	0.156474
2360	0.152063
2344	0.269603
2328	0.387287
2312	0.689387
2296	0.921344
2280	1.378107
2264	1.920104
2248	2.497792
2232	3.495287
2216	4.491567
2200	5.892729
2184	7.296204
2168	9.155678
2152	11.1961
2136	13.1716
2120	15.3987
2104	17.5159
2088	19.6217
2072	21.5917
2056	23.4676
2040	25.3623
2024	27.0122
2008	28.2643
1992	29.6566
1976	30.9452
1960	31.6597
1944	32.5711
1928	33.4916
1912	34.0417
1896	34.4089
1880	35.0209
1864	35.641
1848	35.7997
1832	35.8044
1816	36.4378
1800	36.6268
1784	36.5053
1768	36.5622
1752	37.0946
1736	36.9945
1720	36.9042
1704	36.9637
1688	37.4238
1672	37.084
1656	36.8919
1640	37.2414
1624	37.5564
1608	37.1003
1592	36.8412
1576	37.2623
1560	37.4042
1544	36.9548
1528	36.9717
1512	37.5821
1496	37.2355
1480	36.832
1464	36.9242
1448	37.4178
1432	36.9937
1416	36.601
1400	36.9509
1384	37.2702
1368	36.6721
1352	36.3497
1336	36.9986
1320	37.2052
1304	36.4835
1288	36.2357
1272	36.8732
1256	36.9234
1240	36.0517
1224	36.0508
1208	36.6784
1192	36.5533
1176	35.7622
1160	35.8832
1144	36.5025
1128	36.0614
1112	35.4583
1096	35.6929
1080	36.1773
1064	35.6067
1048	34.9942
1032	35.5062
1016	35.8756
1000	35.0825
984	 34.5232
968	 35.1126
952	 35.4357
936	 34.4098
920	 33.9013
904	 34.5992
888	 34.7428
872	 33.6728
856	 33.2103
840	 33.9046
824	 33.6643
808	 32.563
792	 32.5888
776	 32.9163
760	 32.8278
744	 31.6952
728	 31.3509
712	 32.102
696	 31.5191
680	 30.2408
664	 30.0962
648	 30.8206
632	 30.0925
616	 28.915
600	 28.8335
584	 29.5549
568	 28.5643
552	 26.9392
536	 27.595
520	 27.9491
504	 26.4494
488	 25.5727
472	 26.4011
456	 25.7061
440	 24.987
424	 22.8319
408	 26.8008
392	 20.3537
376	 8.508682
370	 12.469