File: Bakgrunnsmateriale/MATLAB/FTIR/ftir_data/LPE453/Mapping_121/LPE453_t121.asc
PE IR       SPECTRUM    SPECTRUM    ASCII       PEDS        1.60
  -1
LP9772~1.ASC
17/05/17
00:32:26.00
17/05/17
00:32:53.00
tln
$LPE453_t0121$<tbV0>[-13.0,13.0,8.0,0.0,27,1,0]
27.028
64

2002,4.07
MIRTGS : RIGHTBACK : INTERNAL 2
MIR : ON : INTERNAL 2
OPTKBR

0.200000
8
8.000000
FILLER
RATIO
SPECTRUM
UNLOCKED 256

DOUBLE
64
COMBINED
1
0
0

0.002000
RATIO

1
0
TRUE
51149
0
LEFT NOT FITTED RIGHT NOT FITTED 0
NONE
NONE
15600
12
4.427000
51148
TRUE
1 0 8 72 0 0 0 0

15798

#HDR
-1
-1
#GR
µM
%T
2.38419e-05
0.0
2.000000
0.002000
12515
8
34.0253
-4.918360
#DATA
2.000000	 0.035285
2.084000	 0.494540
2.168000	 0.528395
2.252000	 -1.079771
2.336000	 0.251672
2.420000	 0.007189
2.504000	 0.244527
2.588000	 0.141596
2.672000	 0.047585
2.756000	 0.086961
2.840000	 0.155135
2.924000	 0.083671
3.008000	 0.041258
3.092000	 0.036808
3.176000	 -0.054933
3.260000	 -0.096488
3.344000	 0.026966
3.428000	 0.027452
3.512000	 -0.048830
3.596000	 0.052502
3.680000	 0.075593
3.764000	 0.069541
3.848000	 -0.011072
3.932000	 0.047149
4.016000	 0.024499
4.100000	 -0.044293
4.184000	 -0.017505
4.268000	 0.183050
4.352000	 0.543851
4.436000	 1.279046
4.520000	 3.022471
4.604000	 5.807141
4.688000	 9.506597
4.772000	 13.7808
4.856000	 17.8746
4.940000	 21.3715
5.024000	 24.2943
5.108000	 26.3146
5.192000	 28.0999
5.276000	 29.2511
5.359999	 30.2829
5.444000	 30.9237
5.528000	 31.4837
5.612000	 31.8603
5.696000	 32.1871
5.780000	 32.3409
5.864000	 32.5605
5.948000	 32.7727
6.032000	 32.9561
6.116000	 33.0592
6.200000	 33.0145
6.284000	 33.2748
6.368000	 33.212
6.452000	 33.2725
6.536000	 33.5506
6.620000	 33.4027
6.704000	 33.3748
6.788000	 33.5712
6.872000	 33.4403
6.956000	 33.4753
7.040000	 33.6828
7.124000	 33.6077
7.208000	 33.6184
7.292000	 33.8027
7.376000	 33.724
7.460000	 33.6063
7.544000	 33.7451
7.628000	 33.8465
7.712000	 33.7738
7.796000	 33.676
7.880000	 33.7663
7.964000	 34.0204
8.048000	 33.9136
8.132000	 33.7954
8.216000	 33.8864
8.300000	 33.9175
8.384000	 33.9816
8.468000	 33.9049
8.552000	 33.7306
8.635999	 33.7651
8.719999	 33.8224
8.804000	 33.8024
8.888000	 33.7857
8.972000	 33.3388
9.056000	 33.2188
9.140000	 33.331
9.224000	 33.4533
9.308000	 33.4682
9.391999	 33.343
9.475999	 33.198
9.560000	 32.95
9.644000	 33.0924
9.728000	 33.2381
9.812000	 33.2224
9.896000	 32.8985
9.980000	 32.6512
10.064	32.6104
10.148	32.5188
10.232	32.6068
10.316	32.3865
10.4	32.3997
10.484	32.3424
10.568	32.2216
10.652	31.8874
10.736	31.7269
10.82	31.7665
10.904	31.6905
10.988	31.5639
11.072	31.6024
11.156	31.5762
11.24	31.2883
11.324	30.8598
11.408	30.7773
11.492	30.7129
11.576	30.5814
11.66	30.6695
11.744	30.6678
11.828	30.6786
11.912	30.543
11.996	30.3762
12.08	30.1651
12.164	29.8298
12.248	29.5832
12.332	29.5033
12.416	29.7686
12.5	29.7968
12.584	29.6282
12.668	29.3589
12.752	29.273
12.836	29.3029
12.92	29.2198
13.004	28.9815
13.088	28.6413
13.172	28.4425
13.256	28.405
13.34	28.3319
13.424	28.4088
13.508	28.4171
13.592	28.3842
13.676	28.3943
13.76	28.3288
13.844	28.0818
13.928	27.8312
14.012	27.7306
14.096	27.543
14.18	27.359
14.264	27.1806
14.348	27.0123
14.432	27.0271
14.516	27.103
14.6	27.1324
14.684	27.0704
14.768	26.9654
14.852	26.9358
14.936	26.9718
15.02	27.011
15.104	26.9694
15.188	26.8266
15.272	26.5678
15.356	26.1887
15.44	25.8964
15.524	25.8343
15.608	25.8367
15.692	25.717
15.776	25.4853
15.86	25.3384
15.944	25.4211
16.028	25.635
16.112	25.8106
16.196	25.8653
16.28	25.7935
16.364	25.6684
16.448	25.5549
16.532	25.423
16.616	25.2344
16.7	25.0072
16.784	24.7699
16.868	24.5552
16.952	24.4054
17.036	24.3781
17.12	24.5369
17.204	24.8367
17.288	25.0721
17.372	25.077
17.456	24.9162
17.54	24.7539
17.624	24.6453
17.708	24.5806
17.792	24.598
17.876	24.6961
17.96	24.7398
18.044	24.6064
18.128	24.3705
18.212	24.2251
18.296	24.2464
18.38	24.3174
18.464	24.297
18.548	24.1817
18.632	24.0626
18.716	23.9728
18.8	23.8387
18.884	23.5862
18.968	23.2528
19.052	22.9746
19.136	22.8598
19.22	22.8942
19.304	22.954
19.388	22.9218
19.472	22.7779
19.556	22.602
19.64	22.483
19.724	22.4417
19.808	22.4353
19.892	22.4294
19.976	22.441
20.06	22.5161
20.144	22.6751
20.228	22.8944
20.312	23.1294
20.396	23.3349
20.48	23.4547
20.564	23.4184
20.648	23.1775
20.732	22.7549
20.816	22.2416
20.9	21.7563
20.984	21.3881
21.068	21.1692
21.152	21.0799
21.236	21.0628
21.32	21.0445
21.404	20.9595
21.488	20.7827
21.572	20.5411
21.656	20.2971
21.74	20.1169
21.824	20.0491
21.908	20.1161
21.992	20.3135
22.076	20.6047
22.16	20.9146
22.244	21.1486
22.328	21.2333
22.412	21.1445
22.496	20.9302
22.58	20.6781
22.664	20.4712
22.748	20.3546
22.832	20.33
22.916	20.3753
23	20.484
23.084	20.657
23.168	20.8837
23.252	21.1198
23.336	21.2777
23.42	21.2602
23.504	21.0099
23.588	20.559
23.672	20.0199
23.756	19.5443
23.84	19.2591
23.924	19.2151
24.008	19.3702
24.092	19.6084
24.176	19.789
24.26	19.7882
24.344	19.5095
24.428	18.9101
24.512	18.0055
24.596	16.8706
24.68	15.6556
24.764	14.573
24.848	13.8085
24.932	13.4953
25.016	13.6426
25.1	14.0978
25.184	14.5981
25.268	14.8832
25.352	14.7841
25.436	14.3178
25.52	13.6704
25.604	13.0792
25.688	12.7985
25.772	12.9748
25.856	13.5779
25.94	14.3829
26.024	15.0797
26.108	15.4349
26.192	15.3415
26.276	14.8067
26.36	13.9489
26.444	12.827
26.528	11.3861
26.612	9.610365
26.696	7.428422
26.78	4.705332
26.864	1.499928
26.948	-1.911826
27.028	-4.918360