File: Bakgrunnsmateriale/MATLAB/FTIR/ftir_data/LPE453/Mapping_121/LPE453_t109.asc
PE IR       SPECTRUM    SPECTRUM    ASCII       PEDS        1.60
  -1
LP9796~1.ASC
17/05/16
23:16:25.00
17/05/16
23:16:51.00
tln
$LPE453_t0109$<tbV0>[-10.4,10.4,8.0,0.0,27,1,0]
27.028
64

2002,4.07
MIRTGS : RIGHTBACK : INTERNAL 2
MIR : ON : INTERNAL 2
OPTKBR

0.200000
8
8.000000
FILLER
RATIO
SPECTRUM
UNLOCKED 256

DOUBLE
64
COMBINED
1
0
0

0.002000
RATIO

1
0
TRUE
51149
0
LEFT NOT FITTED RIGHT NOT FITTED 0
NONE
NONE
15600
12
4.427000
51148
TRUE
1 0 8 72 0 0 0 0

15798

#HDR
-1
-1
#GR
µM
%T
2.38419e-05
0.0
2.000000
0.002000
12515
8
27.9026
-4.461801
#DATA
2.000000	 0.004339
2.084000	 0.188962
2.168000	 0.905298
2.252000	 -1.182225
2.336000	 -0.010083
2.420000	 0.253958
2.504000	 0.024681
2.588000	 0.131792
2.672000	 0.028505
2.756000	 0.026557
2.840000	 0.102754
2.924000	 0.069158
3.008000	 0.147010
3.092000	 0.028662
3.176000	 -0.026803
3.260000	 0.108017
3.344000	 0.106305
3.428000	 0.008197
3.512000	 0.065598
3.596000	 -0.015128
3.680000	 0.033848
3.764000	 -0.048991
3.848000	 0.007884
3.932000	 -0.023234
4.016000	 0.131772
4.100000	 0.073159
4.184000	 -0.080685
4.268000	 0.276620
4.352000	 0.523560
4.436000	 1.198645
4.520000	 2.588583
4.604000	 4.774496
4.688000	 7.790294
4.772000	 10.8427
4.856000	 13.7621
4.940000	 16.1311
5.024000	 18.3827
5.108000	 19.6117
5.192000	 20.9339
5.276000	 21.5414
5.359999	 22.4128
5.444000	 22.6329
5.528000	 23.2122
5.612000	 23.0153
5.696000	 23.7066
5.780000	 23.2131
5.864000	 23.7252
5.948000	 23.4717
6.032000	 23.4537
6.116000	 23.8601
6.200000	 23.2864
6.284000	 23.7204
6.368000	 23.8522
6.452000	 23.265
6.536000	 23.637
6.620000	 23.9212
6.704000	 23.1716
6.788000	 23.5549
6.872000	 23.954
6.956000	 23.4847
7.040000	 23.1782
7.124000	 23.6376
7.208000	 23.6879
7.292000	 23.1777
7.376000	 23.28
7.460000	 23.7492
7.544000	 23.7276
7.628000	 23.25
7.712000	 23.1627
7.796000	 23.6221
7.880000	 23.8495
7.964000	 23.3415
8.048000	 23.1021
8.132000	 23.4286
8.216000	 23.8366
8.300000	 23.9338
8.384000	 23.3803
8.468000	 23.1272
8.552000	 23.2349
8.635999	 23.7985
8.719999	 24.0181
8.804000	 23.6683
8.888000	 23.2051
8.972000	 23.056
9.056000	 23.5374
9.140000	 23.9159
9.224000	 24.1197
9.308000	 23.6403
9.391999	 23.3673
9.475999	 23.3581
9.560000	 23.5481
9.644000	 23.9662
9.728000	 24.2618
9.812000	 24.1467
9.896000	 23.9445
9.980000	 23.598
10.064	23.4451
10.148	23.4508
10.232	23.7965
10.316	24.1904
10.4	24.1626
10.484	24.0618
10.568	23.6778
10.652	23.5063
10.736	23.2845
10.82	23.3588
10.904	23.5896
10.988	24.0968
11.072	24.2875
11.156	24.0804
11.24	23.9993
11.324	23.527
11.408	23.3495
11.492	23.16
11.576	23.2686
11.66	23.4826
11.744	23.7045
11.828	24.0534
11.912	24.2045
11.996	24.2348
12.08	23.9996
12.164	23.7284
12.248	23.5566
12.332	23.2792
12.416	23.1462
12.5	23.2235
12.584	23.5217
12.668	23.8943
12.752	24.0581
12.836	24.0679
12.92	24.0621
13.004	24.0049
13.088	23.8861
13.172	23.6951
13.256	23.4868
13.34	23.2987
13.424	23.0821
13.508	23.0619
13.592	23.2497
13.676	23.5323
13.76	23.6308
13.844	23.6696
13.928	23.7991
14.012	23.9029
14.096	23.9492
14.18	23.8491
14.264	23.5303
14.348	23.1745
14.432	22.9289
14.516	22.8262
14.6	22.8169
14.684	22.8552
14.768	23.0614
14.852	23.267
14.936	23.2298
15.02	23.2739
15.104	23.5801
15.188	23.7224
15.272	23.6135
15.356	23.5939
15.44	23.6529
15.524	23.6366
15.608	23.6021
15.692	23.4924
15.776	23.1849
15.86	22.8104
15.944	22.5304
16.028	22.3637
16.112	22.3452
16.196	22.4745
16.28	22.6249
16.364	22.7226
16.448	22.8341
16.532	23.0135
16.616	23.2213
16.7	23.4068
16.784	23.5559
16.868	23.6311
16.952	23.589
17.036	23.4761
17.12	23.4113
17.204	23.4253
17.288	23.3905
17.372	23.1769
17.456	22.8342
17.54	22.5432
17.624	22.4174
17.708	22.4232
17.792	22.4686
17.876	22.4826
17.96	22.4289
18.044	22.3295
18.128	22.2839
18.212	22.3912
18.296	22.6378
18.38	22.897
18.464	23.0335
18.548	23.0034
18.632	22.8621
18.716	22.7199
18.8	22.6717
18.884	22.7313
18.968	22.8265
19.052	22.8646
19.136	22.8037
19.22	22.6775
19.304	22.5768
19.388	22.5838
19.472	22.692
19.556	22.7859
19.64	22.7289
19.724	22.4887
19.808	22.1739
19.892	21.9233
19.976	21.7832
20.06	21.6878
20.144	21.5678
20.228	21.442
20.312	21.3985
20.396	21.4875
20.48	21.6598
20.564	21.813
20.648	21.8975
20.732	21.9694
20.816	22.1411
20.9	22.4743
20.984	22.922
21.068	23.3575
21.152	23.6575
21.236	23.7637
21.32	23.6889
21.404	23.476
21.488	23.1633
21.572	22.793
21.656	22.4276
21.74	22.1521
21.824	22.0381
21.908	22.0938
21.992	22.251
22.076	22.3974
22.16	22.4327
22.244	22.3238
22.328	22.0788
22.412	21.715
22.496	21.2337
22.58	20.6506
22.664	20.0388
22.748	19.541
22.832	19.3054
22.916	19.423
23	19.8555
23.084	20.4857
23.168	21.1636
23.252	21.774
23.336	22.2427
23.42	22.5147
23.504	22.5129
23.588	22.1578
23.672	21.4203
23.756	20.3807
23.84	19.2585
23.924	18.3299
24.008	17.8079
24.092	17.7661
24.176	18.1256
24.26	18.7313
24.344	19.472
24.428	20.3524
24.512	21.4384
24.596	22.7707
24.68	24.2678
24.764	25.6896
24.848	26.6972
24.932	26.9897
25.016	26.4671
25.1	25.2586
25.184	23.5773
25.268	21.5923
25.352	19.3769
25.436	16.9102
25.52	14.181
25.604	11.2975
25.688	8.480734
25.772	6.074641
25.856	4.489041
25.94	4.120158
26.024	5.250923
26.108	7.886891
26.192	11.7019
26.276	16.0015
26.36	19.7801
26.444	21.9853
26.528	21.8751
26.612	19.2195
26.696	14.4813
26.78	8.756612
26.864	3.491395
26.948	0.031782
27.028	-0.828671