File: Bakgrunnsmateriale/MATLAB/FTIR/ftir_data/LPE453/Mapping_121/LPE453_t13_cm-1.asc
PE IR       SPECTRUM    SPECTRUM    ASCII       PEDS        1.60
  -1
LPD7D0~1.ASC
17/05/16
15:24:00.00
17/05/16
15:24:00.00
tln
$LPE453_t0013$<tbV0>[10.4,-10.4,8.0,0.0,27,1,0]
370
64

2002,4.07
MIRTGS : RIGHTBACK : INTERNAL 2
MIR : ON : INTERNAL 2
OPTKBR

0.200000
8
8.000000
FILLER
RATIO
SPECTRUM
UNLOCKED 256

DOUBLE
64
COMBINED
1
0
0

1.000000
RATIO

1
0
TRUE
51149
0
LEFT NOT FITTED RIGHT NOT FITTED 0
NONE
NONE
15600
12
4.427000
51148
TRUE
1 0 8 72 0 0 0 0

15798

#HDR
-1
-1
#GR
CM-1
%T
2.38419e-05
0.0
5000
-1.000000
4631
8
41.0327
-19.7958
#DATA
5000	-0.148987
4984	0.088548
4968	0.540304
4952	0.367069
4936	-0.002431
4920	0.013661
4904	-0.297403
4888	0.079727
4872	0.256228
4856	0.206112
4840	0.310707
4824	0.098943
4808	0.465750
4792	0.059199
4776	0.069355
4760	0.298881
4744	-0.043272
4728	0.381278
4712	-0.034189
4696	0.267219
4680	0.577116
4664	0.341439
4648	0.437068
4632	0.421476
4616	0.982928
4600	0.201869
4584	-0.469684
4568	-0.834035
4552	-1.378154
4536	-0.627684
4520	12.119
4504	-0.735020
4488	0.084781
4472	-0.838398
4456	-0.645542
4440	-0.294518
4424	-0.083208
4408	0.341343
4392	0.768756
4376	0.892090
4360	0.204205
4344	0.290799
4328	0.254034
4312	0.259518
4296	0.187277
4280	-0.080585
4264	-0.122499
4248	-0.161838
4232	-0.018763
4216	-0.013136
4200	0.360608
4184	0.632715
4168	0.246119
4152	0.109457
4136	0.103187
4120	0.154304
4104	0.099849
4088	0.130295
4072	0.025749
4056	0.057411
4040	0.118446
4024	0.081157
4008	0.105166
3992	0.078177
3976	0.198459
3960	0.065255
3944	0.225496
3928	-0.040006
3912	0.133204
3896	0.124907
3880	0.200033
3864	-0.162076
3848	-0.109434
3832	0.283145
3816	0.110769
3800	0.009894
3784	-0.020861
3768	0.207638
3752	0.179362
3736	0.200581
3720	0.126552
3704	0.108408
3688	0.110006
3672	0.113201
3656	-0.019884
3640	0.005340
3624	-0.022244
3608	-0.016689
3592	-0.103950
3576	0.080513
3560	0.143766
3544	0.125551
3528	0.029230
3512	0.069355
3496	0.016951
3480	-0.019454
3464	-0.008320
3448	0.092554
3432	-0.126075
3416	0.067543
3400	-0.019192
3384	0.113821
3368	0.053048
3352	-0.130176
3336	0.038647
3320	-0.014281
3304	0.184798
3288	0.022959
3272	0.037360
3256	0.092363
3240	0.069761
3224	0.144410
3208	0.026750
3192	0.060606
3176	-0.011730
3160	0.063753
3144	0.036859
3128	0.130128
3112	0.082397
3096	-0.017666
3080	0.076699
3064	0.071763
3048	0.093364
3032	-0.039196
3016	-0.014376
3000	0.047802
2984	0.122332
2968	0.079417
2952	0.007963
2936	0.190997
2920	0.140380
2904	-0.113439
2888	0.058245
2872	0.104975
2856	0.123596
2840	0.228357
2824	0.024485
2808	-0.006008
2792	0.104808
2776	-0.011754
2760	-0.032830
2744	0.009202
2728	0.040221
2712	-0.081777
2696	0.072431
2680	0.070285
2664	0.173020
2648	0.116729
2632	0.034952
2616	0.071096
2600	0.053262
2584	0.026893
2568	-0.023770
2552	0.076341
2536	0.018095
2520	-0.007343
2504	0.064611
2488	0.166559
2472	-0.016331
2456	-0.031089
2440	0.024628
2424	0.119686
2408	-0.076746
2392	0.009322
2376	-0.125598
2360	0.052523
2344	0.099205
2328	0.205039
2312	0.249958
2296	0.317287
2280	0.274038
2264	0.598073
2248	0.851488
2232	1.276111
2216	1.908802
2200	2.710843
2184	3.562951
2168	4.981899
2152	6.106305
2136	7.593798
2120	9.431886
2104	11.1384
2088	12.9503
2072	14.6164
2056	16.4958
2040	18.1948
2024	19.933
2008	21.2093
1992	22.7251
1976	23.9267
1960	24.9333
1944	26.0851
1928	26.8892
1912	27.5298
1896	28.3314
1880	28.9696
1864	29.3155
1848	30.0143
1832	30.3236
1816	30.5588
1800	31.0647
1784	31.3581
1768	31.4087
1752	31.6207
1736	31.8587
1720	31.7799
1704	32.2004
1688	32.2272
1672	31.9501
1656	32.3112
1640	32.4231
1624	32.1618
1608	32.0115
1592	32.4291
1576	32.2358
1560	32.3408
1544	32.6631
1528	32.3701
1512	32.0318
1496	32.1838
1480	32.1979
1464	31.8208
1448	32.1537
1432	32.1485
1416	31.7298
1400	31.8339
1384	31.9669
1368	31.6018
1352	31.4639
1336	31.9612
1320	31.5289
1304	31.2043
1288	31.7462
1272	31.4262
1256	30.9486
1240	31.362
1224	31.4608
1208	30.9872
1192	31.1288
1176	31.2041
1160	30.8722
1144	30.7414
1128	31.1497
1112	30.6575
1096	30.2994
1080	30.8283
1064	30.4601
1048	29.9362
1032	30.4262
1016	30.7223
1000	29.79
984	 29.8673
968	 30.1507
952	 29.5161
936	 29.2051
920	 29.6077
904	 29.3032
888	 28.4334
872	 29.1262
856	 28.7048
840	 27.7941
824	 27.9673
808	 28.1927
792	 27.3541
776	 27.3204
760	 27.5825
744	 26.7822
728	 26.5339
712	 26.7816
696	 25.8734
680	 25.1509
664	 25.6589
648	 25.3659
632	 24.18
616	 24.4943
600	 24.2984
584	 23.3514
568	 23.0638
552	 23.174
536	 21.6396
520	 21.3359
504	 22.8706
488	 20.4104
472	 19.8575
456	 19.1022
440	 19.3454
424	 14.4469
408	 23.8175
392	 38.5507
376	 -1.154422
370	 -19.7958