File: Bakgrunnsmateriale/MATLAB/FTIR/ftir_data/LPE453/Mapping_121/LPE453_t74_cm-1.asc
PE IR       SPECTRUM    SPECTRUM    ASCII       PEDS        1.60
  -1
LPEA5B~1.ASC
17/05/16
20:27:21.00
17/05/16
20:27:21.00
tln
$LPE453_t0074$<tbV0>[-5.2,2.6,8.0,0.0,27,1,0]
370
64

2002,4.07
MIRTGS : RIGHTBACK : INTERNAL 2
MIR : ON : INTERNAL 2
OPTKBR

0.200000
8
8.000000
FILLER
RATIO
SPECTRUM
UNLOCKED 256

DOUBLE
64
COMBINED
1
0
0

1.000000
RATIO

1
0
TRUE
51149
0
LEFT NOT FITTED RIGHT NOT FITTED 0
NONE
NONE
15600
12
4.427000
51148
TRUE
1 0 8 72 0 0 0 0

15798

#HDR
-1
-1
#GR
CM-1
%T
2.38419e-05
0.0
5000
-1.000000
4631
8
41.6514
-3.650784
#DATA
5000	-0.005245
4984	-0.100326
4968	-0.324463
4952	0.533461
4936	0.213599
4920	0.210762
4904	-0.044965
4888	0.099086
4872	0.013613
4856	0.207662
4840	-0.131225
4824	-0.146579
4808	0.273942
4792	0.010919
4776	0.774431
4760	-0.050354
4744	0.414347
4728	1.368069
4712	-0.103092
4696	-0.374245
4680	1.198887
4664	1.454806
4648	1.779532
4632	0.094294
4616	0.709486
4600	0.009536
4584	-0.746607
4568	-1.532578
4552	-2.216148
4536	-1.619505
4520	-1.820254
4504	-1.306891
4488	41.2571
4472	-3.500509
4456	-1.260828
4440	-1.024341
4424	-0.289487
4408	0.453996
4392	1.250004
4376	1.209926
4360	1.264715
4344	0.588226
4328	0.608134
4312	0.475358
4296	0.270700
4280	0.637030
4264	-0.191211
4248	-0.097298
4232	0.697731
4216	0.074172
4200	-0.163221
4184	0.449299
4168	0.160741
4152	0.074839
4136	0.501370
4120	0.347948
4104	0.026059
4088	0.094819
4072	0.041294
4056	0.208234
4040	0.210857
4024	0.027561
4008	0.073981
3992	0.144624
3976	-0.014853
3960	0.071763
3944	0.150823
3928	0.003933
3912	0.265622
3896	0.167346
3880	0.273489
3864	-0.144672
3848	-0.000500
3832	0.013732
3816	0.119948
3800	0.023031
3784	0.005197
3768	0.035452
3752	0.062203
3736	0.016283
3720	-0.096392
3704	0.057268
3688	0.190854
3672	0.110483
3656	0.027036
3640	0.120258
3624	0.011849
3608	-0.069403
3592	0.009751
3576	0.048637
3560	0.218558
3544	-0.009155
3528	-0.018382
3512	0.127005
3496	0.167202
3480	0.097250
3464	-0.060677
3448	-0.058197
3432	-0.041651
3416	0.083851
3400	0.017809
3384	0.024342
3368	-0.064134
3352	0.078153
3336	0.016093
3320	0.090432
3304	-0.024294
3288	0.181317
3272	0.079607
3256	-0.016188
3240	0.311088
3224	0.136208
3208	-0.168299
3192	0.056910
3176	0.099158
3160	-0.009489
3144	-0.018978
3128	0.252342
3112	0.128364
3096	-0.117278
3080	-0.003433
3064	0.102663
3048	0.106596
3032	0.153875
3016	0.019907
3000	0.002813
2984	0.129461
2968	0.126123
2952	-0.071883
2936	0.132775
2920	0.126838
2904	0.154209
2888	0.097799
2872	0.068378
2856	0.122427
2840	0.041627
2824	0.065612
2808	0.131869
2792	0.020027
2776	0.035667
2760	0.163650
2744	0.046944
2728	0.034713
2712	-0.029063
2696	0.022268
2680	0.084662
2664	0.125861
2648	0.003838
2632	0.163316
2616	0.104856
2600	0.092029
2584	0.105667
2568	0.099325
2552	0.008559
2536	0.101828
2520	0.065708
2504	-0.147318
2488	-0.005054
2472	0.091433
2456	0.040507
2440	0.062966
2424	-0.031447
2408	-0.133514
2392	0.155615
2376	0.047111
2360	0.121235
2344	0.147557
2328	0.218319
2312	0.417375
2296	0.555944
2280	0.800633
2264	1.062870
2248	1.487803
2232	2.216315
2216	3.076577
2200	4.165220
2184	5.508160
2168	6.935000
2152	8.625268
2136	10.5991
2120	12.5835
2104	14.492
2088	16.6067
2072	18.5521
2056	20.4232
2040	22.2237
2024	23.9039
2008	25.2914
1992	26.6794
1976	27.8014
1960	28.6691
1944	29.6431
1928	30.4855
1912	31.1073
1896	31.709
1880	32.1915
1864	32.6088
1848	33.0124
1832	33.3811
1816	33.4642
1800	33.8657
1784	33.9836
1768	34.1227
1752	34.27
1736	34.3063
1720	34.2013
1704	34.3496
1688	34.4433
1672	34.3918
1656	34.4952
1640	34.6317
1624	34.4389
1608	34.2288
1592	34.5536
1576	34.4199
1560	34.2817
1544	34.4362
1528	34.5116
1512	34.2742
1496	34.2418
1480	34.3465
1464	34.0149
1448	33.9355
1432	34.2882
1416	34.1508
1400	33.7868
1384	34.0063
1368	34.0545
1352	33.6216
1336	33.747
1320	33.9539
1304	33.5021
1288	33.3579
1272	33.824
1256	33.6095
1240	33.2179
1224	33.4116
1208	33.5301
1192	32.992
1176	33.1021
1160	33.3846
1144	32.7267
1128	32.6179
1112	32.8662
1096	32.6974
1080	32.0462
1064	32.5513
1048	32.5252
1032	31.8468
1016	32.0346
1000	32.3141
984	 31.6804
968	 31.3819
952	 31.7436
936	 31.5524
920	 30.6348
904	 30.9328
888	 30.8599
872	 30.233
856	 30.1069
840	 30.2818
824	 29.9025
808	 29.0686
792	 29.4243
776	 29.2906
760	 28.1964
744	 28.1434
728	 28.3461
712	 27.5732
696	 26.9026
680	 27.2153
664	 27.2532
648	 25.7854
632	 25.7146
616	 25.5668
600	 24.8765
584	 24.2971
568	 24.2385
552	 23.5898
536	 23.6205
520	 23.9361
504	 22.9614
488	 22.2715
472	 21.4208
456	 21.7732
440	 21.057
424	 19.6775
408	 26.3935
392	 18.026
376	 38.2593
370	 41.5278