File: Bakgrunnsmateriale/MATLAB/FTIR/ftir_data/LPE453/Mapping_121/LPE453_t80_cm-1.asc
PE IR       SPECTRUM    SPECTRUM    ASCII       PEDS        1.60
  -1
LP5B55~1.ASC
17/05/16
20:55:38.00
17/05/16
20:55:38.00
tln
$LPE453_t0080$<tbV0>[7.8,5.2,8.0,0.0,27,1,0]
370
64

2002,4.07
MIRTGS : RIGHTBACK : INTERNAL 2
MIR : ON : INTERNAL 2
OPTKBR

0.200000
8
8.000000
FILLER
RATIO
SPECTRUM
UNLOCKED 256

DOUBLE
64
COMBINED
1
0
0

1.000000
RATIO

1
0
TRUE
51149
0
LEFT NOT FITTED RIGHT NOT FITTED 0
NONE
NONE
15600
12
4.427000
51148
TRUE
1 0 8 72 0 0 0 0

15798

#HDR
-1
-1
#GR
CM-1
%T
2.38419e-05
0.0
5000
-1.000000
4631
8
31.2418
-11.2108
#DATA
5000	0.062441
4984	0.406980
4968	0.034809
4952	-0.372743
4936	-0.199198
4920	0.055027
4904	0.003695
4888	0.284171
4872	0.544071
4856	-0.225806
4840	0.461649
4824	0.494670
4808	0.099182
4792	-0.018239
4776	0.395607
4760	-0.274109
4744	-0.233793
4728	-0.320672
4712	0.091481
4696	0.619316
4680	0.079560
4664	1.192402
4648	0.753855
4632	1.652288
4616	-0.102138
4600	0.524759
4584	-0.380063
4568	0.020980
4552	1.301980
4536	-0.839900
4520	-0.580215
4504	-0.729799
4488	4.398584
4472	0.447368
4456	0.112223
4440	0.563764
4424	0.408363
4408	0.521564
4392	0.338697
4376	-0.009870
4360	0.194740
4344	-0.117206
4328	-0.071382
4312	0.261807
4296	0.127434
4280	0.154185
4264	-0.090670
4248	-0.084352
4232	-0.401139
4216	-0.154113
4200	0.236129
4184	0.549554
4168	-0.044727
4152	-0.116395
4136	0.258541
4120	0.147604
4104	0.260329
4088	0.235462
4072	-0.028681
4056	-0.131177
4040	0.168347
4024	0.206923
4008	-0.039196
3992	0.222134
3976	0.179290
3960	0.171422
3944	-0.070762
3928	0.165867
3912	0.067520
3896	0.109601
3880	0.065469
3864	0.044393
3848	0.017642
3832	-0.014662
3816	0.028085
3800	0.020265
3784	0.167202
3768	-0.002551
3752	-0.016212
3736	-0.017452
3720	0.046586
3704	-0.029301
3688	0.014996
3672	0.083279
3656	0.043559
3640	-0.026631
3624	0.025820
3608	-0.031661
3592	0.149035
3576	0.208497
3560	0.107622
3544	0.250506
3528	0.001597
3512	0.120210
3496	0.120377
3480	0.032114
3464	0.039434
3448	0.086760
3432	0.146055
3416	-0.038123
3400	-0.006031
3384	0.229454
3368	0.028204
3352	0.065612
3336	-0.009059
3320	0.036287
3304	0.105476
3288	0.133895
3272	-0.039982
3256	-0.019478
3240	0.234675
3224	-0.022554
3208	-0.092482
3192	0.155925
3176	0.098586
3160	0.081467
3144	0.197958
3128	0.076842
3112	-0.069546
3096	-0.154662
3080	0.108742
3064	0.097775
3048	0.071310
3032	0.104832
3016	-0.052952
3000	0.072002
2984	-0.071454
2968	0.097131
2952	-0.059938
2936	0.008130
2920	-0.019860
2904	0.177168
2888	0.054764
2872	0.099706
2856	0.049018
2840	0.036287
2824	0.001931
2808	0.046277
2792	-0.091481
2776	-0.056123
2760	0.144028
2744	0.044155
2728	0.051116
2712	0.050354
2696	-0.039815
2680	0.012922
2664	0.090575
2648	0.120472
2632	-0.109982
2616	-0.006079
2600	0.059342
2584	0.072431
2568	0.003027
2552	0.084829
2536	-0.066518
2520	0.091314
2504	0.013232
2488	0.115919
2472	0.083923
2456	0.174236
2440	-0.065660
2424	-0.005888
2408	0.015401
2392	0.031375
2376	-0.006675
2360	-0.003528
2344	0.134181
2328	0.069260
2312	0.060701
2296	0.152611
2280	0.338649
2264	0.420308
2248	0.760173
2232	1.074266
2216	1.554226
2200	2.264046
2184	3.190231
2168	4.275798
2152	5.663275
2136	7.241582
2120	8.746433
2104	10.601
2088	12.2964
2072	14.205
2056	15.8232
2040	17.7494
2024	19.3098
2008	20.8758
1992	22.1917
1976	23.4476
1960	24.4931
1944	25.4657
1928	26.3436
1912	27.1208
1896	27.804
1880	28.3572
1864	28.7835
1848	29.2902
1832	29.5447
1816	29.7911
1800	30.3131
1784	30.3811
1768	30.4644
1752	30.5785
1736	30.7244
1720	30.806
1704	30.9503
1688	30.8975
1672	30.9985
1656	31.1191
1640	31.0835
1624	31.0024
1608	31.2273
1592	31.0879
1576	31.0234
1560	31.0673
1544	31.0258
1528	30.9347
1512	30.9461
1496	30.9679
1480	30.8528
1464	30.8147
1448	30.6408
1432	30.7072
1416	30.7931
1400	30.6386
1384	30.655
1368	30.6716
1352	30.3948
1336	30.4505
1320	30.3199
1304	30.2303
1288	30.253
1272	30.1638
1256	30.0703
1240	29.96
1224	29.9591
1208	29.7725
1192	29.8355
1176	29.7108
1160	29.5738
1144	29.4052
1128	29.3042
1112	29.3115
1096	29.2692
1080	28.9666
1064	28.8878
1048	28.9003
1032	28.6642
1016	28.3402
1000	28.3789
984	 28.2307
968	 27.9044
952	 27.8787
936	 27.4479
920	 27.3587
904	 27.2741
888	 26.6676
872	 26.6635
856	 26.6799
840	 26.2282
824	 25.9749
808	 25.5566
792	 25.6753
776	 25.1489
760	 25.0461
744	 24.5581
728	 24.1235
712	 24.1044
696	 23.4556
680	 23.2652
664	 23.4175
648	 22.7146
632	 22.3109
616	 21.8069
600	 21.3301
584	 21.0003
568	 20.6961
552	 19.5681
536	 19.5064
520	 19.3448
504	 19.0596
488	 17.5794
472	 17.886
456	 17.8071
440	 16.0017
424	 13.4145
408	 13.9943
392	 11.3792
376	 -3.230595
370	 -11.2108