File: Bakgrunnsmateriale/MATLAB/FTIR/ftir_data/LPE453/Mapping_121/LPE453_t32.asc
PE IR       SPECTRUM    SPECTRUM    ASCII       PEDS        1.60
  -1
LPCF91~1.ASC
17/05/16
16:58:46.00
17/05/16
16:59:12.00
tln
$LPE453_t0032$<tbV0>[-10.4,-7.8,8.0,0.0,27,1,0]
27.028
64

2002,4.07
MIRTGS : RIGHTBACK : INTERNAL 2
MIR : ON : INTERNAL 2
OPTKBR

0.200000
8
8.000000
FILLER
RATIO
SPECTRUM
UNLOCKED 256

DOUBLE
64
COMBINED
1
0
0

0.002000
RATIO

1
0
TRUE
51149
0
LEFT NOT FITTED RIGHT NOT FITTED 0
NONE
NONE
15600
12
4.427000
51148
TRUE
1 0 8 72 0 0 0 0

15798

#HDR
-1
-1
#GR
µM
%T
2.38419e-05
0.0
2.000000
0.002000
12515
8
50.2147
-0.955621
#DATA
2.000000	 -0.107073
2.084000	 0.000085
2.168000	 0.305206
2.252000	 0.087427
2.336000	 0.266405
2.420000	 0.254551
2.504000	 0.013340
2.588000	 0.005372
2.672000	 0.072035
2.756000	 0.158638
2.840000	 0.178813
2.924000	 0.144967
3.008000	 -0.043603
3.092000	 0.094008
3.176000	 -0.052508
3.260000	 -0.056485
3.344000	 -0.028379
3.428000	 0.192019
3.512000	 0.098412
3.596000	 -0.118346
3.680000	 0.098545
3.764000	 0.008356
3.848000	 0.118271
3.932000	 -0.085056
4.016000	 0.144807
4.100000	 0.049324
4.184000	 -0.036555
4.268000	 0.109054
4.352000	 0.481871
4.436000	 1.443085
4.520000	 3.067900
4.604000	 5.949318
4.688000	 9.978467
4.772000	 14.3202
4.856000	 18.4895
4.940000	 21.857
5.024000	 24.6642
5.108000	 26.699
5.192000	 28.3098
5.276000	 29.5158
5.359999	 30.416
5.444000	 30.9912
5.528000	 31.3587
5.612000	 31.5602
5.696000	 31.7699
5.780000	 31.8211
5.864000	 31.9953
5.948000	 32.0978
6.032000	 32.3261
6.116000	 32.286
6.200000	 32.2207
6.284000	 32.2621
6.368000	 32.1784
6.452000	 32.2634
6.536000	 32.3669
6.620000	 32.2617
6.704000	 32.1446
6.788000	 32.1376
6.872000	 32.1103
6.956000	 32.2039
7.040000	 32.0139
7.124000	 32.0298
7.208000	 32.0632
7.292000	 32.1398
7.376000	 32.0616
7.460000	 32.0431
7.544000	 32.0099
7.628000	 32.1741
7.712000	 31.9369
7.796000	 31.9251
7.880000	 31.8914
7.964000	 31.9784
8.048000	 31.9551
8.132000	 31.9032
8.216000	 31.7792
8.300000	 32.0538
8.384000	 31.9888
8.468000	 31.8242
8.552000	 31.682
8.635999	 31.7028
8.719999	 31.8853
8.804000	 32.0063
8.888000	 31.8986
8.972000	 31.4905
9.056000	 31.2666
9.140000	 31.7744
9.224000	 31.84
9.308000	 31.7536
9.391999	 31.5349
9.475999	 31.4104
9.560000	 31.4606
9.644000	 31.4543
9.728000	 31.8001
9.812000	 31.9219
9.896000	 31.4763
9.980000	 31.0719
10.064	31.0252
10.148	31.1031
10.232	31.3308
10.316	31.5519
10.4	31.4949
10.484	31.2589
10.568	30.9178
10.652	30.8047
10.736	30.7347
10.82	31.0012
10.904	31.1019
10.988	31.2301
11.072	31.2371
11.156	31.0186
11.24	30.7383
11.324	30.415
11.408	30.2193
11.492	30.2372
11.576	30.467
11.66	30.6202
11.744	30.6414
11.828	30.8323
11.912	30.637
11.996	30.4638
12.08	30.2832
12.164	30.0469
12.248	29.8745
12.332	29.7473
12.416	29.8703
12.5	30.2247
12.584	30.3733
12.668	30.3269
12.752	30.2399
12.836	30.2287
12.92	30.0483
13.004	29.7657
13.088	29.681
13.172	29.6084
13.256	29.1681
13.34	29.1015
13.424	29.1513
13.508	29.2324
13.592	29.8087
13.676	29.9842
13.76	29.8986
13.844	29.851
13.928	29.7358
14.012	29.4459
14.096	29.0018
14.18	28.7857
14.264	28.7648
14.348	28.8176
14.432	28.8998
14.516	28.9289
14.6	28.9676
14.684	29.0717
14.768	29.1242
14.852	28.9647
14.936	28.7994
15.02	28.8111
15.104	28.7318
15.188	28.5004
15.272	28.3709
15.356	28.2816
15.44	28.0911
15.524	27.9003
15.608	27.7944
15.692	27.8875
15.776	28.2017
15.86	28.3973
15.944	28.2792
16.028	28.095
16.112	28.0677
16.196	28.1749
16.28	28.2698
16.364	28.1649
16.448	27.7983
16.532	27.3471
16.616	27.0762
16.7	27.0605
16.784	27.1132
16.868	27.0424
16.952	26.8382
17.036	26.6021
17.12	26.4373
17.204	26.4172
17.288	26.5434
17.372	26.7481
17.456	26.9637
17.54	27.1438
17.624	27.2387
17.708	27.2142
17.792	27.0823
17.876	26.9028
17.96	26.7499
18.044	26.6734
18.128	26.649
18.212	26.5784
18.296	26.4023
18.38	26.2226
18.464	26.1993
18.548	26.3213
18.632	26.3746
18.716	26.1898
18.8	25.8431
18.884	25.5524
18.968	25.4446
19.052	25.4597
19.136	25.4456
19.22	25.2979
19.304	25.049
19.388	24.8416
19.472	24.8086
19.556	24.9603
19.64	25.191
19.724	25.4021
19.808	25.5829
19.892	25.764
19.976	25.9321
20.06	26.0248
20.144	26.0059
20.228	25.9
20.312	25.7513
20.396	25.562
20.48	25.3002
20.564	24.9605
20.648	24.5935
20.732	24.2869
20.816	24.1147
20.9	24.1045
20.984	24.2355
21.068	24.443
21.152	24.6237
21.236	24.6644
21.32	24.4893
21.404	24.0998
21.488	23.5718
21.572	23.0234
21.656	22.5872
21.74	22.3786
21.824	22.4591
21.908	22.7965
21.992	23.2661
22.076	23.7047
22.16	23.9864
22.244	24.1054
22.328	24.1491
22.412	24.2251
22.496	24.3747
22.58	24.5619
22.664	24.724
22.748	24.8062
22.832	24.7798
22.916	24.6473
23	24.4167
23.084	24.1089
23.168	23.7556
23.252	23.3793
23.336	22.9807
23.42	22.5312
23.504	21.9864
23.588	21.3264
23.672	20.577
23.756	19.7947
23.84	19.0176
23.924	18.2654
24.008	17.5652
24.092	17.0013
24.176	16.7467
24.26	16.9985
24.344	17.8893
24.428	19.3683
24.512	21.137
24.596	22.7908
24.68	23.9228
24.764	24.2552
24.848	23.7615
24.932	22.6658
25.016	21.3307
25.1	20.0133
25.184	18.9761
25.268	18.4104
25.352	18.3459
25.436	18.8288
25.52	19.9214
25.604	21.6384
25.688	23.8644
25.772	26.2925
25.856	28.5095
25.94	30.1609
26.024	31.1486
26.108	31.7449
26.192	32.4306
26.276	33.71
26.36	35.8664
26.444	39.0327
26.528	42.9544
26.612	46.9931
26.696	49.8023
26.78	49.6009
26.864	44.5633
26.948	33.5374
27.028	17.6825