File: Bakgrunnsmateriale/MATLAB/FTIR/ftir_data/LPE453/Mapping_121/LPE453_t52.asc
PE IR       SPECTRUM    SPECTRUM    ASCII       PEDS        1.60
  -1
LPC7A1~1.ASC
17/05/16
18:38:33.00
17/05/16
18:38:59.00
tln
$LPE453_t0052$<tbV0>[-5.2,-2.6,8.0,0.0,27,1,0]
27.028
64

2002,4.07
MIRTGS : RIGHTBACK : INTERNAL 2
MIR : ON : INTERNAL 2
OPTKBR

0.200000
8
8.000000
FILLER
RATIO
SPECTRUM
UNLOCKED 256

DOUBLE
64
COMBINED
1
0
0

0.002000
RATIO

1
0
TRUE
51149
0
LEFT NOT FITTED RIGHT NOT FITTED 0
NONE
NONE
15600
12
4.427000
51148
TRUE
1 0 8 72 0 0 0 0

15798

#HDR
-1
-1
#GR
µM
%T
2.38419e-05
0.0
2.000000
0.002000
12515
8
36.2874
-2.423099
#DATA
2.000000	 0.098371
2.084000	 0.025087
2.168000	 1.291183
2.252000	 -0.528487
2.336000	 0.087270
2.420000	 0.186875
2.504000	 0.130823
2.588000	 -0.054604
2.672000	 0.085487
2.756000	 0.170112
2.840000	 0.074531
2.924000	 0.061419
3.008000	 0.114615
3.092000	 0.205073
3.176000	 0.040758
3.260000	 0.009318
3.344000	 0.110662
3.428000	 -0.033400
3.512000	 -0.013447
3.596000	 0.003765
3.680000	 0.133112
3.764000	 0.122678
3.848000	 -0.015147
3.932000	 0.005767
4.016000	 -0.079933
4.100000	 0.154849
4.184000	 0.033103
4.268000	 0.048758
4.352000	 0.237226
4.436000	 0.762840
4.520000	 2.268502
4.604000	 4.867836
4.688000	 8.721812
4.772000	 13.0276
4.856000	 17.3767
4.940000	 21.25
5.024000	 24.305
5.108000	 26.6203
5.192000	 28.4442
5.276000	 29.5596
5.359999	 30.6747
5.444000	 31.2036
5.528000	 31.7348
5.612000	 32.2197
5.696000	 32.2542
5.780000	 32.6243
5.864000	 32.7101
5.948000	 32.8665
6.032000	 32.6273
6.116000	 32.9042
6.200000	 32.6994
6.284000	 32.9171
6.368000	 32.7233
6.452000	 32.7508
6.536000	 32.8229
6.620000	 32.528
6.704000	 32.6347
6.788000	 32.5463
6.872000	 32.3592
6.956000	 32.7632
7.040000	 32.2932
7.124000	 32.3873
7.208000	 32.525
7.292000	 32.1449
7.376000	 32.1588
7.460000	 32.3926
7.544000	 32.1419
7.628000	 31.9693
7.712000	 32.2224
7.796000	 32.2112
7.880000	 31.8464
7.964000	 31.876
8.048000	 32.094
8.132000	 31.8705
8.216000	 31.6203
8.300000	 31.6379
8.384000	 31.7663
8.468000	 31.8056
8.552000	 31.2928
8.635999	 31.2386
8.719999	 31.5571
8.804000	 31.7676
8.888000	 31.352
8.972000	 30.8534
9.056000	 30.7703
9.140000	 31.4298
9.224000	 31.3084
9.308000	 30.7949
9.391999	 30.6696
9.475999	 30.8385
9.560000	 31.0341
9.644000	 31.0543
9.728000	 30.5989
9.812000	 30.2742
9.896000	 30.2239
9.980000	 30.2445
10.064	30.7234
10.148	30.6046
10.232	30.2306
10.316	29.8035
10.4	29.5352
10.484	29.7578
10.568	30.1023
10.652	30.0344
10.736	29.8776
10.82	29.7191
10.904	29.3991
10.988	29.01
11.072	29.0849
11.156	29.3476
11.24	29.4016
11.324	29.404
11.408	28.9672
11.492	28.5815
11.576	28.4522
11.66	28.3464
11.744	28.4391
11.828	28.7147
11.912	28.7947
11.996	28.571
12.08	28.3012
12.164	27.9939
12.248	27.7054
12.332	27.5421
12.416	27.6318
12.5	27.748
12.584	27.8352
12.668	27.9374
12.752	27.7572
12.836	27.5313
12.92	27.1769
13.004	26.9347
13.088	26.681
13.172	26.4992
13.256	26.6077
13.34	26.7079
13.424	26.8626
13.508	26.9689
13.592	26.87
13.676	26.7508
13.76	26.6869
13.844	26.4686
13.928	26.1845
14.012	25.9951
14.096	25.87
14.18	25.855
14.264	25.8645
14.348	25.8859
14.432	25.9537
14.516	25.968
14.6	25.987
14.684	25.976
14.768	25.7303
14.852	25.3497
14.936	24.9339
15.02	24.5251
15.104	24.3203
15.188	24.2589
15.272	24.2303
15.356	24.3724
15.44	24.7025
15.524	25.0176
15.608	25.0811
15.692	24.8857
15.776	24.6692
15.86	24.5435
15.944	24.4375
16.028	24.2801
16.112	24.0319
16.196	23.7159
16.28	23.4711
16.364	23.4326
16.448	23.522
16.532	23.5603
16.616	23.5544
16.7	23.6112
16.784	23.7017
16.868	23.7569
16.952	23.7701
17.036	23.719
17.12	23.5654
17.204	23.3211
17.288	23.0456
17.372	22.8081
17.456	22.6607
17.54	22.591
17.624	22.5164
17.708	22.3705
17.792	22.1758
17.876	21.9971
17.96	21.848
18.044	21.7206
18.128	21.6757
18.212	21.7799
18.296	21.9449
18.38	21.9627
18.464	21.7591
18.548	21.5142
18.632	21.45
18.716	21.5802
18.8	21.7354
18.884	21.7701
18.968	21.6579
19.052	21.4321
19.136	21.127
19.22	20.8039
19.304	20.5625
19.388	20.4851
19.472	20.5742
19.556	20.7513
19.64	20.9062
19.724	20.9465
19.808	20.8344
19.892	20.612
19.976	20.4012
20.06	20.3415
20.144	20.4888
20.228	20.7692
20.312	21.0302
20.396	21.1557
20.48	21.1376
20.564	21.0451
20.648	20.9454
20.732	20.8592
20.816	20.7813
20.9	20.7144
20.984	20.6623
21.068	20.5922
21.152	20.4344
21.236	20.1393
21.32	19.7386
21.404	19.3472
21.488	19.0763
21.572	18.9395
21.656	18.84
21.74	18.6486
21.824	18.3185
21.908	17.9377
21.992	17.6505
22.076	17.5409
22.16	17.5753
22.244	17.6408
22.328	17.6437
22.412	17.5689
22.496	17.4764
22.58	17.44
22.664	17.5018
22.748	17.6504
22.832	17.8378
22.916	18.0135
23	18.1453
23.084	18.2312
23.168	18.296
23.252	18.3786
23.336	18.5175
23.42	18.6981
23.504	18.8465
23.588	18.8632
23.672	18.6716
23.756	18.2472
23.84	17.6458
23.924	17.0056
24.008	16.4854
24.092	16.2057
24.176	16.2258
24.26	16.4948
24.344	16.8775
24.428	17.2308
24.512	17.4317
24.596	17.4736
24.68	17.5073
24.764	17.7859
24.848	18.5049
24.932	19.6435
25.016	20.8866
25.1	21.7279
25.184	21.6152
25.268	20.2745
25.352	17.8757
25.436	15.0718
25.52	12.7532
25.604	11.6669
25.688	12.2565
25.772	14.4628
25.856	17.8017
25.94	21.6533
26.024	25.4487
26.108	28.8198
26.192	31.6392
26.276	33.8801
26.36	35.4843
26.444	36.2579
26.528	35.9478
26.612	34.3407
26.696	31.5614
26.78	28.2329
26.864	25.3318
26.948	23.8277
27.028	24.2181