File: Bakgrunnsmateriale/MATLAB/FTIR/ftir_data/LPE453/Mapping_121/LPE453_t70_cm-1.asc
PE IR       SPECTRUM    SPECTRUM    ASCII       PEDS        1.60
  -1
LPDA55~1.ASC
17/05/16
20:08:54.00
17/05/16
20:08:54.00
tln
$LPE453_t0070$<tbV0>[5.2,2.6,8.0,0.0,27,1,0]
370
64

2002,4.07
MIRTGS : RIGHTBACK : INTERNAL 2
MIR : ON : INTERNAL 2
OPTKBR

0.200000
8
8.000000
FILLER
RATIO
SPECTRUM
UNLOCKED 256

DOUBLE
64
COMBINED
1
0
0

1.000000
RATIO

1
0
TRUE
51149
0
LEFT NOT FITTED RIGHT NOT FITTED 0
NONE
NONE
15600
12
4.427000
51148
TRUE
1 0 8 72 0 0 0 0

15798

#HDR
-1
-1
#GR
CM-1
%T
2.38419e-05
0.0
5000
-1.000000
4631
8
28.9252
-36.4863
#DATA
5000	0.253367
4984	0.074791
4968	-0.247502
4952	0.176239
4936	-0.108051
4920	0.281500
4904	0.115299
4888	0.244164
4872	0.325345
4856	0.355792
4840	-0.035476
4824	0.141572
4808	-0.208449
4792	-0.090599
4776	0.197410
4760	0.038027
4744	0.517630
4728	0.822424
4712	0.278210
4696	-0.886607
4680	2.460527
4664	0.044775
4648	-0.469112
4632	1.431298
4616	0.839519
4600	0.789427
4584	0.642347
4568	0.065994
4552	-0.147199
4536	-0.334262
4520	1.342892
4504	-0.303697
4488	5.023837
4472	0.852274
4456	0.254368
4440	-0.326848
4424	0.065135
4408	0.344705
4392	-0.256180
4376	-0.128722
4360	0.039362
4344	0.307655
4328	0.048065
4312	-0.016665
4296	0.433683
4280	0.042629
4264	0.210237
4248	0.297832
4232	0.440859
4216	0.210022
4200	0.582432
4184	0.306224
4168	0.026178
4152	0.055122
4136	0.101137
4120	-0.072550
4104	0.255393
4088	0.021934
4072	0.179481
4056	0.321245
4040	0.079989
4024	-0.072574
4008	0.064468
3992	0.304865
3976	-0.110459
3960	0.214195
3944	-0.353980
3928	0.014781
3912	0.059628
3896	0.105094
3880	0.012159
3864	0.042033
3848	0.009751
3832	-0.052046
3816	0.200152
3800	0.048375
3784	0.081205
3768	0.033879
3752	0.072574
3736	-0.093674
3720	-0.005483
3704	0.124120
3688	-0.015473
3672	-0.106739
3656	0.024247
3640	0.065541
3624	0.074195
3608	0.034141
3592	0.139880
3576	0.103807
3560	-0.145888
3544	0.142216
3528	0.092458
3512	0.075888
3496	-0.004982
3480	-0.026679
3464	0.272941
3448	0.094413
3432	0.053644
3416	0.041604
3400	-0.029826
3384	-0.017714
3368	0.086164
3352	0.068807
3336	0.045013
3320	0.058722
3304	0.097417
3288	0.075340
3272	0.016427
3256	0.009489
3240	0.056719
3224	0.004506
3208	-0.032281
3192	0.153732
3176	0.066804
3160	0.117135
3144	-0.060606
3128	-0.013399
3112	-0.114321
3096	0.040531
3080	0.111055
3064	0.022029
3048	-0.020408
3032	0.032830
3016	-0.045561
3000	0.054788
2984	0.017046
2968	0.194787
2952	0.011491
2936	0.090122
2920	0.168919
2904	-0.002431
2888	0.062608
2872	0.130939
2856	0.076723
2840	0.028562
2824	0.061821
2808	0.113129
2792	-0.006246
2776	-0.012159
2760	0.040745
2744	0.013041
2728	0.084066
2712	-0.057578
2696	-0.091123
2680	0.021386
2664	0.027537
2648	-0.079369
2632	0.057172
2616	0.026130
2600	0.086855
2584	0.010538
2568	0.045442
2552	0.006175
2536	0.041818
2520	-0.006484
2504	0.132131
2488	0.164866
2472	0.060367
2456	0.042653
2440	-0.007104
2424	0.244474
2408	0.007891
2392	0.000286
2376	0.064945
2360	-0.002074
2344	0.068330
2328	-0.064444
2312	0.079131
2296	0.110340
2280	0.191497
2264	0.315022
2248	0.584530
2232	0.726437
2216	1.237630
2200	1.926231
2184	2.703022
2168	3.656482
2152	4.918646
2136	6.269884
2120	7.780694
2104	9.530043
2088	11.0691
2072	13.0754
2056	14.4981
2040	16.201
2024	17.7313
2008	19.1609
1992	20.3944
1976	21.5351
1960	22.6709
1944	23.5564
1928	24.4488
1912	25.0752
1896	25.7343
1880	26.2454
1864	26.7555
1848	27.0889
1832	27.4222
1816	27.7474
1800	27.8684
1784	28.1103
1768	28.3261
1752	28.3772
1736	28.4491
1720	28.5788
1704	28.6845
1688	28.7624
1672	28.6893
1656	28.9052
1640	28.8177
1624	28.8393
1608	28.7494
1592	28.7865
1576	28.77
1560	28.8244
1544	28.7663
1528	28.6127
1512	28.636
1496	28.5369
1480	28.5339
1464	28.328
1448	28.505
1432	28.2976
1416	28.2437
1400	28.1453
1384	28.1443
1368	28.0812
1352	28.3223
1336	28.0061
1320	27.9546
1304	27.9339
1288	27.6261
1272	27.8013
1256	27.7481
1240	27.4907
1224	27.5359
1208	27.4323
1192	27.3447
1176	27.3381
1160	27.0981
1144	26.885
1128	27.1602
1112	26.8324
1096	26.6624
1080	26.7694
1064	26.4899
1048	26.2863
1032	26.2456
1016	26.1064
1000	25.6613
984	 25.7606
968	 25.5403
952	 25.2221
936	 25.12
920	 24.8851
904	 24.7512
888	 24.2852
872	 24.1746
856	 24.199
840	 23.6139
824	 23.5439
808	 23.3999
792	 22.9466
776	 22.4262
760	 22.2171
744	 21.5865
728	 21.3773
712	 21.5571
696	 20.8756
680	 20.4598
664	 20.3189
648	 19.5254
632	 19.2467
616	 18.6513
600	 18.9493
584	 18.2043
568	 17.366
552	 17.3394
536	 16.9822
520	 16.8237
504	 16.4673
488	 15.1437
472	 14.9143
456	 12.8277
440	 13.0013
424	 10.462
408	 9.610819
392	 -3.603219
376	 8.689904
370	 -36.4863