File: Bakgrunnsmateriale/MATLAB/FTIR/ftir_data/LPE453/Mapping_121/LPE453_t77_cm-1.asc
PE IR       SPECTRUM    SPECTRUM    ASCII       PEDS        1.60
  -1
LPEADB~1.ASC
17/05/16
20:41:11.00
17/05/16
20:41:11.00
tln
$LPE453_t0077$<tbV0>[-13.0,2.6,8.0,0.0,27,1,0]
370
64

2002,4.07
MIRTGS : RIGHTBACK : INTERNAL 2
MIR : ON : INTERNAL 2
OPTKBR

0.200000
8
8.000000
FILLER
RATIO
SPECTRUM
UNLOCKED 256

DOUBLE
64
COMBINED
1
0
0

1.000000
RATIO

1
0
TRUE
51149
0
LEFT NOT FITTED RIGHT NOT FITTED 0
NONE
NONE
15600
12
4.427000
51148
TRUE
1 0 8 72 0 0 0 0

15798

#HDR
-1
-1
#GR
CM-1
%T
2.38419e-05
0.0
5000
-1.000000
4631
8
32.0808
-10.7704
#DATA
5000	0.234031
4984	0.182795
4968	0.461864
4952	0.076293
4936	0.180339
4920	0.203728
4904	0.038433
4888	0.320625
4872	0.478148
4856	0.072312
4840	0.101184
4824	0.211501
4808	0.369858
4792	0.393605
4776	-0.093793
4760	-0.042486
4744	0.015759
4728	0.365281
4712	0.523281
4696	0.097966
4680	0.136995
4664	-0.259017
4648	0.507521
4632	2.316761
4616	0.841856
4600	-0.209617
4584	-0.135183
4568	0.819849
4552	0.899505
4536	0.049567
4520	-0.137734
4504	-0.131845
4488	-3.753066
4472	1.234483
4456	-0.439739
4440	-0.131869
4424	-0.275039
4408	0.134825
4392	0.150942
4376	0.789356
4360	0.345873
4344	0.121474
4328	0.247263
4312	0.193548
4296	-0.281333
4280	-0.065255
4264	-0.037193
4248	0.310420
4232	0.028109
4216	-0.006031
4200	-0.153422
4184	0.350928
4168	0.613975
4152	-0.049710
4136	0.157737
4120	0.073218
4104	0.066661
4088	-0.118970
4072	0.176668
4056	0.122928
4040	-0.122046
4024	0.257587
4008	-0.221180
3992	0.080418
3976	0.223445
3960	0.149917
3944	-0.066757
3928	0.087404
3912	0.232124
3896	0.044441
3880	-0.064754
3864	0.114798
3848	0.058507
3832	0.013589
3816	0.123310
3800	-0.030636
3784	-0.106453
3768	0.146579
3752	0.132918
3736	0.017356
3720	0.189709
3704	0.024676
3688	0.122261
3672	0.060129
3656	0.181627
3640	0.035691
3624	0.045156
3608	0.149130
3592	-0.061774
3576	0.002837
3560	-0.117349
3544	-0.022745
3528	0.044870
3512	0.160479
3496	0.012063
3480	-0.055170
3464	-0.130844
3448	0.075197
3432	0.127196
3416	-0.009679
3400	0.021147
3384	0.016689
3368	0.231027
3352	-0.040888
3336	0.120258
3320	0.069117
3304	0.037360
3288	-0.054526
3272	-0.085687
3256	0.221085
3240	0.039696
3224	0.044250
3208	-0.135040
3192	0.032091
3176	0.038099
3160	0.059032
3144	0.056385
3128	0.234341
3112	-0.099539
3096	0.043892
3080	0.037169
3064	-0.040793
3048	0.159430
3032	-0.066876
3016	0.094461
3000	0.056219
2984	0.131630
2968	-0.027418
2952	0.048875
2936	-0.060057
2920	0.046896
2904	0.085282
2888	0.061678
2872	0.113534
2856	-0.065112
2840	0.125980
2824	0.006794
2808	0.123095
2792	-0.012350
2776	-0.004315
2760	0.062203
2744	0.114130
2728	0.070118
2712	0.057983
2696	0.001478
2680	0.043249
2664	0.017619
2648	0.054478
2632	0.082826
2616	0.073337
2600	0.037026
2584	0.092935
2568	-0.093555
2552	0.015878
2536	0.062513
2520	-0.003170
2504	0.141096
2488	0.067949
2472	-0.006985
2456	-0.014591
2440	0.017452
2424	-0.044894
2408	-0.182056
2392	-0.006961
2376	0.111484
2360	0.003075
2344	0.036692
2328	0.054621
2312	0.071001
2296	0.229954
2280	0.346589
2264	0.570869
2248	0.867080
2232	1.318717
2216	1.790118
2200	2.485370
2184	3.418445
2168	4.495573
2152	5.755662
2136	7.241129
2120	8.852219
2104	10.5067
2088	12.1113
2072	13.7923
2056	15.5369
2040	17.2993
2024	18.7611
2008	20.2065
1992	21.496
1976	22.6592
1960	23.8052
1944	24.7427
1928	25.6271
1912	26.5089
1896	27.1606
1880	27.6951
1864	28.1806
1848	28.7096
1832	29.1641
1816	29.5337
1800	29.8635
1784	30.1924
1768	30.3883
1752	30.5956
1736	30.8201
1720	30.9321
1704	31.1576
1688	31.3797
1672	31.4097
1656	31.4917
1640	31.6044
1624	31.6774
1608	31.7232
1592	31.7872
1576	31.7879
1560	31.8044
1544	31.9257
1528	31.9475
1512	31.9704
1496	31.9725
1480	32.0634
1464	31.7796
1448	31.8178
1432	31.972
1416	31.8369
1400	31.7916
1384	31.9122
1368	31.5495
1352	31.7249
1336	31.7621
1320	31.6931
1304	31.6475
1288	31.6051
1272	31.5449
1256	31.3911
1240	31.4461
1224	31.3885
1208	31.2034
1192	31.1374
1176	31.1299
1160	30.8558
1144	30.7138
1128	30.8004
1112	30.5897
1096	30.4598
1080	30.1479
1064	30.0177
1048	29.8425
1032	29.7153
1016	29.5803
1000	29.2506
984	 29.1199
968	 28.9248
952	 28.7019
936	 28.4567
920	 28.1962
904	 27.9341
888	 27.8163
872	 27.4262
856	 27.2552
840	 26.8764
824	 26.5359
808	 26.4733
792	 26.3165
776	 25.4236
760	 25.2256
744	 25.4222
728	 24.6435
712	 24.2846
696	 23.9523
680	 23.8554
664	 23.3973
648	 23.418
632	 23.2736
616	 22.3792
600	 22.5901
584	 21.9625
568	 21.6643
552	 21.0726
536	 21.1269
520	 20.5879
504	 19.3697
488	 19.7623
472	 17.903
456	 18.7915
440	 18.2549
424	 19.7626
408	 13.4564
392	 1.804590
376	 -2.810406
370	 -10.7704