File: Bakgrunnsmateriale/MATLAB/FTIR/ftir_data/LPE453/Mapping_121/LPE453_t120_cm-1.asc
PE IR       SPECTRUM    SPECTRUM    ASCII       PEDS        1.60
  -1
LP0377~1.ASC
17/05/17
00:27:50.00
17/05/17
00:27:50.00
tln
$LPE453_t0120$<tbV0>[-10.4,13.0,8.0,0.0,27,1,0]
370
64

2002,4.07
MIRTGS : RIGHTBACK : INTERNAL 2
MIR : ON : INTERNAL 2
OPTKBR

0.200000
8
8.000000
FILLER
RATIO
SPECTRUM
UNLOCKED 256

DOUBLE
64
COMBINED
1
0
0

1.000000
RATIO

1
0
TRUE
51149
0
LEFT NOT FITTED RIGHT NOT FITTED 0
NONE
NONE
15600
12
4.427000
51148
TRUE
1 0 8 72 0 0 0 0

15798

#HDR
-1
-1
#GR
CM-1
%T
2.38419e-05
0.0
5000
-1.000000
4631
8
35.4139
-27.547
#DATA
5000	0.173974
4984	0.490713
4968	0.047278
4952	0.113201
4936	0.214385
4920	0.012016
4904	0.485467
4888	-0.000405
4872	-0.141572
4856	0.277280
4840	0.147819
4824	0.397586
4808	0.241541
4792	0.516557
4776	-0.056385
4760	-0.227093
4744	-0.301527
4728	0.356364
4712	0.277328
4696	-0.123786
4680	-0.758957
4664	-0.373387
4648	0.495195
4632	1.736640
4616	0.550699
4600	0.604891
4584	-0.288796
4568	0.081229
4552	-0.087046
4536	-0.190782
4520	-0.629234
4504	1.280093
4488	10.0607
4472	-0.542116
4456	0.691318
4440	-0.532722
4424	-0.108098
4408	-0.221824
4392	0.524878
4376	0.371623
4360	-0.034856
4344	0.561428
4328	-0.085353
4312	0.093173
4296	-0.144934
4280	-0.109815
4264	-0.135564
4248	0.033473
4232	0.213265
4216	0.262618
4200	0.103449
4184	-0.076866
4168	-0.407147
4152	0.269651
4136	0.204968
4120	0.098109
4104	0.202107
4088	0.106096
4072	0.087881
4056	0.278210
4040	-0.023889
4024	0.066542
4008	0.174045
3992	0.057125
3976	0.114941
3960	0.069355
3944	0.124287
3928	0.099301
3912	0.037360
3896	-0.086903
3880	0.205421
3864	0.097680
3848	0.109219
3832	0.247383
3816	0.166249
3800	0.044703
3784	0.183892
3768	-0.048017
3752	0.075387
3736	0.160908
3720	-0.028967
3704	0.231790
3688	-0.079345
3672	0.087165
3656	0.076293
3640	0.073671
3624	0.090765
3608	-0.077700
3592	0.091743
3576	0.056505
3560	0.267601
3544	0.041103
3528	0.035309
3512	0.248599
3496	0.089716
3480	0.093412
3464	-0.101709
3448	0.077819
3432	-0.016570
3416	0.009322
3400	0.012850
3384	-0.036382
3368	0.042676
3352	0.080466
3336	0.015830
3320	-0.007939
3304	-0.032258
3288	0.080370
3272	0.034332
3256	0.064444
3240	0.028848
3224	-0.022864
3208	0.075292
3192	0.043058
3176	0.035953
3160	0.022268
3144	0.001335
3128	-0.054121
3112	0.113916
3096	0.054812
3080	0.082492
3064	0.091552
3048	0.000381
3032	-0.030159
3016	0.057601
3000	-0.159811
2984	-0.010752
2968	0.023627
2952	-0.026845
2936	-0.011777
2920	-0.008273
2904	-0.044107
2888	0.019907
2872	0.110673
2856	0.208520
2840	0.060582
2824	-0.098800
2808	-0.032091
2792	0.086021
2776	0.004792
2760	0.004601
2744	0.032544
2728	0.013351
2712	-0.061941
2696	0.033068
2680	0.140452
2664	-0.073957
2648	-0.001358
2632	0.045275
2616	0.116229
2600	-0.100469
2584	0.023698
2568	0.041031
2552	0.031471
2536	-0.000071
2520	0.056934
2504	0.032162
2488	-0.048446
2472	0.022935
2456	0.010919
2440	0.101566
2424	0.133323
2408	0.062179
2392	0.110697
2376	0.136518
2360	0.065612
2344	0.207328
2328	0.166034
2312	0.444293
2296	0.599598
2280	0.958800
2264	1.193284
2248	1.766371
2232	2.438855
2216	3.316164
2200	4.174685
2184	5.428957
2168	6.748747
2152	8.584952
2136	10.2132
2120	11.9689
2104	13.7902
2088	15.5794
2072	17.5332
2056	19.1814
2040	20.9612
2024	22.4284
2008	23.7961
1992	25.0803
1976	26.2414
1960	27.2626
1944	28.2509
1928	28.8797
1912	29.6626
1896	30.408
1880	30.9161
1864	31.3575
1848	31.8521
1832	32.1896
1816	32.5884
1800	32.7305
1784	33.197
1768	33.4527
1752	33.5271
1736	33.6719
1720	34.1146
1704	34.1793
1688	34.2065
1672	34.3835
1656	34.6637
1640	34.6445
1624	34.6468
1608	34.8235
1592	34.973
1576	34.9599
1560	34.9724
1544	35.1211
1528	35.242
1512	35.2188
1496	35.1289
1480	35.2522
1464	35.2386
1448	35.0622
1432	35.2583
1416	35.2201
1400	35.1607
1384	34.9956
1368	35.2113
1352	35.3657
1336	34.9886
1320	34.8396
1304	35.0112
1288	34.8605
1272	34.656
1256	34.6219
1240	34.8613
1224	34.5615
1208	34.2709
1192	34.5003
1176	34.3746
1160	34.0815
1144	33.914
1128	33.9235
1112	33.9489
1096	33.4641
1080	33.2155
1064	33.3933
1048	33.209
1032	32.851
1016	32.4871
1000	32.8255
984	 32.6387
968	 32.1149
952	 31.9616
936	 32.0248
920	 31.7412
904	 31.1975
888	 31.2632
872	 31.0863
856	 30.6318
840	 30.2823
824	 30.078
808	 30.0468
792	 29.5706
776	 29.3166
760	 29.5152
744	 29.2481
728	 28.6522
712	 28.0724
696	 28.3214
680	 28.1179
664	 27.1992
648	 26.7814
632	 27.0335
616	 26.5424
600	 26.2303
584	 25.758
568	 26.0885
552	 25.5143
536	 24.4357
520	 24.2038
504	 24.1667
488	 23.662
472	 22.4233
456	 22.5399
440	 22.5331
424	 18.0466
408	 17.6508
392	 26.5733
376	 -7.628297
370	 -26.5445