File: Bakgrunnsmateriale/MATLAB/FTIR/ftir_data/LPE453/Mapping_121/LPE453_t54.asc
PE IR       SPECTRUM    SPECTRUM    ASCII       PEDS        1.60
  -1
LPD7A9~1.ASC
17/05/16
18:47:47.00
17/05/16
18:48:13.00
tln
$LPE453_t0054$<tbV0>[-10.4,-2.6,8.0,0.0,27,1,0]
27.028
64

2002,4.07
MIRTGS : RIGHTBACK : INTERNAL 2
MIR : ON : INTERNAL 2
OPTKBR

0.200000
8
8.000000
FILLER
RATIO
SPECTRUM
UNLOCKED 256

DOUBLE
64
COMBINED
1
0
0

0.002000
RATIO

1
0
TRUE
51149
0
LEFT NOT FITTED RIGHT NOT FITTED 0
NONE
NONE
15600
12
4.427000
51148
TRUE
1 0 8 72 0 0 0 0

15798

#HDR
-1
-1
#GR
µM
%T
2.38419e-05
0.0
2.000000
0.002000
12515
8
32.3929
-39.9492
#DATA
2.000000	 0.153374
2.084000	 -0.141010
2.168000	 0.140634
2.252000	 -0.459015
2.336000	 0.331931
2.420000	 0.224963
2.504000	 0.031874
2.588000	 0.089991
2.672000	 0.047654
2.756000	 0.161081
2.840000	 0.006469
2.924000	 0.009593
3.008000	 0.122024
3.092000	 0.005279
3.176000	 0.157964
3.260000	 0.011463
3.344000	 -0.010373
3.428000	 0.023695
3.512000	 0.157979
3.596000	 -0.013249
3.680000	 0.096157
3.764000	 0.138569
3.848000	 0.039228
3.932000	 -0.021791
4.016000	 0.141965
4.100000	 -0.016725
4.184000	 0.021752
4.268000	 0.126802
4.352000	 0.411436
4.436000	 0.793120
4.520000	 2.347452
4.604000	 4.870028
4.688000	 8.502798
4.772000	 12.868
4.856000	 16.8718
4.940000	 20.7698
5.024000	 23.7871
5.108000	 26.267
5.192000	 27.8426
5.276000	 29.0581
5.359999	 30.1963
5.444000	 30.6287
5.528000	 31.3101
5.612000	 31.54
5.696000	 31.7044
5.780000	 31.9846
5.864000	 32.1064
5.948000	 32.1992
6.032000	 32.1054
6.116000	 32.2112
6.200000	 32.2892
6.284000	 32.0361
6.368000	 32.3649
6.452000	 31.9606
6.536000	 32.1549
6.620000	 32.193
6.704000	 31.879
6.788000	 32.0908
6.872000	 31.9569
6.956000	 31.7211
7.040000	 31.9009
7.124000	 31.7906
7.208000	 31.4369
7.292000	 31.7615
7.376000	 31.629
7.460000	 31.4325
7.544000	 31.5517
7.628000	 31.6906
7.712000	 31.2649
7.796000	 31.1791
7.880000	 31.7162
7.964000	 31.464
8.048000	 30.9566
8.132000	 31.2151
8.216000	 31.4267
8.300000	 31.1292
8.384000	 30.7999
8.468000	 30.89
8.552000	 31.2198
8.635999	 31.0364
8.719999	 30.6728
8.804000	 30.5259
8.888000	 30.8289
8.972000	 30.8463
9.056000	 30.601
9.140000	 30.457
9.224000	 30.2636
9.308000	 30.5735
9.391999	 30.599
9.475999	 30.5238
9.560000	 29.8885
9.644000	 30.0751
9.728000	 29.963
9.812000	 29.857
9.896000	 29.9508
9.980000	 30.0925
10.064	29.7077
10.148	29.6273
10.232	29.6002
10.316	29.7121
10.4	29.8168
10.484	29.6419
10.568	29.3795
10.652	29.196
10.736	28.9528
10.82	29.0708
10.904	29.1184
10.988	29.343
11.072	29.3647
11.156	29.0821
11.24	28.69
11.324	28.4159
11.408	28.343
11.492	28.5352
11.576	28.8367
11.66	28.7001
11.744	28.4636
11.828	28.2727
11.912	28.0227
11.996	27.8877
12.08	27.6858
12.164	27.6911
12.248	27.9419
12.332	28.0898
12.416	28.2358
12.5	28.2269
12.584	27.9249
12.668	27.419
12.752	27.1198
12.836	27.0548
12.92	27.1518
13.004	27.1869
13.088	27.2301
13.172	27.3394
13.256	27.1778
13.34	26.7943
13.424	26.516
13.508	26.5427
13.592	26.561
13.676	26.3115
13.76	26.0186
13.844	26.0195
13.928	26.1622
14.012	26.2967
14.096	26.4345
14.18	26.5708
14.264	26.723
14.348	26.7172
14.432	26.4975
14.516	26.1408
14.6	25.8276
14.684	25.6194
14.768	25.4274
14.852	25.331
14.936	25.2903
15.02	25.2589
15.104	25.3442
15.188	25.461
15.272	25.5243
15.356	25.5588
15.44	25.4844
15.524	25.2909
15.608	25.087
15.692	24.9137
15.776	24.7212
15.86	24.4453
15.944	24.136
16.028	23.9333
16.112	23.868
16.196	23.8898
16.28	24.0083
16.364	24.2154
16.448	24.3998
16.532	24.4434
16.616	24.3204
16.7	24.0921
16.784	23.8681
16.868	23.7556
16.952	23.772
17.036	23.7807
17.12	23.6179
17.204	23.3133
17.288	23.0553
17.372	22.9377
17.456	22.8999
17.54	22.8919
17.624	22.9105
17.708	22.9239
17.792	22.9003
17.876	22.857
17.96	22.8127
18.044	22.7349
18.128	22.5834
18.212	22.392
18.296	22.2575
18.38	22.2375
18.464	22.2913
18.548	22.325
18.632	22.274
18.716	22.1585
18.8	22.0567
18.884	22.0322
18.968	22.0845
19.052	22.1611
19.136	22.198
19.22	22.1543
19.304	22.0381
19.388	21.9278
19.472	21.9255
19.556	22.0504
19.64	22.1769
19.724	22.137
19.808	21.8861
19.892	21.5502
19.976	21.2981
20.06	21.1946
20.144	21.2056
20.228	21.3047
20.312	21.5082
20.396	21.7901
20.48	22.0196
20.564	22.023
20.648	21.7234
20.732	21.2175
20.816	20.707
20.9	20.3606
20.984	20.2319
21.068	20.2677
21.152	20.3674
21.236	20.4449
21.32	20.4621
21.404	20.414
21.488	20.2993
21.572	20.1066
21.656	19.8442
21.74	19.5714
21.824	19.3853
21.908	19.3573
21.992	19.4703
22.076	19.6235
22.16	19.7028
22.244	19.6756
22.328	19.6072
22.412	19.5817
22.496	19.6039
22.58	19.5769
22.664	19.371
22.748	18.9251
22.832	18.3113
22.916	17.7117
23	17.3165
23.084	17.2406
23.168	17.4677
23.252	17.8757
23.336	18.3165
23.42	18.6741
23.504	18.8892
23.588	18.974
23.672	18.9645
23.756	18.8636
23.84	18.6759
23.924	18.3847
24.008	17.9873
24.092	17.5427
24.176	17.1739
24.26	17.0034
24.344	17.1394
24.428	17.6576
24.512	18.6116
24.596	19.9978
24.68	21.7811
24.764	23.8952
24.848	26.1579
24.932	28.271
25.016	29.8612
25.1	30.515
25.184	29.8373
25.268	27.6063
25.352	23.8414
25.436	18.8413
25.52	13.2185
25.604	7.794660
25.688	3.490977
25.772	1.098452
25.856	1.059151
25.94	3.394236
26.024	7.588229
26.108	12.6104
26.192	17.2041
26.276	20.1166
26.36	20.2994
26.444	17.2628
26.528	11.1728
26.612	2.747617
26.696	-6.975746
26.78	-16.8663
26.864	-26.068
26.948	-34.017
27.028	-39.9492