File: Bakgrunnsmateriale/MATLAB/FTIR/ftir_data/LPE453/Mapping_121/LPE453_t96.asc
PE IR       SPECTRUM    SPECTRUM    ASCII       PEDS        1.60
  -1
LPD7B1~1.ASC
17/05/16
22:15:53.00
17/05/16
22:16:19.00
tln
$LPE453_t0096$<tbV0>[-5.2,7.8,8.0,0.0,27,1,0]
27.028
64

2002,4.07
MIRTGS : RIGHTBACK : INTERNAL 2
MIR : ON : INTERNAL 2
OPTKBR

0.200000
8
8.000000
FILLER
RATIO
SPECTRUM
UNLOCKED 256

DOUBLE
64
COMBINED
1
0
0

0.002000
RATIO

1
0
TRUE
51149
0
LEFT NOT FITTED RIGHT NOT FITTED 0
NONE
NONE
15600
12
4.427000
51148
TRUE
1 0 8 72 0 0 0 0

15798

#HDR
-1
-1
#GR
µM
%T
2.38419e-05
0.0
2.000000
0.002000
12515
8
40.3939
-3.051344
#DATA
2.000000	 0.146317
2.084000	 0.522505
2.168000	 -0.427936
2.252000	 -0.904547
2.336000	 0.139725
2.420000	 0.136093
2.504000	 0.251621
2.588000	 0.126746
2.672000	 0.033399
2.756000	 0.012243
2.840000	 -0.070025
2.924000	 0.054569
3.008000	 0.301625
3.092000	 0.149987
3.176000	 0.093228
3.260000	 0.111607
3.344000	 -0.032641
3.428000	 0.082376
3.512000	 -0.014784
3.596000	 0.024370
3.680000	 0.049831
3.764000	 -0.019198
3.848000	 0.171283
3.932000	 -0.009548
4.016000	 -0.044203
4.100000	 0.118420
4.184000	 0.143322
4.268000	 0.351211
4.352000	 0.953991
4.436000	 2.274255
4.520000	 4.907408
4.604000	 8.807983
4.688000	 13.7351
4.772000	 18.8191
4.856000	 23.6247
4.940000	 27.1902
5.024000	 30.3826
5.108000	 32.649
5.192000	 33.7821
5.276000	 35.5189
5.359999	 35.6704
5.444000	 36.9822
5.528000	 36.6527
5.612000	 37.3341
5.696000	 37.4423
5.780000	 37.4219
5.864000	 37.976
5.948000	 37.2708
6.032000	 38.0883
6.116000	 37.7174
6.200000	 37.3508
6.284000	 38.3654
6.368000	 37.4058
6.452000	 37.5268
6.536000	 38.2624
6.620000	 37.62
6.704000	 37.1145
6.788000	 38.1847
6.872000	 37.8744
6.956000	 37.135
7.040000	 37.484
7.124000	 38.0105
7.208000	 37.2367
7.292000	 36.7723
7.376000	 37.393
7.460000	 37.8574
7.544000	 37.0482
7.628000	 36.6107
7.712000	 37.1813
7.796000	 37.8036
7.880000	 37.2527
7.964000	 36.4507
8.048000	 36.4638
8.132000	 37.2979
8.216000	 37.5391
8.300000	 37.0906
8.384000	 36.2254
8.468000	 36.3993
8.552000	 37.0826
8.635999	 37.3207
8.719999	 37.0369
8.804000	 36.1938
8.888000	 35.9436
8.972000	 36.2506
9.056000	 36.8032
9.140000	 37.2378
9.224000	 36.8424
9.308000	 36.3136
9.391999	 35.5124
9.475999	 35.7348
9.560000	 36.11
9.644000	 36.6741
9.728000	 36.5245
9.812000	 36.2624
9.896000	 35.545
9.980000	 35.0812
10.064	35.1563
10.148	35.5861
10.232	36.1138
10.316	36.2395
10.4	36.009
10.484	35.7126
10.568	35.1226
10.652	34.7225
10.736	34.7078
10.82	35.0906
10.904	35.3771
10.988	35.7228
11.072	35.6476
11.156	35.3253
11.24	34.8415
11.324	34.262
11.408	33.9251
11.492	33.7944
11.576	34.2431
11.66	34.7248
11.744	34.8895
11.828	34.9225
11.912	34.8023
11.996	34.4683
12.08	33.8436
12.164	33.3626
12.248	33.3489
12.332	33.1673
12.416	33.019
12.5	33.2423
12.584	33.6272
12.668	34.1665
12.752	34.3452
12.836	34.15
12.92	33.8393
13.004	33.4666
13.088	33.1452
13.172	32.8174
13.256	32.5593
13.34	32.3978
13.424	32.1044
13.508	31.9721
13.592	32.346
13.676	32.8725
13.76	33.2092
13.844	33.2574
13.928	33.0247
14.012	32.8345
14.096	32.7446
14.18	32.6083
14.264	32.3175
14.348	31.8697
14.432	31.5273
14.516	31.3664
14.6	31.2974
14.684	31.3009
14.768	31.3865
14.852	31.5376
14.936	31.6789
15.02	31.9022
15.104	32.2082
15.188	32.3074
15.272	32.177
15.356	31.9965
15.44	31.7527
15.524	31.4291
15.608	31.0321
15.692	30.5995
15.776	30.3407
15.86	30.2716
15.944	30.1038
16.028	29.79
16.112	29.5885
16.196	29.6378
16.28	29.8693
16.364	30.1267
16.448	30.2498
16.532	30.256
16.616	30.3093
16.7	30.4422
16.784	30.5341
16.868	30.5183
16.952	30.4401
17.036	30.3723
17.12	30.3384
17.204	30.2589
17.288	30.0298
17.372	29.6827
17.456	29.3897
17.54	29.2647
17.624	29.2087
17.708	29.0512
17.792	28.7934
17.876	28.6054
17.96	28.5906
18.044	28.6731
18.128	28.7225
18.212	28.6909
18.296	28.5993
18.38	28.4876
18.464	28.419
18.548	28.4709
18.632	28.6735
18.716	28.9586
18.8	29.1846
18.884	29.2255
18.968	29.0455
19.052	28.7333
19.136	28.4622
19.22	28.3745
19.304	28.4589
19.388	28.5591
19.472	28.5189
19.556	28.3021
19.64	27.981
19.724	27.6269
19.808	27.2648
19.892	26.9182
19.976	26.6501
20.06	26.5256
20.144	26.5522
20.228	26.671
20.312	26.7951
20.396	26.8589
20.48	26.8496
20.564	26.8122
20.648	26.8231
20.732	26.9412
20.816	27.1624
20.9	27.4186
20.984	27.6172
21.068	27.6953
21.152	27.6325
21.236	27.4356
21.32	27.1197
21.404	26.7164
21.488	26.2872
21.572	25.9134
21.656	25.6688
21.74	25.5741
21.824	25.5941
21.908	25.6636
21.992	25.73
22.076	25.7803
22.16	25.8193
22.244	25.8445
22.328	25.8329
22.412	25.7565
22.496	25.6173
22.58	25.4562
22.664	25.3316
22.748	25.2759
22.832	25.2582
22.916	25.1968
23	24.9653
23.084	24.4751
23.168	23.7024
23.252	22.7036
23.336	21.6151
23.42	20.5958
23.504	19.8074
23.588	19.3635
23.672	19.3046
23.756	19.5999
23.84	20.1702
23.924	20.8677
24.008	21.5346
24.092	22.063
24.176	22.4035
24.26	22.6213
24.344	22.9039
24.428	23.4686
24.512	24.4654
24.596	25.903
24.68	27.6267
24.764	29.364
24.848	30.8854
24.932	32.0909
25.016	33.0563
25.1	33.9608
25.184	34.9993
25.268	36.2124
25.352	37.4082
25.436	38.0845
25.52	37.6134
25.604	35.5333
25.688	31.7731
25.772	26.8209
25.856	21.5911
25.94	17.1545
26.024	14.4355
26.108	13.8676
26.192	15.4314
26.276	18.7581
26.36	23.2657
26.444	28.2615
26.528	33.0469
26.612	36.9909
26.696	39.5639
26.78	40.3912
26.864	39.37
26.948	36.6907
27.028	33.0408