File: Bakgrunnsmateriale/MATLAB/FTIR/ftir_data/LPE453/Mapping_121/LPE453_t06.asc
PE IR       SPECTRUM    SPECTRUM    ASCII       PEDS        1.60
  -1
LPD391~1.ASC
17/05/16
14:51:05.00
17/05/16
14:51:31.00
tln
$LPE453_t0006$<tbV0>[0.0,-13.0,8.0,0.0,27,1,0]
27.028
64

2002,4.07
MIRTGS : RIGHTBACK : INTERNAL 2
MIR : ON : INTERNAL 2
OPTKBR

0.200000
8
8.000000
FILLER
RATIO
SPECTRUM
UNLOCKED 256

DOUBLE
64
COMBINED
1
0
0

0.002000
RATIO

1
0
TRUE
51149
0
LEFT NOT FITTED RIGHT NOT FITTED 0
NONE
NONE
15600
12
4.427000
51148
TRUE
1 0 8 72 0 0 0 0

15798

#HDR
-1
-1
#GR
µM
%T
2.38419e-05
0.0
2.000000
0.002000
12515
8
46.9639
-2.511254
#DATA
2.000000	 0.217509
2.084000	 -0.013833
2.168000	 1.646225
2.252000	 -0.526661
2.336000	 -0.104093
2.420000	 0.028320
2.504000	 0.023960
2.588000	 -0.180161
2.672000	 0.065021
2.756000	 -0.015230
2.840000	 0.180350
2.924000	 0.228749
3.008000	 -0.121069
3.092000	 0.143663
3.176000	 0.142485
3.260000	 0.029218
3.344000	 -0.011318
3.428000	 0.051927
3.512000	 0.151399
3.596000	 0.002447
3.680000	 0.131675
3.764000	 -0.067073
3.848000	 -0.028899
3.932000	 0.031980
4.016000	 0.057345
4.100000	 -0.001748
4.184000	 -0.056433
4.268000	 0.050914
4.352000	 0.421496
4.436000	 1.247586
4.520000	 3.056782
4.604000	 6.137467
4.688000	 10.2356
4.772000	 15.0195
4.856000	 19.574
4.940000	 23.4614
5.024000	 26.6026
5.108000	 28.9303
5.192000	 30.8278
5.276000	 32.0742
5.359999	 33.1178
5.444000	 33.7671
5.528000	 34.1608
5.612000	 34.6397
5.696000	 34.7455
5.780000	 35.1128
5.864000	 35.1056
5.948000	 35.3237
6.032000	 35.36
6.116000	 35.2476
6.200000	 35.3522
6.284000	 35.1192
6.368000	 35.2465
6.452000	 35.2412
6.536000	 35.0808
6.620000	 35.1602
6.704000	 34.9644
6.788000	 35.0211
6.872000	 35.1103
6.956000	 35.023
7.040000	 34.9946
7.124000	 34.7536
7.208000	 34.7892
7.292000	 34.5086
7.376000	 34.522
7.460000	 34.6409
7.544000	 34.5111
7.628000	 34.2072
7.712000	 34.2518
7.796000	 34.3673
7.880000	 34.1886
7.964000	 34.0455
8.048000	 34.0241
8.132000	 34.1125
8.216000	 34.1115
8.300000	 34.0427
8.384000	 33.8529
8.468000	 33.8071
8.552000	 33.9557
8.635999	 33.8436
8.719999	 33.723
8.804000	 33.5971
8.888000	 33.6338
8.972000	 33.6227
9.056000	 33.3845
9.140000	 33.2843
9.224000	 33.2796
9.308000	 33.1705
9.391999	 33.4779
9.475999	 33.2304
9.560000	 33.2847
9.644000	 33.2115
9.728000	 33.0576
9.812000	 32.8987
9.896000	 32.7648
9.980000	 32.9297
10.064	32.9711
10.148	32.7944
10.232	32.7875
10.316	32.6146
10.4	32.4413
10.484	32.4342
10.568	32.569
10.652	32.39
10.736	32.4108
10.82	32.2432
10.904	32.1828
10.988	31.9671
11.072	31.9722
11.156	31.784
11.24	31.6393
11.324	31.7347
11.408	31.8116
11.492	31.7426
11.576	31.5372
11.66	31.3918
11.744	31.3582
11.828	31.2608
11.912	31.2205
11.996	31.2645
12.08	31.3591
12.164	31.4111
12.248	31.3392
12.332	31.0732
12.416	30.7332
12.5	30.5768
12.584	30.56
12.668	30.5975
12.752	30.687
12.836	30.584
12.92	30.5752
13.004	30.729
13.088	30.6381
13.172	30.4388
13.256	30.2209
13.34	30.2872
13.424	30.3356
13.508	30.0807
13.592	29.7089
13.676	29.5433
13.76	29.5663
13.844	29.5739
13.928	29.6102
14.012	29.6721
14.096	29.8044
14.18	29.8935
14.264	29.7811
14.348	29.4834
14.432	29.1763
14.516	29.0167
14.6	28.9947
14.684	28.9699
14.768	28.8729
14.852	28.7461
14.936	28.6035
15.02	28.5547
15.104	28.6456
15.188	28.8001
15.272	28.9486
15.356	28.9932
15.44	28.878
15.524	28.6404
15.608	28.4272
15.692	28.3469
15.776	28.3078
15.86	28.2024
15.944	28.0239
16.028	27.8397
16.112	27.7266
16.196	27.6423
16.28	27.5152
16.364	27.4047
16.448	27.3661
16.532	27.3514
16.616	27.3474
16.7	27.3982
16.784	27.4658
16.868	27.4443
16.952	27.316
17.036	27.1554
17.12	27.0183
17.204	26.939
17.288	26.956
17.372	27.0165
17.456	26.9701
17.54	26.7581
17.624	26.5015
17.708	26.3347
17.792	26.2689
17.876	26.2519
17.96	26.2386
18.044	26.1825
18.128	26.0595
18.212	25.9051
18.296	25.7853
18.38	25.741
18.464	25.7685
18.548	25.8238
18.632	25.8366
18.716	25.7724
18.8	25.6741
18.884	25.598
18.968	25.5463
19.052	25.4907
19.136	25.4126
19.22	25.2977
19.304	25.1341
19.388	24.9422
19.472	24.7839
19.556	24.7125
19.64	24.71
19.724	24.7073
19.808	24.6544
19.892	24.5559
19.976	24.4479
20.06	24.3609
20.144	24.2974
20.228	24.2514
20.312	24.248
20.396	24.3481
20.48	24.5933
20.564	24.9381
20.648	25.2492
20.732	25.3884
20.816	25.3156
20.9	25.104
20.984	24.8591
21.068	24.6398
21.152	24.454
21.236	24.3047
21.32	24.2292
21.404	24.2616
21.488	24.3834
21.572	24.5136
21.656	24.5603
21.74	24.4724
21.824	24.2487
21.908	23.9146
21.992	23.5134
22.076	23.1228
22.16	22.8511
22.244	22.7751
22.328	22.8784
22.412	23.0162
22.496	22.9723
22.58	22.6038
22.664	21.9247
22.748	21.1189
22.832	20.4161
22.916	19.9822
23	19.8343
23.084	19.8856
23.168	19.989
23.252	20.0294
23.336	19.9788
23.42	19.946
23.504	20.0977
23.588	20.5749
23.672	21.4126
23.756	22.4906
23.84	23.5749
23.924	24.4213
24.008	24.8621
24.092	24.8492
24.176	24.4878
24.26	23.9402
24.344	23.4093
24.428	23.1072
24.512	23.2691
24.596	24.0539
24.68	25.4206
24.764	27.0497
24.848	28.4055
24.932	28.869
25.016	28.0398
25.1	25.8897
25.184	22.8686
25.268	19.7694
25.352	17.4209
25.436	16.4975
25.52	17.2735
25.604	19.6329
25.688	23.2737
25.772	27.832
25.856	32.9332
25.94	38.0827
26.024	42.6039
26.108	45.7258
26.192	46.9553
26.276	46.1982
26.36	43.8258
26.444	40.5097
26.528	36.9428
26.612	33.4844
26.696	30.2209
26.78	27.1013
26.864	24.1016
26.948	21.3021
27.028	18.9743