File: Bakgrunnsmateriale/MATLAB/FTIR/ftir_data/LPE453/Mapping_121/LPE453_t71.asc
PE IR       SPECTRUM    SPECTRUM    ASCII       PEDS        1.60
  -1
LPCFAD~1.ASC
17/05/16
20:13:31.00
17/05/16
20:13:57.00
tln
$LPE453_t0071$<tbV0>[2.6,2.6,8.0,0.0,27,1,0]
27.028
64

2002,4.07
MIRTGS : RIGHTBACK : INTERNAL 2
MIR : ON : INTERNAL 2
OPTKBR

0.200000
8
8.000000
FILLER
RATIO
SPECTRUM
UNLOCKED 256

DOUBLE
64
COMBINED
1
0
0

0.002000
RATIO

1
0
TRUE
51149
0
LEFT NOT FITTED RIGHT NOT FITTED 0
NONE
NONE
15600
12
4.427000
51148
TRUE
1 0 8 72 0 0 0 0

15798

#HDR
-1
-1
#GR
µM
%T
2.38419e-05
0.0
2.000000
0.002000
12515
8
29.7874
-31.8484
#DATA
2.000000	 0.293374
2.084000	 0.406288
2.168000	 0.395577
2.252000	 -1.243754
2.336000	 0.053572
2.420000	 0.290492
2.504000	 0.244272
2.588000	 0.062237
2.672000	 0.077472
2.756000	 0.073406
2.840000	 0.002846
2.924000	 0.024030
3.008000	 0.040683
3.092000	 0.009636
3.176000	 0.052699
3.260000	 0.000832
3.344000	 -0.052475
3.428000	 0.072603
3.512000	 0.196616
3.596000	 -0.010190
3.680000	 0.044997
3.764000	 0.060296
3.848000	 0.036995
3.932000	 0.038999
4.016000	 0.155485
4.100000	 0.006010
4.184000	 -0.042842
4.268000	 0.016457
4.352000	 0.177460
4.436000	 0.615076
4.520000	 1.833706
4.604000	 4.178023
4.688000	 7.568165
4.772000	 11.5344
4.856000	 15.4314
4.940000	 18.9397
5.024000	 21.6843
5.108000	 23.9565
5.192000	 25.6237
5.276000	 26.8215
5.359999	 27.6142
5.444000	 28.3929
5.528000	 28.8454
5.612000	 29.2517
5.696000	 29.335
5.780000	 29.4802
5.864000	 29.6555
5.948000	 29.6928
6.032000	 29.7612
6.116000	 29.7802
6.200000	 29.6105
6.284000	 29.7376
6.368000	 29.6032
6.452000	 29.5423
6.536000	 29.5349
6.620000	 29.4615
6.704000	 29.5052
6.788000	 29.2942
6.872000	 29.4718
6.956000	 29.2989
7.040000	 29.1483
7.124000	 29.2136
7.208000	 29.1209
7.292000	 29.0398
7.376000	 29.0766
7.460000	 28.9351
7.544000	 28.842
7.628000	 28.7943
7.712000	 28.8959
7.796000	 28.7589
7.880000	 28.7555
7.964000	 28.5887
8.048000	 28.5375
8.132000	 28.5253
8.216000	 28.4523
8.300000	 28.3493
8.384000	 28.3417
8.468000	 28.2815
8.552000	 28.0944
8.635999	 28.0172
8.719999	 27.8986
8.804000	 27.8795
8.888000	 27.8832
8.972000	 27.6054
9.056000	 27.5694
9.140000	 27.6368
9.224000	 27.4245
9.308000	 27.5601
9.391999	 27.34
9.475999	 27.095
9.560000	 27.2246
9.644000	 27.148
9.728000	 26.9112
9.812000	 26.8114
9.896000	 26.7544
9.980000	 26.8673
10.064	26.745
10.148	26.646
10.232	26.6463
10.316	26.4641
10.4	26.2893
10.484	26.234
10.568	26.1157
10.652	25.8571
10.736	25.8699
10.82	25.7931
10.904	25.8036
10.988	25.5862
11.072	25.5594
11.156	25.4446
11.24	25.2826
11.324	25.2614
11.408	25.1163
11.492	25.0899
11.576	24.9042
11.66	24.976
11.744	24.8944
11.828	24.7107
11.912	24.5835
11.996	24.4146
12.08	24.4305
12.164	24.3491
12.248	24.2093
12.332	24.0621
12.416	23.9936
12.5	24.068
12.584	23.8749
12.668	23.7794
12.752	23.8052
12.836	23.5804
12.92	23.3683
13.004	23.2131
13.088	23.1868
13.172	23.288
13.256	23.1532
13.34	23.0191
13.424	22.7187
13.508	22.5049
13.592	22.8192
13.676	22.8494
13.76	22.4971
13.844	22.1882
13.928	22.0697
14.012	22.0577
14.096	21.9575
14.18	21.8886
14.264	21.9886
14.348	21.9486
14.432	21.7062
14.516	21.6149
14.6	21.6249
14.684	21.5707
14.768	21.5112
14.852	21.432
14.936	21.2312
15.02	21.0378
15.104	21.0274
15.188	21.1009
15.272	21.1376
15.356	21.1307
15.44	21.0609
15.524	20.876
15.608	20.6049
15.692	20.4212
15.776	20.3782
15.86	20.3076
15.944	20.1782
16.028	20.1261
16.112	20.0656
16.196	19.7959
16.28	19.4562
16.364	19.3972
16.448	19.6558
16.532	19.9093
16.616	19.9463
16.7	19.8363
16.784	19.6668
16.868	19.468
16.952	19.2913
17.036	19.146
17.12	18.9777
17.204	18.7928
17.288	18.6728
17.372	18.673
17.456	18.7674
17.54	18.8529
17.624	18.8161
17.708	18.6303
17.792	18.38
17.876	18.1829
17.96	18.0959
18.044	18.1032
18.128	18.1704
18.212	18.2917
18.296	18.4592
18.38	18.5923
18.464	18.5829
18.548	18.4155
18.632	18.1893
18.716	17.9952
18.8	17.83
18.884	17.6514
18.968	17.4893
19.052	17.4495
19.136	17.6064
19.22	17.8946
19.304	18.1146
19.388	18.0779
19.472	17.7643
19.556	17.3409
19.64	17.0175
19.724	16.8905
19.808	16.9101
19.892	16.9742
19.976	17.015
20.06	17.0131
20.144	16.9678
20.228	16.8952
20.312	16.8432
20.396	16.8724
20.48	16.994
20.564	17.1257
20.648	17.1285
20.732	16.9004
20.816	16.454
20.9	15.9104
20.984	15.4232
21.068	15.099
21.152	14.972
21.236	15.0176
21.32	15.1763
21.404	15.3777
21.488	15.567
21.572	15.7158
21.656	15.8077
21.74	15.8239
21.824	15.7422
21.908	15.553
21.992	15.2717
22.076	14.9281
22.16	14.552
22.244	14.1687
22.328	13.8136
22.412	13.5423
22.496	13.4259
22.58	13.504
22.664	13.7597
22.748	14.1062
22.832	14.4262
22.916	14.6352
23	14.7243
23.084	14.7418
23.168	14.7484
23.252	14.7604
23.336	14.7427
23.42	14.6514
23.504	14.4704
23.588	14.2379
23.672	14.02
23.756	13.8629
23.84	13.7795
23.924	13.7738
24.008	13.8764
24.092	14.1652
24.176	14.7447
24.26	15.6643
24.344	16.8463
24.428	18.0848
24.512	19.0994
24.596	19.6283
24.68	19.546
24.764	18.9448
24.848	18.0208
24.932	17.0001
25.016	16.0246
25.1	15.0875
25.184	14.0926
25.268	12.9868
25.352	11.8777
25.436	10.9107
25.52	10.267
25.604	10.1509
25.688	10.7306
25.772	11.9732
25.856	13.5819
25.94	15.1928
26.024	16.4646
26.108	17.1657
26.192	16.9452
26.276	15.3356
26.36	11.7462
26.444	6.130709
26.528	-0.912919
26.612	-8.121979
26.696	-14.4341
26.78	-19.5779
26.864	-24.1095
26.948	-28.5214
27.028	-31.8484