File: Bakgrunnsmateriale/MATLAB/FTIR/ftir_data/LPE453/Mapping_121/LPE453_t99_cm-1.asc
PE IR       SPECTRUM    SPECTRUM    ASCII       PEDS        1.60
  -1
LPEBDC~1.ASC
17/05/16
22:29:43.00
17/05/16
22:29:43.00
tln
$LPE453_t0099$<tbV0>[-13.0,7.8,8.0,0.0,27,1,0]
370
64

2002,4.07
MIRTGS : RIGHTBACK : INTERNAL 2
MIR : ON : INTERNAL 2
OPTKBR

0.200000
8
8.000000
FILLER
RATIO
SPECTRUM
UNLOCKED 256

DOUBLE
64
COMBINED
1
0
0

1.000000
RATIO

1
0
TRUE
51149
0
LEFT NOT FITTED RIGHT NOT FITTED 0
NONE
NONE
15600
12
4.427000
51148
TRUE
1 0 8 72 0 0 0 0

15798

#HDR
-1
-1
#GR
CM-1
%T
2.38419e-05
0.0
5000
-1.000000
4631
8
34.8726
-10.1551
#DATA
5000	0.485372
4984	0.253129
4968	0.139355
4952	0.140094
4936	0.307369
4920	-0.034189
4904	0.433802
4888	0.206470
4872	0.127553
4856	0.309753
4840	0.120401
4824	0.647234
4808	0.369691
4792	0.722265
4776	0.398135
4760	-0.079202
4744	0.533390
4728	0.454545
4712	-0.142741
4696	-0.530266
4680	0.776576
4664	0.182676
4648	0.941634
4632	3.661632
4616	0.982761
4600	0.554656
4584	-0.085234
4568	-0.826478
4552	-1.456785
4536	-1.502847
4520	-1.759457
4504	11.8797
4488	13.5709
4472	-0.236392
4456	-1.779532
4440	-1.366734
4424	-0.623154
4408	0.143861
4392	0.336122
4376	0.863361
4360	0.510001
4344	0.153970
4328	0.313568
4312	0.022816
4296	0.109386
4280	-0.071692
4264	0.142574
4248	0.157117
4232	0.140213
4216	0.249743
4200	0.258898
4184	0.064253
4168	0.482845
4152	0.386166
4136	0.297260
4120	0.210046
4104	0.057864
4088	-0.055575
4072	-0.101947
4056	0.116133
4040	0.087976
4024	-0.050473
4008	0.259280
3992	0.161027
3976	0.158762
3960	0.084424
3944	0.229811
3928	0.125646
3912	0.245475
3896	0.089788
3880	0.156736
3864	-0.112724
3848	-0.122785
3832	0.198507
3816	0.017428
3800	-0.057578
3784	0.147986
3768	0.027179
3752	-0.069022
3736	0.010871
3720	0.019574
3704	-0.036430
3688	0.085735
3672	-0.080227
3656	0.061464
3640	0.046825
3624	0.041818
3608	-0.213813
3592	0.085616
3576	0.165319
3560	0.007581
3544	-0.001454
3528	0.122737
3512	0.052762
3496	-0.000810
3480	0.190758
3464	0.061297
3448	0.008988
3432	0.076436
3416	0.113487
3400	0.122809
3384	-0.083136
3368	0.027942
3352	0.228667
3336	0.048398
3320	0.086045
3304	-0.151324
3288	0.076818
3272	-0.018978
3256	0.009012
3240	0.022196
3224	0.006079
3208	-0.018715
3192	-0.010895
3176	0.054907
3160	0.125384
3144	0.157856
3128	0.176978
3112	0.197052
3096	0.120329
3080	0.171709
3064	0.148725
3048	0.088810
3032	-0.225162
3016	-0.018954
3000	-0.056171
2984	0.006461
2968	0.116014
2952	0.115776
2936	0.034427
2920	-0.016593
2904	0.020027
2888	0.100469
2872	0.116682
2856	0.085568
2840	-0.044918
2824	-0.073170
2808	0.095367
2792	-0.022935
2776	0.042724
2760	0.094294
2744	0.044012
2728	0.013065
2712	0.096869
2696	0.074243
2680	0.038814
2664	0.077271
2648	-0.002527
2632	-0.036525
2616	0.099349
2600	0.103807
2584	0.016951
2568	-0.052547
2552	0.099086
2536	0.052309
2520	0.109076
2504	-0.015950
2488	0.038838
2472	0.104331
2456	-0.005793
2440	0.081181
2424	0.047588
2408	0.028252
2392	-0.048732
2376	0.061273
2360	0.172805
2344	0.209093
2328	0.267148
2312	0.330281
2296	0.461077
2280	0.727248
2264	1.085019
2248	1.512670
2232	2.070569
2216	2.836847
2200	3.752350
2184	4.766440
2168	6.149029
2152	7.673025
2136	9.303355
2120	11.2346
2104	12.9558
2088	14.7703
2072	16.647
2056	18.2971
2040	20.0311
2024	21.4832
2008	22.933
1992	24.2029
1976	25.4188
1960	26.4851
1944	27.4029
1928	28.1727
1912	29.0377
1896	29.694
1880	30.1505
1864	30.8061
1848	31.1753
1832	31.5691
1816	31.9386
1800	32.3443
1784	32.5365
1768	32.7723
1752	33.0843
1736	33.22
1720	33.5283
1704	33.5922
1688	33.7539
1672	33.778
1656	34.006
1640	34.0113
1624	34.1558
1608	34.2445
1592	34.3132
1576	34.4371
1560	34.5854
1544	34.5794
1528	34.5273
1512	34.699
1496	34.7342
1480	34.7249
1464	34.5721
1448	34.8618
1432	34.6748
1416	34.699
1400	34.7969
1384	34.797
1368	34.6824
1352	34.7144
1336	34.7337
1320	34.7062
1304	34.7463
1288	34.588
1272	34.6674
1256	34.5035
1240	34.3205
1224	34.4297
1208	34.4241
1192	34.2211
1176	34.0892
1160	34.1993
1144	34.173
1128	34.0087
1112	33.7412
1096	33.6574
1080	33.7054
1064	33.3231
1048	33.1081
1032	33.1653
1016	32.928
1000	32.6015
984	 32.6879
968	 32.536
952	 32.0701
936	 31.9268
920	 31.8045
904	 31.6163
888	 31.0956
872	 30.8251
856	 30.9698
840	 30.4941
824	 29.9175
808	 30.0814
792	 30.055
776	 29.6501
760	 28.845
744	 29.1749
728	 28.7457
712	 27.9997
696	 27.7241
680	 27.8863
664	 27.739
648	 26.6742
632	 27.0495
616	 26.5471
600	 26.1878
584	 25.56
568	 25.4419
552	 25.4628
536	 24.2447
520	 24.2336
504	 24.4337
488	 23.42
472	 23.0131
456	 22.2616
440	 22.4968
424	 22.1951
408	 16.3533
392	 16.337
376	 -5.499315
370	 -10.1551