File: Bakgrunnsmateriale/MATLAB/FTIR/ftir_data/LPE453/Mapping_121/LPE453_e127_cm-1.asc
PE IR       SPECTRUM    SPECTRUM    ASCII       PEDS        1.60
  -1
LP0ABB~1.ASC
17/05/16
23:26:29.00
17/05/16
23:26:29.00
tln
$LPE453_e0127$<ebV0>[-23.3,12.1,10.0,0.0,27,1,0]
370
64

2002,4.07
MIRTGS : RIGHTBACK : INTERNAL 2
MIR : ON : INTERNAL 2
OPTKBR

0.200000
8
8.000000
FILLER
SINGLE
SPECTRUM
UNLOCKED 256

DOUBLE

COMBINED
1
0
0

1.000000
BACKG

1
0
TRUE
51149
0
LEFT NOT FITTED RIGHT NOT FITTED 0
NONE
NONE
15600
12
4.427000
51148
TRUE
1 0 8 72 0 0 0 0

15798

#HDR
-1
-1
#GR
CM-1
EGY
2.38419e-05
0.0
5000
-1.000000
4631
8
2.419400
0.007247
#DATA
5000	0.767540
4984	0.771903
4968	0.782585
4952	0.791168
4936	0.794553
4920	0.799250
4904	0.807118
4888	0.812602
4872	0.823116
4856	0.831437
4840	0.837588
4824	0.851655
4808	0.859737
4792	0.873112
4776	0.880885
4760	0.887155
4744	0.892114
4728	0.902676
4712	0.907611
4696	0.896883
4680	0.899410
4664	0.920176
4648	0.895643
4632	0.923657
4616	0.917458
4600	0.932908
4584	0.944423
4568	0.952434
4552	0.960850
4536	0.969505
4520	0.968480
4504	0.972795
4488	1.138186
4472	0.994038
4456	0.998234
4440	0.997924
4424	1.006698
4408	1.008915
4392	1.018810
4376	1.030898
4360	1.041293
4344	1.049733
4328	1.072669
4312	1.095795
4296	1.112604
4280	1.131367
4264	1.147484
4248	1.161098
4232	1.173472
4216	1.186203
4200	1.192164
4184	1.203513
4168	1.210498
4152	1.218724
4136	1.225852
4120	1.240515
4104	1.252102
4088	1.273107
4072	1.292514
4056	1.316022
4040	1.338005
4024	1.356339
4008	1.371884
3992	1.383066
3976	1.396369
3960	1.403641
3944	1.411199
3928	1.416182
3912	1.422166
3896	1.426076
3880	1.435065
3864	1.444029
3848	1.454257
3832	1.472806
3816	1.486372
3800	1.505637
3784	1.529288
3768	1.539635
3752	1.535964
3736	1.547479
3720	1.562023
3704	1.566147
3688	1.559829
3672	1.553559
3656	1.563739
3640	1.571702
3624	1.569342
3608	1.574945
3592	1.581358
3576	1.593422
3560	1.600861
3544	1.608133
3528	1.608943
3512	1.612067
3496	1.607823
3480	1.599550
3464	1.594448
3448	1.579022
3432	1.572847
3416	1.575064
3400	1.583266
3384	1.593160
3368	1.607131
3352	1.628732
3336	1.652026
3320	1.676750
3304	1.700019
3288	1.718854
3272	1.735997
3256	1.750993
3240	1.762962
3224	1.770234
3208	1.770734
3192	1.773595
3176	1.778578
3160	1.785326
3144	1.799416
3128	1.814603
3112	1.835060
3096	1.861739
3080	1.896166
3064	1.915192
3048	1.942777
3032	1.956653
3016	1.940679
3000	2.002310
2984	2.003145
2968	1.937580
2952	1.901936
2936	1.798057
2920	1.785254
2904	1.927804
2888	1.976561
2872	1.964068
2856	1.904320
2840	2.048373
2824	2.106499
2808	2.142238
2792	2.170014
2776	2.201533
2760	2.222275
2744	2.231144
2728	2.236104
2712	2.229309
2696	2.224469
2680	2.217721
2664	2.205777
2648	2.198338
2632	2.197790
2616	2.200579
2600	2.204680
2584	2.215456
2568	2.240538
2552	2.260065
2536	2.277278
2520	2.291846
2504	2.298378
2488	2.300596
2472	2.294445
2456	2.281570
2440	2.266550
2424	2.251625
2408	2.235436
2392	2.226519
2376	2.218508
2360	2.213811
2344	2.239775
2328	2.259182
2312	2.290797
2296	2.315402
2280	2.333807
2264	2.347183
2248	2.351331
2232	2.349281
2216	2.340364
2200	2.328372
2184	2.316045
2168	2.306818
2152	2.303123
2136	2.300310
2120	2.302765
2104	2.306604
2088	2.306294
2072	2.322196
2056	2.354311
2040	2.388167
2024	2.406787
2008	2.418184
1992	2.419185
1976	2.411174
1960	2.396345
1944	2.382946
1928	2.368068
1912	2.351117
1896	2.335953
1880	2.337718
1864	2.343821
1848	2.354788
1832	2.368950
1816	2.383756
1800	2.391099
1784	2.390861
1768	2.374434
1752	2.348685
1736	2.291727
1720	2.270722
1704	2.238988
1688	2.213597
1672	2.193379
1656	2.146267
1640	2.119159
1624	2.071070
1608	1.941394
1592	1.980710
1576	1.951694
1560	1.897644
1544	1.924967
1528	2.071261
1512	2.055335
1496	1.675295
1480	1.929974
1464	1.906466
1448	1.756477
1432	1.840996
1416	1.813936
1400	1.705479
1384	1.757907
1368	1.786518
1352	1.785612
1336	1.796483
1320	1.822400
1304	1.824927
1288	1.825022
1272	1.775503
1256	1.729536
1240	1.807141
1224	1.785445
1208	1.722788
1192	1.714801
1176	1.675081
1160	1.607346
1144	1.574492
1128	1.517128
1112	1.437497
1096	1.404142
1080	1.407814
1064	1.416230
1048	1.287961
1032	1.357316
1016	1.344752
1000	1.379179
984	 1.361966
968	 1.322841
952	 1.269006
936	 1.231336
920	 1.196789
904	 1.144504
888	 1.103901
872	 1.020765
856	 1.077604
840	 1.043605
824	 0.834369
808	 0.934219
792	 0.945115
776	 0.963521
760	 0.950932
744	 0.929737
728	 0.889253
712	 0.844025
696	 0.778770
680	 0.723934
664	 0.696897
648	 0.656247
632	 0.616431
616	 0.567150
600	 0.516152
584	 0.501155
568	 0.484418
552	 0.460529
536	 0.429797
520	 0.393462
504	 0.354385
488	 0.302147
472	 0.248527
456	 0.194263
440	 0.148963
424	 0.101375
408	 0.053906
392	 0.029659
376	 0.008797
370	 0.007390