File: Bakgrunnsmateriale/MATLAB/FTIR/ftir_data/LPE453/Mapping_121/LPE453_t88_cm-1.asc
PE IR       SPECTRUM    SPECTRUM    ASCII       PEDS        1.60
  -1
LP6B59~1.ASC
17/05/16
21:32:31.00
17/05/16
21:32:31.00
tln
$LPE453_t0088$<tbV0>[-13.0,5.2,8.0,0.0,27,1,0]
370
64

2002,4.07
MIRTGS : RIGHTBACK : INTERNAL 2
MIR : ON : INTERNAL 2
OPTKBR

0.200000
8
8.000000
FILLER
RATIO
SPECTRUM
UNLOCKED 256

DOUBLE
64
COMBINED
1
0
0

1.000000
RATIO

1
0
TRUE
51149
0
LEFT NOT FITTED RIGHT NOT FITTED 0
NONE
NONE
15600
12
4.427000
51148
TRUE
1 0 8 72 0 0 0 0

15798

#HDR
-1
-1
#GR
CM-1
%T
2.38419e-05
0.0
5000
-1.000000
4631
8
33.0479
-4.677271
#DATA
5000	-0.499010
4984	-0.073361
4968	0.511002
4952	0.389099
4936	0.185799
4920	0.105547
4904	0.061488
4888	-0.296807
4872	0.406742
4856	0.320482
4840	0.088620
4824	0.081682
4808	0.370526
4792	0.379681
4776	0.344133
4760	0.362324
4744	0.277471
4728	0.227475
4712	-0.340676
4696	0.351476
4680	0.941610
4664	1.525449
4648	0.693273
4632	1.323199
4616	-0.173187
4600	0.076508
4584	1.469755
4568	0.693774
4552	0.210428
4536	1.096296
4520	-1.371264
4504	-2.261638
4488	9.944725
4472	0.130152
4456	-0.564837
4440	-0.244450
4424	-0.228166
4408	0.037264
4392	0.328326
4376	0.244736
4360	0.070309
4344	0.310087
4328	0.027632
4312	-0.007867
4296	-0.210285
4280	-0.024819
4264	-0.214004
4248	0.005722
4232	0.047111
4216	0.121712
4200	-0.069785
4184	0.142312
4168	0.313186
4152	-0.010919
4136	-0.090599
4120	0.078129
4104	0.049638
4088	0.101637
4072	0.254702
4056	0.115871
4040	-0.082421
4024	0.143408
4008	0.184869
3992	0.056624
3976	0.155282
3960	0.013446
3944	0.095987
3928	0.086474
3912	-0.120115
3896	0.135207
3880	0.090122
3864	0.097060
3848	0.049543
3832	0.061845
3816	0.002884
3800	0.003194
3784	-0.071239
3768	-0.157070
3752	-0.017857
3736	0.206327
3720	0.105953
3704	-0.039362
3688	0.083112
3672	0.161337
3656	0.030684
3640	0.001811
3624	-0.015401
3608	0.021886
3592	0.038599
3576	0.075483
3560	0.119471
3544	0.067663
3528	0.018978
3512	-0.068545
3496	-0.001025
3480	0.003862
3464	0.146508
3448	0.027990
3432	0.158214
3416	0.016808
3400	-0.046563
3384	0.163555
3368	-0.065970
3352	0.042629
3336	0.078320
3320	-0.025629
3304	0.120806
3288	0.042819
3272	0.025367
3256	-0.073575
3240	0.005412
3224	0.058031
3208	-0.013232
3192	0.102758
3176	-0.011587
3160	0.125622
3144	0.021886
3128	-0.012493
3112	0.050902
3096	0.067639
3080	0.083613
3064	0.031757
3048	0.070405
3032	-0.047993
3016	0.119137
3000	-0.004529
2984	0.069093
2968	0.075888
2952	0.119924
2936	0.040054
2920	-0.048637
2904	0.056529
2888	-0.000762
2872	0.106430
2856	-0.019288
2840	0.030684
2824	0.010275
2808	0.129795
2792	0.046730
2776	-0.027966
2760	0.030636
2744	0.097131
2728	0.084328
2712	-0.024437
2696	0.086545
2680	-0.001668
2664	0.046420
2648	0.078463
2632	-0.038528
2616	0.004935
2600	0.048780
2584	0.147128
2568	0.020241
2552	0.058317
2536	-0.009703
2520	0.059843
2504	0.095129
2488	-0.000500
2472	0.002145
2456	-0.039625
2440	-0.053262
2424	0.003218
2408	0.058031
2392	-0.007247
2376	-0.029659
2360	0.027441
2344	0.068187
2328	0.029230
2312	0.154948
2296	0.212121
2280	0.450801
2264	0.680661
2248	1.055359
2232	1.486587
2216	2.235221
2200	2.932667
2184	3.948926
2168	5.231308
2152	6.452965
2136	8.200263
2120	9.696936
2104	11.4842
2088	13.281
2072	14.873
2056	16.6551
2040	18.4041
2024	19.9672
2008	21.268
1992	22.5443
1976	23.8053
1960	24.8483
1944	25.8472
1928	26.7135
1912	27.449
1896	28.0406
1880	28.7762
1864	29.2778
1848	29.6437
1832	30.0797
1816	30.4504
1800	30.8093
1784	31.0082
1768	31.3408
1752	31.5129
1736	31.7551
1720	31.8998
1704	32.073
1688	32.1285
1672	32.2108
1656	32.349
1640	32.4564
1624	32.4912
1608	32.3422
1592	32.6427
1576	32.7905
1560	32.6962
1544	32.9344
1528	32.8832
1512	32.9211
1496	32.8346
1480	32.834
1464	32.8578
1448	32.9249
1432	32.902
1416	32.9885
1400	32.8655
1384	32.8208
1368	32.8905
1352	32.9421
1336	32.8197
1320	32.9221
1304	32.9062
1288	32.7847
1272	32.865
1256	32.6724
1240	32.7086
1224	32.532
1208	32.5478
1192	32.4432
1176	32.4836
1160	32.3167
1144	32.1057
1128	31.9883
1112	32.0287
1096	31.7271
1080	31.5835
1064	31.6549
1048	31.4366
1032	31.1267
1016	31.1491
1000	30.9308
984	 30.4899
968	 30.5591
952	 30.1828
936	 30.0051
920	 29.454
904	 29.7183
888	 29.3593
872	 28.8655
856	 29.0433
840	 28.7685
824	 28.518
808	 28.2306
792	 27.8254
776	 27.4889
760	 26.8344
744	 26.9233
728	 26.5584
712	 26.1346
696	 25.686
680	 25.763
664	 25.2997
648	 24.6237
632	 25.015
616	 24.4672
600	 23.7518
584	 24.1691
568	 23.6262
552	 22.3863
536	 22.7997
520	 22.423
504	 22.0347
488	 20.2004
472	 20.3377
456	 20.1848
440	 20.371
424	 18.1813
408	 17.1351
392	 23.8201
376	 5.849146
370	 15.0275