File: Bakgrunnsmateriale/MATLAB/FTIR/ftir_data/LPE453/Mapping_121/LPE453_t04.asc
PE IR       SPECTRUM    SPECTRUM    ASCII       PEDS        1.60
  -1
LPD399~1.ASC
17/05/16
14:41:52.00
17/05/16
14:42:18.00
tln
$LPE453_t0004$<tbV0>[5.2,-13.0,8.0,0.0,27,1,0]
27.028
64

2002,4.07
MIRTGS : RIGHTBACK : INTERNAL 2
MIR : ON : INTERNAL 2
OPTKBR

0.200000
8
8.000000
FILLER
RATIO
SPECTRUM
UNLOCKED 256

DOUBLE
64
COMBINED
1
0
0

0.002000
RATIO

1
0
TRUE
51149
0
LEFT NOT FITTED RIGHT NOT FITTED 0
NONE
NONE
15600
12
4.427000
51148
TRUE
1 0 8 72 0 0 0 0

15798

#HDR
-1
-1
#GR
µM
%T
2.38419e-05
0.0
2.000000
0.002000
12515
8
33.9953
-7.844638
#DATA
2.000000	 0.331711
2.084000	 0.031473
2.168000	 -0.276037
2.252000	 0.388248
2.336000	 0.380330
2.420000	 0.089692
2.504000	 -0.104735
2.588000	 -0.070714
2.672000	 0.150935
2.756000	 0.009729
2.840000	 0.032708
2.924000	 0.014623
3.008000	 -0.063622
3.092000	 0.002782
3.176000	 -0.001568
3.260000	 0.092138
3.344000	 0.160870
3.428000	 0.192567
3.512000	 -0.096716
3.596000	 -0.030711
3.680000	 0.059714
3.764000	 0.001433
3.848000	 0.092959
3.932000	 -0.012376
4.016000	 0.231718
4.100000	 0.042120
4.184000	 -0.067344
4.268000	 0.179267
4.352000	 0.169023
4.436000	 0.890795
4.520000	 2.478518
4.604000	 5.101249
4.688000	 9.036377
4.772000	 13.5018
4.856000	 18.0477
4.940000	 21.7734
5.024000	 24.9828
5.108000	 27.421
5.192000	 29.1378
5.276000	 30.5364
5.359999	 31.4844
5.444000	 32.1276
5.528000	 32.7141
5.612000	 33.0739
5.696000	 33.2237
5.780000	 33.4921
5.864000	 33.6151
5.948000	 33.9654
6.032000	 33.8294
6.116000	 33.6715
6.200000	 33.6492
6.284000	 33.7472
6.368000	 33.7343
6.452000	 33.5765
6.536000	 33.6915
6.620000	 33.6097
6.704000	 33.419
6.788000	 33.3737
6.872000	 33.4442
6.956000	 33.333
7.040000	 33.3076
7.124000	 33.0652
7.208000	 32.9814
7.292000	 33.0467
7.376000	 32.797
7.460000	 32.9203
7.544000	 32.8622
7.628000	 32.7688
7.712000	 32.666
7.796000	 32.6151
7.880000	 32.5256
7.964000	 32.4836
8.048000	 32.4328
8.132000	 32.5078
8.216000	 32.4803
8.300000	 32.2256
8.384000	 32.1857
8.468000	 32.3137
8.552000	 32.1807
8.635999	 32.0464
8.719999	 32.0929
8.804000	 31.9968
8.888000	 31.9975
8.972000	 32.003
9.056000	 31.9345
9.140000	 31.8892
9.224000	 31.6525
9.308000	 31.6749
9.391999	 31.5516
9.475999	 31.6152
9.560000	 31.5483
9.644000	 31.4444
9.728000	 31.2287
9.812000	 31.1761
9.896000	 31.234
9.980000	 31.2925
10.064	31.1907
10.148	31.1857
10.232	30.8813
10.316	30.8007
10.4	30.7389
10.484	30.7042
10.568	30.7433
10.652	30.7123
10.736	30.629
10.82	30.5052
10.904	30.2994
10.988	30.1214
11.072	30.2235
11.156	30.1716
11.24	30.0145
11.324	29.9875
11.408	29.9563
11.492	29.8092
11.576	29.6689
11.66	29.6338
11.744	29.4554
11.828	29.4336
11.912	29.5353
11.996	29.323
12.08	29.4486
12.164	29.2178
12.248	29.1301
12.332	29.1082
12.416	28.7786
12.5	28.6403
12.584	28.4444
12.668	28.5229
12.752	28.7009
12.836	28.6569
12.92	28.6657
13.004	28.5625
13.088	28.2197
13.172	28.2057
13.256	28.185
13.34	27.9289
13.424	27.6967
13.508	27.5838
13.592	27.7024
13.676	27.8809
13.76	28.1137
13.844	27.8702
13.928	27.6465
14.012	27.6445
14.096	27.4087
14.18	27.0992
14.264	27.0596
14.348	27.1923
14.432	27.0971
14.516	26.902
14.6	26.9033
14.684	27.0614
14.768	27.0523
14.852	26.8851
14.936	26.9155
15.02	26.9759
15.104	26.7285
15.188	26.4494
15.272	26.4359
15.356	26.4605
15.44	26.3452
15.524	26.2267
15.608	26.1017
15.692	25.8938
15.776	25.7554
15.86	25.8344
15.944	26.0443
16.028	26.2088
16.112	26.2248
16.196	26.0917
16.28	25.8227
16.364	25.4257
16.448	25.0699
16.532	24.9581
16.616	24.9893
16.7	24.9352
16.784	24.8084
16.868	24.692
16.952	24.5505
17.036	24.4274
17.12	24.4828
17.204	24.6902
17.288	24.7649
17.372	24.5479
17.456	24.2346
17.54	24.096
17.624	24.1531
17.708	24.254
17.792	24.3126
17.876	24.3346
17.96	24.2954
18.044	24.14
18.128	23.8775
18.212	23.5923
18.296	23.3703
18.38	23.2648
18.464	23.3022
18.548	23.4412
18.632	23.5355
18.716	23.4468
18.8	23.2074
18.884	23.0184
18.968	23.0636
19.052	23.3489
19.136	23.7084
19.22	23.9418
19.304	23.957
19.388	23.8058
19.472	23.6063
19.556	23.4314
19.64	23.2663
19.724	23.0667
19.808	22.8314
19.892	22.6143
19.976	22.4769
20.06	22.4446
20.144	22.4865
20.228	22.5236
20.312	22.4761
20.396	22.317
20.48	22.1073
20.564	21.96
20.648	21.9454
20.732	22.0349
20.816	22.1208
20.9	22.111
20.984	21.9953
21.068	21.8464
21.152	21.7602
21.236	21.7816
21.32	21.87
21.404	21.9226
21.488	21.852
21.572	21.6515
21.656	21.4182
21.74	21.2953
21.824	21.3901
21.908	21.7068
21.992	22.1462
22.076	22.5698
22.16	22.8689
22.244	23.0043
22.328	22.989
22.412	22.8431
22.496	22.5712
22.58	22.1947
22.664	21.7768
22.748	21.4002
22.832	21.0989
22.916	20.8386
23	20.5156
23.084	20.0389
23.168	19.3988
23.252	18.6918
23.336	18.0857
23.42	17.7381
23.504	17.7482
23.588	18.1069
23.672	18.6986
23.756	19.3174
23.84	19.7433
23.924	19.7695
24.008	19.3201
24.092	18.5422
24.176	17.7566
24.26	17.3306
24.344	17.565
24.428	18.524
24.512	19.967
24.596	21.4378
24.68	22.4688
24.764	22.8121
24.848	22.5201
24.932	21.9229
25.016	21.4559
25.1	21.4474
25.184	22.0087
25.268	22.9303
25.352	23.7498
25.436	23.7933
25.52	22.441
25.604	19.3877
25.688	14.8454
25.772	9.650921
25.856	5.017925
25.94	2.178518
26.024	1.961883
26.108	4.381562
26.192	8.615610
26.276	13.2491
26.36	16.5905
26.444	17.4332
26.528	15.4633
26.612	11.1872
26.696	5.716348
26.78	0.349437
26.864	-3.892006
26.948	-6.574655
27.028	-7.844638