File: Bakgrunnsmateriale/MATLAB/FTIR/ftir_data/LPE453/Mapping_121/LPE453_t24.asc
PE IR       SPECTRUM    SPECTRUM    ASCII       PEDS        1.60
  -1
LPDB99~1.ASC
17/05/16
16:21:52.00
17/05/16
16:22:19.00
tln
$LPE453_t0024$<tbV0>[10.4,-7.8,8.0,0.0,27,1,0]
27.028
64

2002,4.07
MIRTGS : RIGHTBACK : INTERNAL 2
MIR : ON : INTERNAL 2
OPTKBR

0.200000
8
8.000000
FILLER
RATIO
SPECTRUM
UNLOCKED 256

DOUBLE
64
COMBINED
1
0
0

0.002000
RATIO

1
0
TRUE
51149
0
LEFT NOT FITTED RIGHT NOT FITTED 0
NONE
NONE
15600
12
4.427000
51148
TRUE
1 0 8 72 0 0 0 0

15798

#HDR
-1
-1
#GR
µM
%T
2.38419e-05
0.0
2.000000
0.002000
12515
8
39.1874
-2.198343
#DATA
2.000000	 -0.007224
2.084000	 0.218422
2.168000	 0.320125
2.252000	 -0.850886
2.336000	 0.003109
2.420000	 0.261530
2.504000	 0.116379
2.588000	 0.112908
2.672000	 0.070145
2.756000	 0.032544
2.840000	 0.280433
2.924000	 -0.034284
3.008000	 0.137691
3.092000	 0.038805
3.176000	 0.065955
3.260000	 -0.006723
3.344000	 0.185644
3.428000	 0.141864
3.512000	 0.123670
3.596000	 0.070167
3.680000	 0.088948
3.764000	 0.150224
3.848000	 -0.013009
3.932000	 0.018860
4.016000	 0.099375
4.100000	 -0.148754
4.184000	 -0.046755
4.268000	 -0.149907
4.352000	 0.124549
4.436000	 0.426977
4.520000	 1.334029
4.604000	 2.889319
4.688000	 5.688248
4.772000	 9.449613
4.856000	 12.92
4.940000	 16.3556
5.024000	 19.4047
5.108000	 21.6211
5.192000	 23.4627
5.276000	 24.861
5.359999	 25.9254
5.444000	 26.6369
5.528000	 27.2487
5.612000	 27.6276
5.696000	 27.8421
5.780000	 28.1246
5.864000	 28.4082
5.948000	 28.3666
6.032000	 28.484
6.116000	 28.5521
6.200000	 28.5714
6.284000	 28.5108
6.368000	 28.6119
6.452000	 28.6136
6.536000	 28.4895
6.620000	 28.4549
6.704000	 28.4335
6.788000	 28.4201
6.872000	 28.3897
6.956000	 28.3674
7.040000	 28.3935
7.124000	 28.2604
7.208000	 28.2331
7.292000	 28.2646
7.376000	 28.1346
7.460000	 28.1729
7.544000	 28.1057
7.628000	 28.1478
7.712000	 27.9879
7.796000	 27.9781
7.880000	 27.8524
7.964000	 27.7989
8.048000	 27.6724
8.132000	 27.875
8.216000	 27.7076
8.300000	 27.6044
8.384000	 27.6042
8.468000	 27.615
8.552000	 27.7367
8.635999	 27.4157
8.719999	 27.4081
8.804000	 27.4113
8.888000	 27.2237
8.972000	 27.0716
9.056000	 27.1997
9.140000	 26.8984
9.224000	 26.7897
9.308000	 26.8397
9.391999	 26.6644
9.475999	 26.765
9.560000	 26.8752
9.644000	 26.7888
9.728000	 26.5832
9.812000	 26.7469
9.896000	 26.5906
9.980000	 26.461
10.064	26.3808
10.148	26.3041
10.232	26.1294
10.316	25.9985
10.4	25.9885
10.484	26.0872
10.568	25.9363
10.652	25.8746
10.736	25.5702
10.82	25.4693
10.904	25.4879
10.988	25.2143
11.072	25.2104
11.156	25.3049
11.24	25.0477
11.324	24.8232
11.408	24.7761
11.492	24.9392
11.576	24.7941
11.66	24.6146
11.744	24.6223
11.828	24.5236
11.912	24.4698
11.996	24.4695
12.08	24.2898
12.164	23.9801
12.248	23.9712
12.332	23.7714
12.416	23.8298
12.5	23.8932
12.584	23.5652
12.668	23.4301
12.752	23.2408
12.836	23.2205
12.92	23.3281
13.004	23.2457
13.088	23.312
13.172	23.4537
13.256	23.4992
13.34	23.5573
13.424	23.4184
13.508	23.2615
13.592	23.0407
13.676	22.8678
13.76	22.6587
13.844	22.4112
13.928	22.3369
14.012	22.3492
14.096	22.2873
14.18	22.0593
14.264	21.8427
14.348	21.9492
14.432	22.1788
14.516	22.245
14.6	22.0921
14.684	21.8128
14.768	21.6576
14.852	21.678
14.936	21.741
15.02	21.6845
15.104	21.2736
15.188	20.7199
15.272	20.6096
15.356	20.8564
15.44	20.9461
15.524	20.8817
15.608	20.8513
15.692	20.7771
15.776	20.6643
15.86	20.6179
15.944	20.5505
16.028	20.3969
16.112	20.228
16.196	20.0781
16.28	19.9862
16.364	19.9913
16.448	20.0209
16.532	19.9736
16.616	19.8502
16.7	19.7422
16.784	19.7121
16.868	19.6989
16.952	19.6263
17.036	19.4793
17.12	19.2233
17.204	18.8502
17.288	18.509
17.372	18.3676
17.456	18.4101
17.54	18.5266
17.624	18.6647
17.708	18.7937
17.792	18.8479
17.876	18.7711
17.96	18.5768
18.044	18.3329
18.128	18.1252
18.212	18.0177
18.296	18.0087
18.38	18.0136
18.464	17.9226
18.548	17.7179
18.632	17.5339
18.716	17.5388
18.8	17.7468
18.884	17.9788
18.968	18.0276
19.052	17.8479
19.136	17.5667
19.22	17.3626
19.304	17.3395
19.388	17.4791
19.472	17.653
19.556	17.7019
19.64	17.5482
19.724	17.2567
19.808	16.965
19.892	16.7536
19.976	16.5994
20.06	16.4584
20.144	16.364
20.228	16.412
20.312	16.6493
20.396	17.0012
20.48	17.3129
20.564	17.4612
20.648	17.4182
20.732	17.2327
20.816	16.97
20.9	16.6824
20.984	16.4054
21.068	16.1735
21.152	16.0098
21.236	15.9075
21.32	15.8264
21.404	15.7107
21.488	15.5323
21.572	15.3081
21.656	15.0876
21.74	14.9218
21.824	14.8467
21.908	14.8793
21.992	15.024
22.076	15.2718
22.16	15.5876
22.244	15.9214
22.328	16.2058
22.412	16.3618
22.496	16.3287
22.58	16.0983
22.664	15.7225
22.748	15.3031
22.832	14.9446
22.916	14.7306
23	14.6705
23.084	14.7441
23.168	14.8977
23.252	15.0453
23.336	15.075
23.42	14.854
23.504	14.2783
23.588	13.3632
23.672	12.2751
23.756	11.3075
23.84	10.7394
23.924	10.6872
24.008	11.0376
24.092	11.5081
24.176	11.8214
24.26	11.9067
24.344	12.0019
24.428	12.5329
24.512	13.891
24.596	16.1849
24.68	19.1539
24.764	22.2342
24.848	24.8159
24.932	26.4115
25.016	26.8705
25.1	26.3711
25.184	25.3227
25.268	24.1715
25.352	23.248
25.436	22.6506
25.52	22.2467
25.604	21.8244
25.688	21.2416
25.772	20.5645
25.856	20.0776
25.94	20.2138
26.024	21.4017
26.108	23.8304
26.192	27.3438
26.276	31.4222
26.36	35.2825
26.444	38.082
26.528	39.1845
26.612	38.312
26.696	35.6547
26.78	31.8518
26.864	27.8178
26.948	24.4947
27.028	22.7205