File: Bakgrunnsmateriale/MATLAB/FTIR/ftir_data/LPE453/Mapping_121/LPE453_t105.asc
PE IR       SPECTRUM    SPECTRUM    ASCII       PEDS        1.60
  -1
LP9786~1.ASC
17/05/16
22:57:59.00
17/05/16
22:58:25.00
tln
$LPE453_t0105$<tbV0>[0.0,10.4,8.0,0.0,27,1,0]
27.028
64

2002,4.07
MIRTGS : RIGHTBACK : INTERNAL 2
MIR : ON : INTERNAL 2
OPTKBR

0.200000
8
8.000000
FILLER
RATIO
SPECTRUM
UNLOCKED 256

DOUBLE
64
COMBINED
1
0
0

0.002000
RATIO

1
0
TRUE
51149
0
LEFT NOT FITTED RIGHT NOT FITTED 0
NONE
NONE
15600
12
4.427000
51148
TRUE
1 0 8 72 0 0 0 0

15798

#HDR
-1
-1
#GR
µM
%T
2.38419e-05
0.0
2.000000
0.002000
12515
8
36.5715
-8.855609
#DATA
2.000000	 0.472474
2.084000	 0.153664
2.168000	 -0.247543
2.252000	 -0.269015
2.336000	 0.183015
2.420000	 0.001277
2.504000	 0.305348
2.588000	 0.090451
2.672000	 -0.033719
2.756000	 0.131576
2.840000	 0.005929
2.924000	 0.046918
3.008000	 0.150643
3.092000	 0.084580
3.176000	 0.042590
3.260000	 0.067812
3.344000	 0.066011
3.428000	 -0.039496
3.512000	 0.035218
3.596000	 0.016553
3.680000	 0.153694
3.764000	 -0.000467
3.848000	 0.092283
3.932000	 0.057800
4.016000	 -0.020342
4.100000	 0.043220
4.184000	 0.086004
4.268000	 0.238104
4.352000	 0.782771
4.436000	 1.960642
4.520000	 4.323467
4.604000	 7.822456
4.688000	 12.51
4.772000	 17.3271
4.856000	 21.8314
4.940000	 25.6425
5.024000	 28.4552
5.108000	 30.8046
5.192000	 32.4029
5.276000	 33.5308
5.359999	 34.4301
5.444000	 34.8534
5.528000	 35.4783
5.612000	 35.7169
5.696000	 35.8105
5.780000	 36.0445
5.864000	 35.8749
5.948000	 36.3688
6.032000	 36.1698
6.116000	 36.3298
6.200000	 36.3779
6.284000	 36.074
6.368000	 36.3715
6.452000	 36.421
6.536000	 35.9708
6.620000	 36.3638
6.704000	 36.1836
6.788000	 35.9028
6.872000	 35.9356
6.956000	 36.1499
7.040000	 35.8695
7.124000	 35.5788
7.208000	 36.0384
7.292000	 36.0969
7.376000	 35.703
7.460000	 35.574
7.544000	 35.8967
7.628000	 35.8352
7.712000	 35.4504
7.796000	 35.2746
7.880000	 35.6229
7.964000	 35.7562
8.048000	 35.565
8.132000	 35.129
8.216000	 35.1734
8.300000	 35.3618
8.384000	 35.6429
8.468000	 35.3215
8.552000	 35.0186
8.635999	 34.9545
8.719999	 35.1731
8.804000	 35.3553
8.888000	 35.3135
8.972000	 34.8078
9.056000	 34.4678
9.140000	 34.6105
9.224000	 35.0194
9.308000	 35.0635
9.391999	 35.0069
9.475999	 34.6699
9.560000	 34.2451
9.644000	 34.1881
9.728000	 34.199
9.812000	 34.6491
9.896000	 34.7602
9.980000	 34.5564
10.064	34.1669
10.148	34.0851
10.232	33.953
10.316	33.6722
10.4	34.0113
10.484	34.3278
10.568	34.121
10.652	34.0659
10.736	33.6725
10.82	33.2195
10.904	33.1493
10.988	33.1139
11.072	33.4009
11.156	33.6688
11.24	33.7273
11.324	33.518
11.408	33.1485
11.492	32.8196
11.576	32.7934
11.66	32.5383
11.744	32.3337
11.828	32.4607
11.912	32.7415
11.996	32.9203
12.08	32.9864
12.164	32.8113
12.248	32.7323
12.332	32.3437
12.416	31.8238
12.5	31.5483
12.584	31.4654
12.668	31.5663
12.752	31.7147
12.836	31.828
12.92	32.0912
13.004	32.188
13.088	32.0657
13.172	31.9012
13.256	31.8447
13.34	31.6667
13.424	31.1933
13.508	30.8447
13.592	30.7393
13.676	30.6321
13.76	30.6024
13.844	30.678
13.928	30.7729
14.012	30.9058
14.096	31.0398
14.18	31.1572
14.264	31.1667
14.348	31.0483
14.432	30.8327
14.516	30.4792
14.6	30.1274
14.684	29.8787
14.768	29.5705
14.852	29.2219
14.936	29.1668
15.02	29.4648
15.104	29.7285
15.188	29.8137
15.272	29.9427
15.356	30.1113
15.44	30.1661
15.524	30.1424
15.608	30.076
15.692	29.9357
15.776	29.7447
15.86	29.4605
15.944	29.0255
16.028	28.6029
16.112	28.4075
16.196	28.3859
16.28	28.3121
16.364	28.1307
16.448	28.011
16.532	28.052
16.616	28.1827
16.7	28.3715
16.784	28.6369
16.868	28.8638
16.952	28.8963
17.036	28.7489
17.12	28.5463
17.204	28.3576
17.288	28.1955
17.372	28.0764
17.456	28.0127
17.54	27.9848
17.624	27.9434
17.708	27.8515
17.792	27.7182
17.876	27.5643
17.96	27.3731
18.044	27.1263
18.128	26.8669
18.212	26.6673
18.296	26.5487
18.38	26.4727
18.464	26.4024
18.548	26.3333
18.632	26.2778
18.716	26.2629
18.8	26.3229
18.884	26.4517
18.968	26.5837
19.052	26.6508
19.136	26.6463
19.22	26.623
19.304	26.644
19.388	26.7318
19.472	26.8456
19.556	26.8989
19.64	26.8252
19.724	26.6435
19.808	26.4482
19.892	26.3071
19.976	26.1941
20.06	26.0275
20.144	25.7737
20.228	25.4888
20.312	25.2561
20.396	25.1033
20.48	24.9904
20.564	24.8733
20.648	24.7611
20.732	24.7115
20.816	24.781
20.9	24.9679
20.984	25.1883
21.068	25.3106
21.152	25.2268
21.236	24.919
21.32	24.4799
21.404	24.0717
21.488	23.8467
21.572	23.8757
21.656	24.1169
21.74	24.4466
21.824	24.7308
21.908	24.8954
21.992	24.9467
22.076	24.938
22.16	24.9235
22.244	24.917
22.328	24.8893
22.412	24.7935
22.496	24.5916
22.58	24.2893
22.664	23.9378
22.748	23.6187
22.832	23.4088
22.916	23.3526
23	23.4227
23.084	23.543
23.168	23.6346
23.252	23.6702
23.336	23.6741
23.42	23.6933
23.504	23.7528
23.588	23.8295
23.672	23.8582
23.756	23.7497
23.84	23.4441
23.924	22.9171
24.008	22.2
24.092	21.3942
24.176	20.6412
24.26	20.1277
24.344	20.0294
24.428	20.3986
24.512	21.1204
24.596	21.9414
24.68	22.572
24.764	22.8173
24.848	22.6755
24.932	22.3226
25.016	21.9895
25.1	21.7903
25.184	21.6687
25.268	21.4232
25.352	20.8299
25.436	19.6987
25.52	17.991
25.604	15.8346
25.688	13.4228
25.772	10.9301
25.856	8.461189
25.94	6.041080
26.024	3.679451
26.108	1.442641
26.192	-0.434985
26.276	-1.607112
26.36	-1.720670
26.444	-0.685568
26.528	1.189757
26.612	3.187212
26.696	4.435665
26.78	4.224098
26.864	2.292400
26.948	-1.053508
27.028	-4.836201