File: Bakgrunnsmateriale/MATLAB/FTIR/ftir_data/LPE453/Mapping_121/LPE453_t09_cm-1.asc
PE IR       SPECTRUM    SPECTRUM    ASCII       PEDS        1.60
  -1
LP67D9~1.ASC
17/05/16
15:04:55.00
17/05/16
15:04:55.00
tln
$LPE453_t0009$<tbV0>[-7.8,-13.0,8.0,0.0,27,1,0]
370
64

2002,4.07
MIRTGS : RIGHTBACK : INTERNAL 2
MIR : ON : INTERNAL 2
OPTKBR

0.200000
8
8.000000
FILLER
RATIO
SPECTRUM
UNLOCKED 256

DOUBLE
64
COMBINED
1
0
0

1.000000
RATIO

1
0
TRUE
51149
0
LEFT NOT FITTED RIGHT NOT FITTED 0
NONE
NONE
15600
12
4.427000
51148
TRUE
1 0 8 72 0 0 0 0

15798

#HDR
-1
-1
#GR
CM-1
%T
2.38419e-05
0.0
5000
-1.000000
4631
8
38.1472
-1.706743
#DATA
5000	-0.096464
4984	0.118970
4968	0.667619
4952	0.421261
4936	0.447058
4920	-0.253796
4904	0.271224
4888	0.493097
4872	0.174999
4856	0.554227
4840	0.502204
4824	0.081753
4808	0.404334
4792	0.153255
4776	-0.186634
4760	0.303769
4744	-0.143504
4728	0.104641
4712	-0.193309
4696	0.049400
4680	0.293016
4664	0.169825
4648	0.642323
4632	-0.086355
4616	0.268793
4600	0.071167
4584	-1.084733
4568	0.355267
4552	-1.623296
4536	0.052809
4520	11.5178
4504	1.736140
4488	-0.873208
4472	-0.004220
4456	-0.865268
4440	-0.290083
4424	0.010251
4408	0.210595
4392	0.235104
4376	0.021290
4360	0.292205
4344	-0.009942
4328	0.334858
4312	0.130867
4296	-0.115108
4280	0.238871
4264	-0.344967
4248	0.407624
4232	0.114989
4216	0.109648
4200	-0.086903
4184	0.405287
4168	1.219272
4152	0.289869
4136	0.193810
4120	0.182533
4104	-0.051784
4088	0.061702
4072	0.217485
4056	0.072646
4040	0.138831
4024	0.023031
4008	0.210046
3992	0.214958
3976	0.034737
3960	-0.080800
3944	0.122022
3928	-0.008654
3912	0.247907
3896	0.087618
3880	-0.074338
3864	0.021028
3848	0.076198
3832	0.195884
3816	-0.042533
3800	0.071525
3784	0.157618
3768	0.062918
3752	0.196337
3736	0.085735
3720	0.037956
3704	0.182700
3688	0.087237
3672	-0.022578
3656	0.044631
3640	-0.022292
3624	0.100255
3608	0.049257
3592	0.051999
3576	0.272822
3560	-0.166583
3544	-0.099587
3528	0.045323
3512	0.041723
3496	-0.063586
3480	0.261735
3464	0.223612
3448	0.102186
3432	0.014257
3416	0.080585
3400	-0.149965
3384	0.112557
3368	0.037360
3352	-0.076961
3336	-0.004076
3320	0.174093
3304	0.032496
3288	0.096416
3272	-0.089526
3256	0.065088
3240	-0.018787
3224	0.095844
3208	0.246596
3192	-0.048613
3176	0.015664
3160	0.022864
3144	-0.046014
3128	0.285649
3112	0.035762
3096	0.056242
3080	-0.060606
3064	0.085926
3048	-0.020837
3032	-0.005841
3016	0.114059
3000	0.105357
2984	0.003004
2968	0.216531
2952	-0.001955
2936	0.146627
2920	-0.010204
2904	0.125575
2888	0.010061
2872	0.050902
2856	0.062179
2840	0.018620
2824	0.042605
2808	-0.027108
2792	0.042724
2776	-0.006723
2760	0.018882
2744	0.028133
2728	0.090885
2712	-0.043463
2696	0.069308
2680	0.040769
2664	-0.000643
2648	0.038409
2632	0.036978
2616	0.065708
2600	-0.061702
2584	0.047516
2568	-0.104951
2552	-0.058412
2536	-0.080633
2520	0.061941
2504	-0.083875
2488	0.081753
2472	0.109934
2456	0.012731
2440	0.010347
2424	-0.173830
2408	-0.036406
2392	0.075960
2376	0.033688
2360	0.228047
2344	0.190258
2328	0.452470
2312	0.534033
2296	0.871872
2280	1.201462
2264	1.564574
2248	2.406930
2232	3.045058
2216	4.123854
2200	5.307531
2184	6.762456
2168	8.333277
2152	10.203
2136	12.156
2120	14.3184
2104	16.2959
2088	18.511
2072	20.5964
2056	22.6922
2040	24.2073
2024	25.8349
2008	27.355
1992	28.6854
1976	29.9467
1960	31.0416
1944	32.0105
1928	32.8737
1912	33.6236
1896	34.351
1880	34.8243
1864	35.3562
1848	35.6868
1832	36.2492
1816	36.5595
1800	36.7104
1784	37.0586
1768	37.251
1752	37.4326
1736	37.4781
1720	37.384
1704	37.9359
1688	37.9308
1672	37.7833
1656	38.0188
1640	37.9681
1624	37.8754
1608	37.6175
1592	37.7081
1576	37.9074
1560	37.9469
1544	37.8748
1528	37.7596
1512	37.8849
1496	37.4909
1480	37.4362
1464	37.7219
1448	37.3014
1432	37.1243
1416	37.2372
1400	37.4295
1384	37.2596
1368	36.9306
1352	37.0072
1336	37.1898
1320	36.7178
1304	36.59
1288	36.6999
1272	36.9407
1256	36.4159
1240	36.1247
1224	36.6571
1208	36.6331
1192	36.1581
1176	36.0295
1160	36.4014
1144	36.124
1128	35.6903
1112	35.4673
1096	36.2046
1080	36.0596
1064	35.2213
1048	35.1353
1032	35.7659
1016	35.602
1000	34.7984
984	 34.7753
968	 35.3817
952	 35.0541
936	 34.4989
920	 34.428
904	 34.7168
888	 34.2268
872	 33.7667
856	 34.012
840	 34.5153
824	 33.6796
808	 32.9009
792	 33.4111
776	 33.3379
760	 33.0256
744	 31.9851
728	 32.5707
712	 33.1577
696	 32.0366
680	 31.5036
664	 31.7224
648	 31.8496
632	 30.1139
616	 30.2518
600	 30.3691
584	 30.9993
568	 29.3322
552	 29.1733
536	 28.4964
520	 28.5925
504	 28.0191
488	 27.0183
472	 28.686
456	 27.6578
440	 27.0962
424	 24.0546
408	 21.7835
392	 11.4767
376	 12.5228
370	 21.9832