File: Bakgrunnsmateriale/MATLAB/FTIR/ftir_data/LPE453/Mapping_121/LPE453_t93.asc
PE IR       SPECTRUM    SPECTRUM    ASCII       PEDS        1.60
  -1
LPC7B5~1.ASC
17/05/16
22:02:03.00
17/05/16
22:02:29.00
tln
$LPE453_t0093$<tbV0>[2.6,7.8,8.0,0.0,27,1,0]
27.028
64

2002,4.07
MIRTGS : RIGHTBACK : INTERNAL 2
MIR : ON : INTERNAL 2
OPTKBR

0.200000
8
8.000000
FILLER
RATIO
SPECTRUM
UNLOCKED 256

DOUBLE
64
COMBINED
1
0
0

0.002000
RATIO

1
0
TRUE
51149
0
LEFT NOT FITTED RIGHT NOT FITTED 0
NONE
NONE
15600
12
4.427000
51148
TRUE
1 0 8 72 0 0 0 0

15798

#HDR
-1
-1
#GR
µM
%T
2.38419e-05
0.0
2.000000
0.002000
12515
8
35.269
-36.1995
#DATA
2.000000	 0.520515
2.084000	 0.274271
2.168000	 0.394537
2.252000	 -1.650929
2.336000	 0.005664
2.420000	 0.044406
2.504000	 0.021712
2.588000	 -0.010626
2.672000	 0.115458
2.756000	 0.017868
2.840000	 0.179635
2.924000	 -0.018201
3.008000	 0.012798
3.092000	 -0.038352
3.176000	 0.184935
3.260000	 -0.032062
3.344000	 0.042797
3.428000	 0.110976
3.512000	 0.118258
3.596000	 0.096561
3.680000	 -0.058188
3.764000	 0.020830
3.848000	 -0.010960
3.932000	 0.017742
4.016000	 -0.056284
4.100000	 -0.054790
4.184000	 0.016705
4.268000	 0.079765
4.352000	 0.530870
4.436000	 1.610565
4.520000	 3.535872
4.604000	 7.026147
4.688000	 11.354
4.772000	 16.199
4.856000	 20.519
4.940000	 24.1102
5.024000	 27.1943
5.108000	 29.0972
5.192000	 30.6142
5.276000	 32.1558
5.359999	 32.6724
5.444000	 33.6452
5.528000	 33.6308
5.612000	 34.3911
5.696000	 34.1459
5.780000	 34.7624
5.864000	 34.3361
5.948000	 35.0162
6.032000	 34.6298
6.116000	 34.6953
6.200000	 35.0412
6.284000	 34.4623
6.368000	 35.178
6.452000	 34.8438
6.536000	 34.4938
6.620000	 35.2442
6.704000	 34.5909
6.788000	 34.4293
6.872000	 35.0181
6.956000	 34.501
7.040000	 34.1769
7.124000	 34.7388
7.208000	 34.6903
7.292000	 34.2309
7.376000	 34.3418
7.460000	 34.7879
7.544000	 34.3722
7.628000	 34.0194
7.712000	 34.2886
7.796000	 34.6296
7.880000	 34.223
7.964000	 33.6702
8.048000	 33.9466
8.132000	 34.5041
8.216000	 34.2435
8.300000	 33.5127
8.384000	 33.4019
8.468000	 34.0084
8.552000	 34.3677
8.635999	 33.7237
8.719999	 33.3049
8.804000	 33.2743
8.888000	 33.6009
8.972000	 33.93
9.056000	 33.7475
9.140000	 32.965
9.224000	 32.9653
9.308000	 33.1423
9.391999	 33.4474
9.475999	 33.659
9.560000	 33.4243
9.644000	 32.8759
9.728000	 32.5175
9.812000	 32.463
9.896000	 33.0419
9.980000	 33.2037
10.064	33.1031
10.148	32.8709
10.232	32.3283
10.316	31.8439
10.4	32.1163
10.484	32.5227
10.568	32.6502
10.652	32.5786
10.736	32.3843
10.82	32.0051
10.904	31.6206
10.988	31.4559
11.072	31.4081
11.156	31.6981
11.24	32.0517
11.324	32.2261
11.408	31.9994
11.492	31.3693
11.576	30.8629
11.66	30.589
11.744	30.6287
11.828	30.7813
11.912	31.0879
11.996	31.357
12.08	31.2899
12.164	31.0978
12.248	30.7063
12.332	30.2303
12.416	29.9071
12.5	29.8282
12.584	29.7329
12.668	29.8954
12.752	30.2997
12.836	30.6272
12.92	30.6752
13.004	30.4576
13.088	30.1568
13.172	29.8799
13.256	29.5594
13.34	29.2302
13.424	28.9861
13.508	28.9025
13.592	29.0694
13.676	29.2961
13.76	29.3674
13.844	29.4572
13.928	29.5865
14.012	29.6001
14.096	29.3586
14.18	29.0693
14.264	28.8279
14.348	28.6215
14.432	28.4669
14.516	28.143
14.6	27.7404
14.684	27.5283
14.768	27.5327
14.852	27.5628
14.936	27.5508
15.02	27.7669
15.104	28.1373
15.188	28.2667
15.272	28.1816
15.356	28.1109
15.44	28.0162
15.524	27.7676
15.608	27.3702
15.692	26.9596
15.776	26.7303
15.86	26.6524
15.944	26.5507
16.028	26.5163
16.112	26.656
16.196	26.7396
16.28	26.6092
16.364	26.4634
16.448	26.4976
16.532	26.6564
16.616	26.8192
16.7	26.9119
16.784	26.847
16.868	26.5959
16.952	26.2728
17.036	25.9985
17.12	25.7931
17.204	25.6713
17.288	25.6657
17.372	25.6955
17.456	25.6043
17.54	25.374
17.624	25.1458
17.708	25.0422
17.792	25.0705
17.876	25.1465
17.96	25.1578
18.044	25.0443
18.128	24.8509
18.212	24.6926
18.296	24.6723
18.38	24.8207
18.464	25.0575
18.548	25.2159
18.632	25.1735
18.716	24.9638
18.8	24.7255
18.884	24.5473
18.968	24.4092
19.052	24.2581
19.136	24.0961
19.22	23.9724
19.304	23.9237
19.388	23.9378
19.472	23.9566
19.556	23.9082
19.64	23.7516
19.724	23.5177
19.808	23.3102
19.892	23.2489
19.976	23.3796
20.06	23.6321
20.144	23.8756
20.228	24.0247
20.312	24.0936
20.396	24.1491
20.48	24.2237
20.564	24.2821
20.648	24.2705
20.732	24.1862
20.816	24.0909
20.9	24.0461
20.984	24.0417
21.068	23.9973
21.152	23.8337
21.236	23.5468
21.32	23.2078
21.404	22.9
21.488	22.6525
21.572	22.4389
21.656	22.223
21.74	21.9943
21.824	21.7773
21.908	21.6015
21.992	21.4639
22.076	21.3341
22.16	21.1903
22.244	21.0524
22.328	20.9684
22.412	20.9675
22.496	21.0288
22.58	21.1174
22.664	21.2305
22.748	21.4064
22.832	21.6683
22.916	21.9675
23	22.1745
23.084	22.1519
23.168	21.8376
23.252	21.3169
23.336	20.8069
23.42	20.5247
23.504	20.5974
23.588	20.9895
23.672	21.5331
23.756	21.9959
23.84	22.2178
23.924	22.1219
24.008	21.7589
24.092	21.29
24.176	20.8352
24.26	20.4486
24.344	20.0709
24.428	19.5812
24.512	18.9412
24.596	18.2389
24.68	17.7039
24.764	17.6328
24.848	18.2413
24.932	19.5615
25.016	21.3682
25.1	23.263
25.184	24.7315
25.268	25.3089
25.352	24.6872
25.436	22.6329
25.52	19.0391
25.604	13.95
25.688	7.612861
25.772	0.485552
25.856	-6.865949
25.94	-13.8947
26.024	-20.1867
26.108	-25.5438
26.192	-29.9107
26.276	-33.2302
26.36	-35.3674
26.444	-36.1915
26.528	-35.663
26.612	-33.9599
26.696	-31.4176
26.78	-28.5255
26.864	-25.7237
26.948	-23.3231
27.028	-21.5941