File: Bakgrunnsmateriale/MATLAB/FTIR/ftir_data/LPE453/Mapping_121/LPE453_t36.asc
PE IR       SPECTRUM    SPECTRUM    ASCII       PEDS        1.60
  -1
LPDF91~1.ASC
17/05/16
17:17:50.00
17/05/16
17:18:16.00
tln
$LPE453_t0036$<tbV0>[7.8,-5.2,8.0,0.0,27,1,0]
27.028
64

2002,4.07
MIRTGS : RIGHTBACK : INTERNAL 2
MIR : ON : INTERNAL 2
OPTKBR

0.200000
8
8.000000
FILLER
RATIO
SPECTRUM
UNLOCKED 256

DOUBLE
64
COMBINED
1
0
0

0.002000
RATIO

1
0
TRUE
51149
0
LEFT NOT FITTED RIGHT NOT FITTED 0
NONE
NONE
15600
12
4.427000
51148
TRUE
1 0 8 72 0 0 0 0

15798

#HDR
-1
-1
#GR
µM
%T
2.38419e-05
0.0
2.000000
0.002000
12515
8
31.4887
-10.6464
#DATA
2.000000	 0.272011
2.084000	 0.278012
2.168000	 0.460026
2.252000	 -0.718339
2.336000	 0.112244
2.420000	 0.028265
2.504000	 0.185848
2.588000	 -0.014783
2.672000	 0.024054
2.756000	 -0.023361
2.840000	 0.032650
2.924000	 0.144913
3.008000	 0.205661
3.092000	 0.079676
3.176000	 0.216682
3.260000	 0.012982
3.344000	 0.053250
3.428000	 0.095808
3.512000	 0.021239
3.596000	 -0.105621
3.680000	 -0.054515
3.764000	 0.066211
3.848000	 0.070210
3.932000	 0.030197
4.016000	 0.136129
4.100000	 0.102160
4.184000	 0.007984
4.268000	 0.034946
4.352000	 -0.071464
4.436000	 0.052343
4.520000	 0.344654
4.604000	 1.388157
4.688000	 3.036070
4.772000	 5.631672
4.856000	 8.390092
4.940000	 11.4609
5.024000	 13.8842
5.108000	 16.0476
5.192000	 17.5169
5.276000	 18.9285
5.359999	 19.8735
5.444000	 20.5
5.528000	 21.081
5.612000	 21.5136
5.696000	 21.6691
5.780000	 21.9421
5.864000	 22.1312
5.948000	 22.1575
6.032000	 22.1801
6.116000	 22.1874
6.200000	 22.2401
6.284000	 22.2235
6.368000	 22.0627
6.452000	 22.0116
6.536000	 22.1801
6.620000	 22.0857
6.704000	 21.9558
6.788000	 21.9857
6.872000	 21.8973
6.956000	 21.8442
7.040000	 21.7963
7.124000	 21.6392
7.208000	 21.7515
7.292000	 21.6494
7.376000	 21.4715
7.460000	 21.5224
7.544000	 21.6156
7.628000	 21.4982
7.712000	 21.3511
7.796000	 21.3422
7.880000	 21.1631
7.964000	 21.3063
8.048000	 21.2372
8.132000	 21.194
8.216000	 21.1049
8.300000	 20.9748
8.384000	 20.9214
8.468000	 20.8894
8.552000	 20.8518
8.635999	 20.7714
8.719999	 20.6362
8.804000	 20.4553
8.888000	 20.4791
8.972000	 20.491
9.056000	 20.5477
9.140000	 20.3964
9.224000	 20.1746
9.308000	 20.3629
9.391999	 20.0169
9.475999	 19.9847
9.560000	 20.0124
9.644000	 19.7967
9.728000	 19.6133
9.812000	 19.5842
9.896000	 19.4951
9.980000	 19.3966
10.064	19.2768
10.148	19.2134
10.232	19.3061
10.316	19.0999
10.4	18.9888
10.484	18.7993
10.568	18.7871
10.652	18.6498
10.736	18.5336
10.82	18.463
10.904	18.47
10.988	18.2269
11.072	18.242
11.156	18.0478
11.24	17.9379
11.324	17.7773
11.408	17.7607
11.492	17.7003
11.576	17.5488
11.66	17.4135
11.744	17.338
11.828	17.2741
11.912	17.0818
11.996	17.0678
12.08	17.2999
12.164	17.1623
12.248	17.0457
12.332	16.9961
12.416	16.8742
12.5	16.6463
12.584	16.519
12.668	16.4879
12.752	16.3111
12.836	16.1777
12.92	15.9924
13.004	15.815
13.088	15.8595
13.172	15.881
13.256	15.7576
13.34	15.4527
13.424	15.2292
13.508	15.3939
13.592	15.3146
13.676	15.1747
13.76	15.2617
13.844	15.312
13.928	15.1136
14.012	14.8389
14.096	14.8153
14.18	14.8335
14.264	14.7438
14.348	14.5735
14.432	14.3821
14.516	14.2604
14.6	14.2337
14.684	14.1839
14.768	14.0648
14.852	14.0231
14.936	14.0138
15.02	13.7867
15.104	13.467
15.188	13.4503
15.272	13.6581
15.356	13.7148
15.44	13.5776
15.524	13.4228
15.608	13.3222
15.692	13.2473
15.776	13.2092
15.86	13.2649
15.944	13.3314
16.028	13.2691
16.112	13.165
16.196	13.1472
16.28	13.0922
16.364	12.8315
16.448	12.4235
16.532	12.0824
16.616	11.9729
16.7	12.0612
16.784	12.1821
16.868	12.2856
16.952	12.4209
17.036	12.5069
17.12	12.3985
17.204	12.1461
17.288	11.9592
17.372	11.9535
17.456	12.0652
17.54	12.1476
17.624	12.1048
17.708	11.9546
17.792	11.7714
17.876	11.5895
17.96	11.3677
18.044	11.0673
18.128	10.7482
18.212	10.582
18.296	10.7282
18.38	11.1566
18.464	11.6202
18.548	11.8487
18.632	11.7695
18.716	11.531
18.8	11.3381
18.884	11.2869
18.968	11.3399
19.052	11.3855
19.136	11.3243
19.22	11.1408
19.304	10.9284
19.388	10.8079
19.472	10.8072
19.556	10.8433
19.64	10.8172
19.724	10.7085
19.808	10.5588
19.892	10.4063
19.976	10.2619
20.06	10.1411
20.144	10.0685
20.228	10.0436
20.312	10.0308
20.396	10.0023
20.48	9.960553
20.564	9.933120
20.648	9.938872
20.732	9.972824
20.816	10.0047
20.9	9.992803
20.984	9.902908
21.068	9.719771
21.152	9.456599
21.236	9.155295
21.32	8.880720
21.404	8.707337
21.488	8.714046
21.572	8.953310
21.656	9.410214
21.74	9.988615
21.824	10.5386
21.908	10.9218
21.992	11.0657
22.076	10.9675
22.16	10.6741
22.244	10.2623
22.328	9.815299
22.412	9.406763
22.496	9.085513
22.58	8.849442
22.664	8.651315
22.748	8.434532
22.832	8.192307
22.916	7.988047
23	7.925922
23.084	8.087325
23.168	8.465904
23.252	8.938520
23.336	9.298849
23.42	9.377932
23.504	9.077771
23.588	8.459224
23.672	7.718881
23.756	7.101244
23.84	6.806275
23.924	6.915005
24.008	7.349310
24.092	7.904575
24.176	8.372200
24.26	8.625225
24.344	8.680551
24.428	8.696794
24.512	8.913999
24.596	9.487656
24.68	10.3616
24.764	11.2271
24.848	11.6553
24.932	11.1542
25.016	9.396058
25.1	6.362866
25.184	2.386152
25.268	-1.929431
25.352	-5.899117
25.436	-8.876868
25.52	-10.4439
25.604	-10.4526
25.688	-8.923457
25.772	-6.044367
25.856	-2.166674
25.94	2.153095
26.024	6.149991
26.108	9.003064
26.192	10.1134
26.276	9.293353
26.36	6.820483
26.444	3.476956
26.528	0.295380
26.612	-1.778613
26.696	-2.168608
26.78	-0.844056
26.864	1.709236
26.948	4.731364
27.028	7.444787