File: Bakgrunnsmateriale/MATLAB/FTIR/ftir_data/LPE453/Mapping_121/LPE453_t10_cm-1.asc
PE IR       SPECTRUM    SPECTRUM    ASCII       PEDS        1.60
  -1
LPD755~1.ASC
17/05/16
15:09:32.00
17/05/16
15:09:32.00
tln
$LPE453_t0010$<tbV0>[-10.4,-13.0,8.0,0.0,27,1,0]
370
64

2002,4.07
MIRTGS : RIGHTBACK : INTERNAL 2
MIR : ON : INTERNAL 2
OPTKBR

0.200000
8
8.000000
FILLER
RATIO
SPECTRUM
UNLOCKED 256

DOUBLE
64
COMBINED
1
0
0

1.000000
RATIO

1
0
TRUE
51149
0
LEFT NOT FITTED RIGHT NOT FITTED 0
NONE
NONE
15600
12
4.427000
51148
TRUE
1 0 8 72 0 0 0 0

15798

#HDR
-1
-1
#GR
CM-1
%T
2.38419e-05
0.0
5000
-1.000000
4631
8
70.4176
-5.533123
#DATA
5000	0.144243
4984	0.025725
4968	0.722980
4952	0.019359
4936	0.353765
4920	-0.108551
4904	0.156784
4888	0.504899
4872	0.716233
4856	0.150489
4840	0.181508
4824	-0.180888
4808	0.084996
4792	0.261521
4776	-0.018334
4760	0.214934
4744	0.057387
4728	0.068068
4712	0.111365
4696	0.076603
4680	0.035738
4664	-0.091838
4648	0.516557
4632	0.579786
4616	-0.050258
4600	0.244927
4584	0.882601
4568	0.503706
4552	-0.413131
4536	0.543856
4520	-4.322266
4504	4.223012
4488	-0.950694
4472	0.962138
4456	0.387072
4440	0.892186
4424	0.346088
4408	0.431585
4392	0.405693
4376	0.331425
4360	0.120139
4344	0.269150
4328	-0.340962
4312	-0.270223
4296	0.125193
4280	0.047802
4264	0.189185
4248	0.412034
4232	-0.264573
4216	-0.219964
4200	0.134205
4184	0.755167
4168	0.886654
4152	0.086474
4136	-0.127673
4120	0.046730
4104	0.209999
4088	0.075435
4072	-0.034475
4056	0.128364
4040	0.024795
4024	0.085020
4008	0.149130
3992	0.309443
3976	-0.041270
3960	0.158953
3944	0.134611
3928	-0.014972
3912	0.162410
3896	0.054311
3880	-0.020718
3864	-0.012397
3848	0.272536
3832	0.215387
3816	0.055432
3800	0.072336
3784	0.089645
3768	0.037193
3752	0.048947
3736	0.235295
3720	0.078725
3704	0.072741
3688	0.124812
3672	0.119972
3656	0.047802
3640	0.066161
3624	0.030899
3608	0.015020
3592	0.208139
3576	0.083684
3560	-0.089788
3544	0.152206
3528	0.136566
3512	-0.152015
3496	0.064826
3480	-0.080204
3464	-0.118041
3448	0.139856
3432	0.050163
3416	-0.032758
3400	0.084328
3384	-0.080275
3368	0.036764
3352	0.026988
3336	0.110816
3320	0.012254
3304	0.097918
3288	0.133132
3272	-0.015974
3256	0.101733
3240	-0.149130
3224	0.215649
3208	0.093603
3192	0.189709
3176	0.103378
3160	0.119471
3144	0.234079
3128	0.004601
3112	0.000500
3096	0.029897
3080	0.085830
3064	0.037837
3048	0.096344
3032	0.075292
3016	-0.033330
3000	0.012516
2984	0.081086
2968	0.030112
2952	0.096774
2936	0.039529
2920	-0.036644
2904	0.015234
2888	-0.000047
2872	0.124120
2856	0.038862
2840	-0.058364
2824	0.109386
2808	0.025200
2792	0.078487
2776	0.002336
2760	-0.000786
2744	0.044751
2728	-0.077152
2712	0.064611
2696	0.053620
2680	0.040483
2664	0.082659
2648	-0.008940
2632	0.091958
2616	-0.031399
2600	-0.044298
2584	0.075840
2568	-0.002288
2552	0.054907
2536	0.075292
2520	0.113272
2504	0.179409
2488	-0.147366
2472	0.042176
2456	0.139808
2440	-0.018191
2424	0.119805
2408	0.045013
2392	0.214743
2376	0.133657
2360	0.078248
2344	0.178146
2328	0.296521
2312	0.405740
2296	0.680875
2280	0.809311
2264	1.188492
2248	1.587677
2232	2.251005
2216	3.070425
2200	4.196882
2184	5.300664
2168	6.597399
2152	8.212733
2136	9.921073
2120	11.7507
2104	13.496
2088	15.5481
2072	17.3254
2056	19.1222
2040	20.6723
2024	22.3365
2008	23.6115
1992	25.0799
1976	26.0363
1960	27.1373
1944	28.1457
1928	28.9668
1912	29.6067
1896	30.3266
1880	30.8051
1864	31.4134
1848	31.8355
1832	32.2665
1816	32.7017
1800	33.0656
1784	33.3913
1768	33.6319
1752	33.8401
1736	34.2036
1720	34.3765
1704	34.368
1688	34.5592
1672	34.7635
1656	34.9427
1640	34.7967
1624	34.9904
1608	34.8913
1592	34.8206
1576	35.2281
1560	35.4491
1544	35.229
1528	35.0731
1512	35.3814
1496	35.139
1480	35.0036
1464	35.1069
1448	35.0709
1432	34.8088
1416	35.0436
1400	35.0422
1384	35.0384
1368	34.6908
1352	34.7494
1336	34.9988
1320	34.7135
1304	34.4674
1288	34.3973
1272	34.4444
1256	34.1423
1240	34.0805
1224	34.1485
1208	34.1106
1192	33.8118
1176	33.7187
1160	33.7925
1144	33.518
1128	33.1444
1112	33.3868
1096	33.5865
1080	32.8829
1064	32.8206
1048	32.8192
1032	32.7899
1016	32.1933
1000	32.2815
984	 32.6068
968	 32.2354
952	 31.7972
936	 31.7719
920	 31.9172
904	 31.2255
888	 31.0904
872	 30.9736
856	 31.0481
840	 30.4841
824	 30.2418
808	 30.6544
792	 30.7075
776	 29.3916
760	 29.6384
744	 29.5458
728	 29.6257
712	 28.5592
696	 28.2301
680	 28.6818
664	 28.2477
648	 27.4734
632	 27.4216
616	 27.6684
600	 26.5926
584	 26.5328
568	 26.4878
552	 26.0913
536	 24.4625
520	 25.8267
504	 25.4372
488	 23.8188
472	 23.3191
456	 23.5335
440	 24.5118
424	 22.2095
408	 24.1323
392	 37.944
376	 45.4628
370	 27.4046