File: Bakgrunnsmateriale/MATLAB/FTIR/ftir_data/LPE453/Mapping_121/LPE453_t20.asc
PE IR       SPECTRUM    SPECTRUM    ASCII       PEDS        1.60
  -1
LPCB99~1.ASC
17/05/16
15:56:17.00
17/05/16
15:56:44.00
tln
$LPE453_t0020$<tbV0>[-7.8,-10.4,8.0,0.0,27,1,0]
27.028
64

2002,4.07
MIRTGS : RIGHTBACK : INTERNAL 2
MIR : ON : INTERNAL 2
OPTKBR

0.200000
8
8.000000
FILLER
RATIO
SPECTRUM
UNLOCKED 256

DOUBLE
64
COMBINED
1
0
0

0.002000
RATIO

1
0
TRUE
51149
0
LEFT NOT FITTED RIGHT NOT FITTED 0
NONE
NONE
15600
12
4.427000
51148
TRUE
1 0 8 72 0 0 0 0

15798

#HDR
-1
-1
#GR
µM
%T
2.38419e-05
0.0
2.000000
0.002000
12515
8
34.5041
-15.9177
#DATA
2.000000	 -0.224494
2.084000	 0.231176
2.168000	 -0.060890
2.252000	 0.037192
2.336000	 -0.075358
2.420000	 -0.023811
2.504000	 0.115996
2.588000	 -0.017048
2.672000	 0.061228
2.756000	 0.122525
2.840000	 -0.022696
2.924000	 0.090821
3.008000	 0.001118
3.092000	 0.044830
3.176000	 -0.069115
3.260000	 0.129164
3.344000	 0.036297
3.428000	 0.040305
3.512000	 0.136735
3.596000	 0.081375
3.680000	 -0.002827
3.764000	 0.060887
3.848000	 0.078610
3.932000	 -0.048258
4.016000	 0.075456
4.100000	 -0.065308
4.184000	 0.189510
4.268000	 0.420354
4.352000	 0.926908
4.436000	 1.899103
4.520000	 3.935980
4.604000	 7.013227
4.688000	 10.5895
4.772000	 14.3559
4.856000	 18.1017
4.940000	 20.3302
5.024000	 22.7272
5.108000	 24.1825
5.192000	 25.3643
5.276000	 26.218
5.359999	 26.9668
5.444000	 27.3069
5.528000	 28.0287
5.612000	 27.7502
5.696000	 28.7101
5.780000	 28.4666
5.864000	 28.7784
5.948000	 29.3636
6.032000	 28.7575
6.116000	 29.5246
6.200000	 29.6076
6.284000	 28.9624
6.368000	 29.7922
6.452000	 29.9573
6.536000	 29.3552
6.620000	 29.9035
6.704000	 30.5116
6.788000	 29.9462
6.872000	 29.8165
6.956000	 30.53
7.040000	 30.9312
7.124000	 30.1741
7.208000	 30.3242
7.292000	 31.0657
7.376000	 31.1347
7.460000	 30.7082
7.544000	 30.4272
7.628000	 31.1437
7.712000	 31.6616
7.796000	 31.567
7.880000	 30.7229
7.964000	 30.9578
8.048000	 31.7371
8.132000	 32.1805
8.216000	 31.8552
8.300000	 31.406
8.384000	 31.2226
8.468000	 31.8983
8.552000	 32.3582
8.635999	 32.6651
8.719999	 32.3288
8.804000	 31.9169
8.888000	 31.7564
8.972000	 32.4587
9.056000	 33.2137
9.140000	 33.3785
9.224000	 32.7434
9.308000	 32.1858
9.391999	 31.9407
9.475999	 32.0915
9.560000	 32.6684
9.644000	 33.356
9.728000	 33.4528
9.812000	 33.0058
9.896000	 32.7655
9.980000	 32.378
10.064	32.4135
10.148	32.9627
10.232	33.5
10.316	33.9104
10.4	33.9106
10.484	33.7703
10.568	33.4702
10.652	33.0093
10.736	32.8978
10.82	32.9208
10.904	33.106
10.988	33.6059
11.072	34.1734
11.156	34.4129
11.24	34.2166
11.324	33.9213
11.408	33.5068
11.492	33.177
11.576	32.6545
11.66	32.7472
11.744	33.2136
11.828	33.6633
11.912	34.2003
11.996	34.493
12.08	34.4127
12.164	34.2227
12.248	33.8015
12.332	33.5008
12.416	33.1724
12.5	33.0147
12.584	33.0829
12.668	33.1769
12.752	33.3317
12.836	33.5542
12.92	33.8204
13.004	34.0406
13.088	34.2574
13.172	34.4052
13.256	34.0498
13.34	33.5745
13.424	33.2025
13.508	32.7127
13.592	32.3262
13.676	32.2989
13.76	32.4675
13.844	32.6598
13.928	32.9845
14.012	33.3029
14.096	33.5649
14.18	33.9222
14.264	34.2095
14.348	34.0328
14.432	33.5417
14.516	33.3947
14.6	33.4919
14.684	33.3334
14.768	33.0429
14.852	32.7699
14.936	32.329
15.02	32.0037
15.104	32.0798
15.188	32.1561
15.272	32.0924
15.356	32.1834
15.44	32.4719
15.524	32.7355
15.608	32.7946
15.692	32.7729
15.776	32.8769
15.86	33.0752
15.944	33.2353
16.028	33.2526
16.112	33.0524
16.196	32.7117
16.28	32.3914
16.364	32.1243
16.448	31.8725
16.532	31.6765
16.616	31.5695
16.7	31.4906
16.784	31.3581
16.868	31.1456
16.952	30.9379
17.036	30.8782
17.12	31.0072
17.204	31.245
17.288	31.5326
17.372	31.8761
17.456	32.2495
17.54	32.5553
17.624	32.6887
17.708	32.6385
17.792	32.4837
17.876	32.2854
17.96	32.0574
18.044	31.8573
18.128	31.7795
18.212	31.8049
18.296	31.8013
18.38	31.7278
18.464	31.6639
18.548	31.616
18.632	31.4459
18.716	31.056
18.8	30.5422
18.884	30.0898
18.968	29.8115
19.052	29.7114
19.136	29.717
19.22	29.7224
19.304	29.6824
19.388	29.6556
19.472	29.7176
19.556	29.8426
19.64	29.9204
19.724	29.8957
19.808	29.8399
19.892	29.8526
19.976	29.9444
20.06	30.0453
20.144	30.0845
20.228	30.042
20.312	29.9597
20.396	29.908
20.48	29.9443
20.564	30.0709
20.648	30.242
20.732	30.3961
20.816	30.4992
20.9	30.5424
20.984	30.5083
21.068	30.3886
21.152	30.2478
21.236	30.2261
21.32	30.4374
21.404	30.8368
21.488	31.2152
21.572	31.3331
21.656	31.0765
21.74	30.5126
21.824	29.8261
21.908	29.2036
21.992	28.7697
22.076	28.5903
22.16	28.6815
22.244	28.9984
22.328	29.4196
22.412	29.7626
22.496	29.8647
22.58	29.6673
22.664	29.227
22.748	28.6861
22.832	28.1712
22.916	27.7397
23	27.4265
23.084	27.2636
23.168	27.2682
23.252	27.4093
23.336	27.5927
23.42	27.6864
23.504	27.6058
23.588	27.3737
23.672	27.1232
23.756	27.0808
23.84	27.4674
23.924	28.3861
24.008	29.7485
24.092	31.236
24.176	32.3294
24.26	32.5289
24.344	31.5119
24.428	29.315
24.512	26.363
24.596	23.3355
24.68	20.9895
24.764	19.9098
24.848	20.2302
24.932	21.7126
25.016	23.8943
25.1	26.2867
25.184	28.4819
25.268	30.2618
25.352	31.5694
25.436	32.3862
25.52	32.6247
25.604	32.0919
25.688	30.4182
25.772	27.2461
25.856	22.5183
25.94	16.7656
26.024	11.147
26.108	7.099950
26.192	5.614016
26.276	6.786276
26.36	9.710340
26.444	12.7047
26.528	13.9912
26.612	12.4336
26.696	7.857595
26.78	1.088371
26.864	-6.293236
26.948	-12.4854
27.028	-15.9177