File: Bakgrunnsmateriale/MATLAB/FTIR/ftir_data/LPE453/Mapping_121/LPE453_t49_cm-1.asc
PE IR       SPECTRUM    SPECTRUM    ASCII       PEDS        1.60
  -1
LP69D9~1.ASC
17/05/16
18:24:43.00
17/05/16
18:24:43.00
tln
$LPE453_t0049$<tbV0>[2.6,-2.6,8.0,0.0,27,1,0]
370
64

2002,4.07
MIRTGS : RIGHTBACK : INTERNAL 2
MIR : ON : INTERNAL 2
OPTKBR

0.200000
8
8.000000
FILLER
RATIO
SPECTRUM
UNLOCKED 256

DOUBLE
64
COMBINED
1
0
0

1.000000
RATIO

1
0
TRUE
51149
0
LEFT NOT FITTED RIGHT NOT FITTED 0
NONE
NONE
15600
12
4.427000
51148
TRUE
1 0 8 72 0 0 0 0

15798

#HDR
-1
-1
#GR
CM-1
%T
2.38419e-05
0.0
5000
-1.000000
4631
8
24.6228
-5.902576
#DATA
5000	0.247406
4984	0.090241
4968	-0.069808
4952	0.288057
4936	0.129842
4920	0.023269
4904	0.101661
4888	0.195431
4872	0.510287
4856	0.037360
4840	0.475287
4824	-0.210928
4808	0.248718
4792	-0.322151
4776	-0.068998
4760	-0.002121
4744	-0.202465
4728	-0.099802
4712	-0.000953
4696	0.266289
4680	0.366878
4664	0.044345
4648	0.468063
4632	0.142669
4616	0.326275
4600	0.374102
4584	0.400280
4568	-0.339055
4552	0.444602
4536	-0.039458
4520	4.250955
4504	1.018071
4488	0.192737
4472	0.135469
4456	-0.708913
4440	-0.173163
4424	0.023865
4408	0.101232
4392	0.196599
4376	0.147986
4360	0.223159
4344	0.133895
4328	0.219202
4312	0.173163
4296	-0.069475
4280	0.094914
4264	0.025677
4248	-0.171637
4232	0.140571
4216	0.316905
4200	0.398921
4184	-0.224733
4168	0.406146
4152	0.274562
4136	0.195622
4120	0.006651
4104	0.047731
4088	-0.015544
4072	-0.130105
4056	-0.043511
4040	0.275373
4024	0.026226
4008	-0.017452
3992	0.106024
3976	0.220751
3960	-0.014400
3944	-0.043129
3928	0.091505
3912	0.093483
3896	0.083827
3880	-0.145721
3864	0.078248
3848	0.004363
3832	0.056290
3816	0.201082
3800	0.079464
3784	0.142335
3768	0.066781
3752	0.206136
3736	0.155544
3720	-0.101852
3704	0.100040
3688	-0.102519
3672	0.111317
3656	-0.148582
3640	-0.016188
3624	-0.012612
3608	0.013566
3592	0.280594
3576	0.017666
3560	0.093722
3544	0.037002
3528	0.044345
3512	0.169944
3496	0.191664
3480	0.137305
3464	0.120711
3448	0.027871
3432	-0.040221
3416	0.011873
3400	-0.000834
3384	-0.030779
3368	0.017786
3352	-0.092983
3336	-0.080442
3320	0.214052
3304	0.144624
3288	0.154376
3272	0.104212
3256	0.198245
3240	-0.083923
3224	0.048089
3208	-0.040626
3192	0.058507
3176	-0.010323
3160	-0.089192
3144	0.050663
3128	0.029969
3112	0.101017
3096	0.004720
3080	0.197148
3064	0.109338
3048	0.083637
3032	-0.067949
3016	0.010228
3000	0.134611
2984	-0.013732
2968	-0.115919
2952	0.102043
2936	0.170660
2920	-0.041079
2904	0.000786
2888	0.012230
2872	0.002264
2856	0.018644
2840	0.083708
2824	-0.030994
2808	-0.028538
2792	0.046777
2776	-0.014448
2760	0.103497
2744	0.073266
2728	0.017142
2712	0.120115
2696	-0.047922
2680	0.096273
2664	0.032186
2648	0.081586
2632	-0.024056
2616	0.044417
2600	-0.040197
2584	0.071239
2568	-0.027346
2552	-0.085878
2536	0.064134
2520	0.014638
2504	-0.058150
2488	-0.023508
2472	-0.040793
2456	0.022411
2440	0.055146
2424	0.083041
2408	0.089621
2392	-0.108671
2376	0.060677
2360	-0.027322
2344	-0.063753
2328	-0.098276
2312	-0.034403
2296	-0.016283
2280	-0.028061
2264	0.040984
2248	0.120449
2232	0.388765
2216	0.658297
2200	0.942873
2184	1.523065
2168	2.076601
2152	2.819252
2136	4.002261
2120	5.077028
2104	6.375360
2088	7.642245
2072	9.036970
2056	10.6665
2040	12.0785
2024	13.4965
2008	14.736
1992	16.0633
1976	17.1547
1960	18.1939
1944	19.0044
1928	19.9742
1912	20.7466
1896	21.2399
1880	21.7974
1864	22.3042
1848	22.72
1832	23.051
1816	23.32
1800	23.6356
1784	23.8685
1768	24.0479
1752	24.2163
1736	24.2632
1720	24.3779
1704	24.4669
1688	24.4859
1672	24.492
1656	24.5121
1640	24.4558
1624	24.5534
1608	24.589
1592	24.5896
1576	24.542
1560	24.5383
1544	24.4701
1528	24.4403
1512	24.4443
1496	24.4227
1480	24.2442
1464	24.252
1448	24.2194
1432	24.0712
1416	24.182
1400	23.9834
1384	23.9967
1368	23.8417
1352	23.8311
1336	23.9007
1320	23.7242
1304	23.6293
1288	23.5709
1272	23.5028
1256	23.5154
1240	23.3011
1224	23.2913
1208	23.1288
1192	23.0567
1176	23.0101
1160	22.9663
1144	22.7957
1128	22.6426
1112	22.488
1096	22.3422
1080	22.4095
1064	22.0964
1048	22.212
1032	21.8685
1016	21.4092
1000	21.7577
984	 21.5042
968	 20.9019
952	 21.1594
936	 20.6525
920	 20.5538
904	 20.1799
888	 20.0328
872	 19.8082
856	 19.3629
840	 19.2343
824	 19.0011
808	 18.6478
792	 18.0446
776	 17.9114
760	 17.8091
744	 17.5481
728	 17.137
712	 16.749
696	 16.6037
680	 16.28
664	 15.5984
648	 15.1628
632	 14.7205
616	 14.6266
600	 13.8131
584	 13.918
568	 13.4438
552	 13.086
536	 12.7837
520	 12.4296
504	 11.9118
488	 11.0075
472	 11.627
456	 9.324622
440	 10.0614
424	 8.607363
408	 13.3782
392	 13.0773
376	 0.210523
370	 -3.165459