File: Bakgrunnsmateriale/MATLAB/FTIR/ftir_data/LPE453/Mapping_121/LPE453_t09.asc
PE IR       SPECTRUM    SPECTRUM    ASCII       PEDS        1.60
  -1
LPE39D~1.ASC
17/05/16
15:04:55.00
17/05/16
15:05:22.00
tln
$LPE453_t0009$<tbV0>[-7.8,-13.0,8.0,0.0,27,1,0]
27.028
64

2002,4.07
MIRTGS : RIGHTBACK : INTERNAL 2
MIR : ON : INTERNAL 2
OPTKBR

0.200000
8
8.000000
FILLER
RATIO
SPECTRUM
UNLOCKED 256

DOUBLE
64
COMBINED
1
0
0

0.002000
RATIO

1
0
TRUE
51149
0
LEFT NOT FITTED RIGHT NOT FITTED 0
NONE
NONE
15600
12
4.427000
51148
TRUE
1 0 8 72 0 0 0 0

15798

#HDR
-1
-1
#GR
µM
%T
2.38419e-05
0.0
2.000000
0.002000
12515
8
38.1469
-1.697283
#DATA
2.000000	 -0.096464
2.084000	 0.069048
2.168000	 0.001825
2.252000	 -0.266595
2.336000	 0.226760
2.420000	 0.279047
2.504000	 0.164347
2.588000	 0.021215
2.672000	 0.049930
2.756000	 0.205218
2.840000	 -0.182871
2.924000	 0.033595
3.008000	 0.067354
3.092000	 0.002206
3.176000	 -0.110065
3.260000	 0.066323
3.344000	 -0.027528
3.428000	 -0.093853
3.512000	 0.051832
3.596000	 -0.015146
3.680000	 -0.043263
3.764000	 0.048104
3.848000	 -0.051587
3.932000	 -0.010917
4.016000	 0.140691
4.100000	 0.000347
4.184000	 0.075867
4.268000	 0.214543
4.352000	 0.864610
4.436000	 2.106709
4.520000	 4.308403
4.604000	 7.948189
4.688000	 12.4469
4.772000	 17.4409
4.856000	 22.35
4.940000	 25.8067
5.024000	 28.8362
5.108000	 31.168
5.192000	 32.9873
5.276000	 34.3759
5.359999	 35.3181
5.444000	 36.1054
5.528000	 36.675
5.612000	 37.0681
5.696000	 37.4207
5.780000	 37.442
5.864000	 37.8757
5.948000	 37.9679
6.032000	 37.8983
6.116000	 37.9833
6.200000	 37.7855
6.284000	 37.7209
6.368000	 37.8233
6.452000	 37.7062
6.536000	 37.7956
6.620000	 37.9171
6.704000	 37.5309
6.788000	 37.6144
6.872000	 37.5605
6.956000	 37.3765
7.040000	 37.2414
7.124000	 37.329
7.208000	 37.3359
7.292000	 36.8999
7.376000	 36.9908
7.460000	 37.3331
7.544000	 36.966
7.628000	 36.6179
7.712000	 36.5869
7.796000	 36.8486
7.880000	 36.8165
7.964000	 36.4103
8.048000	 36.163
8.132000	 36.547
8.216000	 36.7277
8.300000	 36.5292
8.384000	 36.1819
8.468000	 36.0398
8.552000	 35.9867
8.635999	 36.4134
8.719999	 36.1632
8.804000	 36.0273
8.888000	 35.7256
8.972000	 35.4667
9.056000	 36.0449
9.140000	 36.2139
9.224000	 36.0878
9.308000	 35.7771
9.391999	 35.2596
9.475999	 34.8204
9.560000	 35.2332
9.644000	 35.5674
9.728000	 35.6909
9.812000	 35.4479
9.896000	 35.587
9.980000	 34.879
10.064	34.8587
10.148	34.8866
10.232	34.7102
10.316	35.3398
10.4	35.43
10.484	35.1636
10.568	34.8158
10.652	34.6043
10.736	34.23
10.82	34.1207
10.904	34.6803
10.988	34.8408
11.072	34.6729
11.156	34.3296
11.24	34.2185
11.324	34.248
11.408	33.9467
11.492	33.7918
11.576	33.9045
11.66	33.9767
11.744	34.1222
11.828	34.4242
11.912	34.5001
11.996	34.1666
12.08	33.874
12.164	33.5855
12.248	33.4179
12.332	33.0866
12.416	32.8009
12.5	32.7891
12.584	33.1618
12.668	33.5852
12.752	33.5949
12.836	33.3958
12.92	33.3357
13.004	33.3248
13.088	33.181
13.172	32.9833
13.256	32.6258
13.34	32.2614
13.424	32.0215
13.508	31.9048
13.592	32.0706
13.676	32.3885
13.76	32.645
13.844	32.9671
13.928	33.2472
14.012	33.2365
14.096	33.0289
14.18	32.8511
14.264	32.5106
14.348	32.1102
14.432	31.8446
14.516	31.657
14.6	31.5719
14.684	31.5178
14.768	31.491
14.852	31.5592
14.936	31.6582
15.02	31.7155
15.104	31.7301
15.188	31.8171
15.272	31.9879
15.356	32.0175
15.44	31.8274
15.524	31.5994
15.608	31.3247
15.692	30.8592
15.776	30.3329
15.86	30.0005
15.944	29.934
16.028	30.0397
16.112	30.1816
16.196	30.2536
16.28	30.225
16.364	30.1247
16.448	29.9932
16.532	29.9599
16.616	30.1576
16.7	30.5198
16.784	30.8454
16.868	31.0117
16.952	31.0579
17.036	31.0654
17.12	31.0047
17.204	30.7812
17.288	30.4374
17.372	30.1014
17.456	29.8046
17.54	29.5248
17.624	29.285
17.708	29.1215
17.792	29.0587
17.876	29.1025
17.96	29.1859
18.044	29.2054
18.128	29.1684
18.212	29.1664
18.296	29.1792
18.38	29.0659
18.464	28.791
18.548	28.5267
18.632	28.4669
18.716	28.6332
18.8	28.8883
18.884	29.0706
18.968	29.0859
19.052	28.9448
19.136	28.7455
19.22	28.6033
19.304	28.5664
19.388	28.6115
19.472	28.6899
19.556	28.7484
19.64	28.7144
19.724	28.5179
19.808	28.1746
19.892	27.7874
19.976	27.4477
20.06	27.1357
20.144	26.7898
20.228	26.463
20.312	26.3409
20.396	26.5486
20.48	26.9618
20.564	27.2708
20.648	27.2729
20.732	27.0693
20.816	26.9677
20.9	27.1841
20.984	27.6665
21.068	28.1891
21.152	28.5742
21.236	28.8172
21.32	29.0102
21.404	29.1882
21.488	29.2761
21.572	29.1787
21.656	28.8864
21.74	28.4853
21.824	28.0876
21.908	27.7414
21.992	27.4249
22.076	27.1184
22.16	26.8616
22.244	26.7457
22.328	26.8344
22.412	27.0925
22.496	27.3667
22.58	27.4859
22.664	27.3512
22.748	26.9932
22.832	26.5356
22.916	26.1024
23	25.7404
23.084	25.4053
23.168	25.0172
23.252	24.5443
23.336	24.0357
23.42	23.6733
23.504	23.6581
23.588	24.077
23.672	24.8462
23.756	25.7318
23.84	26.4466
23.924	26.7771
24.008	26.6455
24.092	26.094
24.176	25.2438
24.26	24.2455
24.344	23.2597
24.428	22.4068
24.512	21.7695
24.596	21.3203
24.68	20.817
24.764	19.8213
24.848	17.9048
24.932	14.8979
25.016	11.1196
25.1	7.325399
25.184	4.536849
25.268	3.579288
25.352	4.760806
25.436	7.812522
25.52	11.9878
25.604	16.4013
25.688	20.2052
25.772	22.8077
25.856	23.9402
25.94	23.6444
26.024	22.1635
26.108	19.8143
26.192	17.0385
26.276	14.3453
26.36	12.2601
26.444	11.2172
26.528	11.4425
26.612	12.8807
26.696	15.185
26.78	17.7818
26.864	20.068
26.948	21.5666
27.028	21.9832