File: Bakgrunnsmateriale/MATLAB/FTIR/ftir_data/LPE453/Mapping_121/LPE453_t21_cm-1.asc
PE IR       SPECTRUM    SPECTRUM    ASCII       PEDS        1.60
  -1
LP58D5~1.ASC
17/05/16
16:00:54.00
17/05/16
16:00:54.00
tln
$LPE453_t0021$<tbV0>[-10.4,-10.4,8.0,0.0,27,1,0]
370
64

2002,4.07
MIRTGS : RIGHTBACK : INTERNAL 2
MIR : ON : INTERNAL 2
OPTKBR

0.200000
8
8.000000
FILLER
RATIO
SPECTRUM
UNLOCKED 256

DOUBLE
64
COMBINED
1
0
0

1.000000
RATIO

1
0
TRUE
51149
0
LEFT NOT FITTED RIGHT NOT FITTED 0
NONE
NONE
15600
12
4.427000
51148
TRUE
1 0 8 72 0 0 0 0

15798

#HDR
-1
-1
#GR
CM-1
%T
2.38419e-05
0.0
5000
-1.000000
4631
8
43.0971
-12.7604
#DATA
5000	0.202107
4984	0.316166
4968	-0.171470
4952	0.998735
4936	0.247454
4920	-0.142884
4904	-0.082206
4888	0.170350
4872	0.876188
4856	0.520563
4840	0.014638
4824	0.037646
4808	0.021934
4792	0.301909
4776	0.335359
4760	0.050616
4744	-0.001001
4728	0.278091
4712	0.213813
4696	0.645041
4680	0.740623
4664	0.643277
4648	0.753092
4632	1.086378
4616	1.083111
4600	0.447297
4584	-0.213098
4568	-0.647997
4552	-0.939345
4536	0.662112
4520	10.0943
4504	-0.468301
4488	-1.585364
4472	-1.142954
4456	-1.117849
4440	-0.854659
4424	-0.044918
4408	0.500559
4392	0.553512
4376	0.567626
4360	0.810885
4344	0.355625
4328	0.032567
4312	0.244045
4296	0.174427
4280	-0.113677
4264	-0.182843
4248	0.001358
4232	0.213241
4216	0.383901
4200	0.160026
4184	0.410437
4168	0.022006
4152	0.426054
4136	0.123786
4120	0.053310
4104	0.151658
4088	-0.099444
4072	0.376605
4056	0.045514
4040	0.147485
4024	0.247788
4008	-0.117182
3992	0.182127
3976	0.302505
3960	0.377726
3944	0.165843
3928	0.059509
3912	-0.051379
3896	0.158333
3880	0.005054
3864	0.125479
3848	0.186419
3832	0.032520
3816	0.194764
3800	0.022268
3784	-0.009441
3768	0.206661
3752	0.052595
3736	0.142431
3720	0.100588
3704	-0.006985
3688	0.159335
3672	0.238370
3656	0.149345
3640	-0.037884
3624	0.181031
3608	-0.124979
3592	0.039553
3576	0.002145
3560	0.096917
3544	0.147366
3528	0.024056
3512	-0.062823
3496	0.061511
3480	-0.017547
3464	-0.169157
3448	-0.005722
3432	0.032663
3416	0.014710
3400	0.075817
3384	0.207114
3368	0.055265
3352	-0.028944
3336	0.036716
3320	0.179338
3304	0.121545
3288	0.065279
3272	0.137376
3256	0.107884
3240	0.153589
3224	0.092792
3208	0.082540
3192	-0.031685
3176	-0.010108
3160	0.038719
3144	0.392675
3128	0.198411
3112	-0.003838
3096	0.044655
3080	-0.007700
3064	0.052523
3048	0.116348
3032	0.051903
3016	0.053954
3000	-0.024485
2984	-0.107693
2968	-0.073146
2952	0.091862
2936	0.021839
2920	0.091195
2904	0.088500
2888	0.087070
2872	0.127840
2856	0.186610
2840	0.046539
2824	0.026869
2808	0.033879
2792	0.044727
2776	0.035405
2760	-0.098800
2744	0.031900
2728	0.139045
2712	0.091361
2696	-0.013256
2680	0.017738
2664	0.154852
2648	0.101590
2632	0.034022
2616	0.143051
2600	0.013923
2584	0.046801
2568	0.042843
2552	0.040626
2536	0.026822
2520	0.118064
2504	0.077652
2488	0.041079
2472	-0.016450
2456	0.146365
2440	0.192594
2424	0.358629
2408	0.079250
2392	0.115013
2376	0.168299
2360	0.228214
2344	0.213980
2328	0.406002
2312	0.555038
2296	0.782084
2280	1.009035
2264	1.490116
2248	2.159166
2232	2.744150
2216	3.746747
2200	4.885292
2184	6.379318
2168	7.803511
2152	9.646821
2136	11.4726
2120	13.4054
2104	15.4443
2088	17.4051
2072	19.4082
2056	21.5784
2040	23.0432
2024	24.6595
2008	26.164
1992	27.4375
1976	28.6865
1960	29.606
1944	30.7073
1928	31.5221
1912	32.2922
1896	32.7715
1880	33.3103
1864	33.7872
1848	34.2442
1832	34.4761
1816	34.9024
1800	35.1188
1784	35.3086
1768	35.5146
1752	35.6387
1736	36.0794
1720	35.8956
1704	35.9835
1688	36.1131
1672	36.2289
1656	36.3059
1640	36.0373
1624	36.1196
1608	36.0482
1592	35.9427
1576	36.0712
1560	36.3095
1544	36.2501
1528	36.0065
1512	36.0865
1496	36.1583
1480	35.854
1464	35.7408
1448	36.0555
1432	35.7539
1416	35.6817
1400	35.3965
1384	35.5897
1368	35.7593
1352	35.2008
1336	35.1292
1320	35.4262
1304	35.4293
1288	35.0502
1272	35.06
1256	35.1211
1240	35.0818
1224	34.8394
1208	35.0204
1192	35.1601
1176	34.7324
1160	34.4614
1144	34.8297
1128	34.827
1112	34.2964
1096	34.0197
1080	34.5241
1064	34.5714
1048	34.0951
1032	34.0458
1016	34.3474
1000	34.0215
984	 33.7278
968	 33.8385
952	 34.1654
936	 33.7101
920	 32.9396
904	 33.0312
888	 33.6056
872	 32.9279
856	 32.3357
840	 32.7979
824	 32.8799
808	 32.3328
792	 31.6876
776	 32.4463
760	 32.4909
744	 32.3263
728	 31.2749
712	 31.4555
696	 31.4665
680	 30.2724
664	 30.5365
648	 30.9968
632	 30.6256
616	 29.3453
600	 29.4146
584	 29.4085
568	 28.9962
552	 27.9359
536	 28.0522
520	 28.2892
504	 27.0941
488	 26.0566
472	 26.8852
456	 26.5959
440	 25.626
424	 23.7772
408	 25.4656
392	 -12.4293
376	 6.039857
370	 3.835272