File: Bakgrunnsmateriale/MATLAB/FTIR/ftir_data/LPE453/Mapping_121/LPE453_t76_cm-1.asc
PE IR       SPECTRUM    SPECTRUM    ASCII       PEDS        1.60
  -1
LPEA5A~1.ASC
17/05/16
20:36:34.00
17/05/16
20:36:34.00
tln
$LPE453_t0076$<tbV0>[-10.4,2.6,8.0,0.0,27,1,0]
370
64

2002,4.07
MIRTGS : RIGHTBACK : INTERNAL 2
MIR : ON : INTERNAL 2
OPTKBR

0.200000
8
8.000000
FILLER
RATIO
SPECTRUM
UNLOCKED 256

DOUBLE
64
COMBINED
1
0
0

1.000000
RATIO

1
0
TRUE
51149
0
LEFT NOT FITTED RIGHT NOT FITTED 0
NONE
NONE
15600
12
4.427000
51148
TRUE
1 0 8 72 0 0 0 0

15798

#HDR
-1
-1
#GR
CM-1
%T
2.38419e-05
0.0
5000
-1.000000
4631
8
33.0618
-1.288700
#DATA
5000	-0.038647
4984	-0.072526
4968	-0.187778
4952	-0.232100
4936	-0.051999
4920	0.215983
4904	0.426578
4888	0.031399
4872	0.591063
4856	-0.015950
4840	-0.621008
4824	0.257658
4808	0.007224
4792	-0.144577
4776	-0.102257
4760	0.029397
4744	-0.161981
4728	0.019741
4712	0.517845
4696	0.107884
4680	0.528430
4664	-0.814795
4648	-0.453901
4632	0.423693
4616	0.590753
4600	0.467181
4584	-0.411963
4568	-0.205993
4552	-0.569009
4536	0.039029
4520	-0.101542
4504	2.346944
4488	10.8597
4472	-0.645804
4456	-0.209951
4440	-0.468230
4424	-0.418472
4408	0.399446
4392	0.163960
4376	0.167679
4360	0.468897
4344	-0.069522
4328	0.143694
4312	0.581121
4296	0.049948
4280	-0.005173
4264	-0.230956
4248	-0.025773
4232	-0.192999
4216	0.055694
4200	0.041866
4184	0.189089
4168	0.314712
4152	-0.113224
4136	0.055789
4120	0.019526
4104	0.154423
4088	-0.198960
4072	0.112462
4056	0.114607
4040	-0.099134
4024	0.188755
4008	0.119495
3992	-0.166368
3976	0.089240
3960	0.178241
3944	0.078463
3928	0.158596
3912	-0.038027
3896	0.151586
3880	-0.044465
3864	-0.072503
3848	-0.044679
3832	0.223731
3816	0.131464
3800	0.087976
3784	-0.031566
3768	0.024890
3752	0.048899
3736	0.115466
3720	0.154209
3704	0.016975
3688	0.049662
3672	0.159668
3656	0.022315
3640	-0.078821
3624	-0.027775
3608	0.204944
3592	0.063228
3576	0.078558
3560	-0.092911
3544	0.072574
3528	0.057697
3512	0.023055
3496	-0.263094
3480	0.069785
3464	0.098037
3448	0.177407
3432	-0.030350
3416	-0.029373
3400	0.112247
3384	-0.062847
3368	0.100970
3352	0.123977
3336	-0.022268
3320	0.122809
3304	0.125646
3288	0.094699
3272	0.147414
3256	0.018954
3240	-0.051879
3224	0.111460
3208	-0.057291
3192	0.095772
3176	0.046277
3160	-0.032711
3144	0.050497
3128	0.080633
3112	0.044631
3096	-0.092482
3080	0.079536
3064	0.037217
3048	-0.095891
3032	-0.053763
3016	0.086927
3000	0.029540
2984	0.012016
2968	-0.029969
2952	-0.047278
2936	-0.016355
2920	0.077128
2904	0.041127
2888	-0.062465
2872	0.003218
2856	0.053739
2840	-0.001907
2824	0.035619
2808	0.142645
2792	-0.064706
2776	0.022983
2760	0.049972
2744	0.123524
2728	0.016498
2712	-0.022363
2696	-0.052022
2680	0.065493
2664	0.076413
2648	0.086736
2632	-0.029087
2616	0.102949
2600	0.036549
2584	0.035619
2568	0.017619
2552	-0.066375
2536	-0.015044
2520	-0.110387
2504	0.132346
2488	0.133752
2472	-0.035643
2456	0.020837
2440	-0.034046
2424	-0.070357
2408	0.048041
2392	-0.153660
2376	0.050067
2360	0.033092
2344	0.186586
2328	0.193953
2312	0.245094
2296	0.261259
2280	0.584125
2264	0.844001
2248	1.322340
2232	1.800632
2216	2.485418
2200	3.451156
2184	4.672884
2168	6.015038
2152	7.578063
2136	9.198045
2120	11.0645
2104	12.9942
2088	15.0159
2072	16.7984
2056	18.6704
2040	20.4731
2024	22.0963
2008	23.5609
1992	24.8006
1976	25.9572
1960	27.1251
1944	27.9508
1928	28.7555
1912	29.5058
1896	29.9664
1880	30.5378
1864	31.0688
1848	31.2794
1832	31.7663
1816	31.9157
1800	32.0341
1784	32.2707
1768	32.5504
1752	32.5069
1736	32.6896
1720	32.6184
1704	32.7272
1688	32.8136
1672	32.9511
1656	32.989
1640	32.8658
1624	33.0581
1608	32.9308
1592	32.8045
1576	32.8773
1560	32.9999
1544	32.8002
1528	32.813
1512	32.8775
1496	32.6245
1480	32.6057
1464	32.6022
1448	32.6203
1432	32.4644
1416	32.6622
1400	32.4141
1384	32.3111
1368	32.3537
1352	32.3808
1336	32.1871
1320	32.2209
1304	32.2396
1288	31.9539
1272	32.003
1256	32.1249
1240	31.8457
1224	31.7732
1208	31.9134
1192	31.797
1176	31.5962
1160	31.7514
1144	31.5788
1128	31.2678
1112	31.4341
1096	31.2812
1080	31.0256
1064	31.0698
1048	31.1771
1032	30.8403
1016	30.7957
1000	30.8173
984	 30.6386
968	 30.2738
952	 30.4123
936	 30.3869
920	 29.8765
904	 29.864
888	 29.9434
872	 29.5147
856	 29.0637
840	 29.4664
824	 28.9846
808	 28.6553
792	 28.4187
776	 28.5069
760	 27.7336
744	 27.8961
728	 27.9826
712	 27.1005
696	 26.3177
680	 26.6818
664	 26.7475
648	 25.5485
632	 25.372
616	 25.6585
600	 25.0477
584	 24.5293
568	 24.2178
552	 23.7031
536	 23.2306
520	 23.3745
504	 22.6899
488	 21.9565
472	 21.4788
456	 22.489
440	 19.6807
424	 19.7887
408	 19.2746
392	 15.8629
376	 10.8118
370	 2.897691