File: Bakgrunnsmateriale/MATLAB/FTIR/ftir_data/LPE453/Mapping_121/LPE453_t27.asc
PE IR       SPECTRUM    SPECTRUM    ASCII       PEDS        1.60
  -1
LPDB95~1.ASC
17/05/16
16:35:42.00
17/05/16
16:36:09.00
tln
$LPE453_t0027$<tbV0>[2.6,-7.8,8.0,0.0,27,1,0]
27.028
64

2002,4.07
MIRTGS : RIGHTBACK : INTERNAL 2
MIR : ON : INTERNAL 2
OPTKBR

0.200000
8
8.000000
FILLER
RATIO
SPECTRUM
UNLOCKED 256

DOUBLE
64
COMBINED
1
0
0

0.002000
RATIO

1
0
TRUE
51149
0
LEFT NOT FITTED RIGHT NOT FITTED 0
NONE
NONE
15600
12
4.427000
51148
TRUE
1 0 8 72 0 0 0 0

15798

#HDR
-1
-1
#GR
µM
%T
2.38419e-05
0.0
2.000000
0.002000
12515
8
28.1651
-19.0796
#DATA
2.000000	 -0.009989
2.084000	 -0.030160
2.168000	 0.690158
2.252000	 0.024554
2.336000	 -0.034161
2.420000	 0.130820
2.504000	 0.326269
2.588000	 0.047092
2.672000	 0.124718
2.756000	 0.171492
2.840000	 -0.045445
2.924000	 0.052818
3.008000	 0.010772
3.092000	 0.132740
3.176000	 -0.018421
3.260000	 0.027791
3.344000	 0.050618
3.428000	 0.076069
3.512000	 0.174980
3.596000	 0.064635
3.680000	 0.030287
3.764000	 0.052074
3.848000	 0.043044
3.932000	 -0.082139
4.016000	 0.041287
4.100000	 0.006856
4.184000	 -0.095553
4.268000	 0.155896
4.352000	 -0.029467
4.436000	 0.285556
4.520000	 1.098292
4.604000	 2.758747
4.688000	 5.405188
4.772000	 9.019154
4.856000	 12.9219
4.940000	 16.2402
5.024000	 19.0979
5.108000	 21.4115
5.192000	 23.2127
5.276000	 24.5579
5.359999	 25.7936
5.444000	 26.433
5.528000	 26.8766
5.612000	 27.31
5.696000	 27.5873
5.780000	 27.7778
5.864000	 27.8405
5.948000	 27.9446
6.032000	 28.1215
6.116000	 27.979
6.200000	 27.8922
6.284000	 27.953
6.368000	 27.9745
6.452000	 27.9828
6.536000	 27.8312
6.620000	 27.9208
6.704000	 27.7441
6.788000	 27.7131
6.872000	 27.7472
6.956000	 27.5311
7.040000	 27.5576
7.124000	 27.5415
7.208000	 27.4901
7.292000	 27.4929
7.376000	 27.3898
7.460000	 27.4073
7.544000	 27.2149
7.628000	 27.1129
7.712000	 27.1938
7.796000	 27.0505
7.880000	 27.0388
7.964000	 27.0123
8.048000	 26.7827
8.132000	 26.8976
8.216000	 26.8046
8.300000	 26.6869
8.384000	 26.746
8.468000	 26.5784
8.552000	 26.6719
8.635999	 26.4815
8.719999	 26.3099
8.804000	 26.3352
8.888000	 26.1537
8.972000	 25.9922
9.056000	 26.1032
9.140000	 26.0723
9.224000	 25.9331
9.308000	 25.8993
9.391999	 25.7475
9.475999	 25.6521
9.560000	 25.6395
9.644000	 25.5545
9.728000	 25.5357
9.812000	 25.3328
9.896000	 25.2477
9.980000	 25.1844
10.064	25.2242
10.148	25.0667
10.232	25.0708
10.316	24.7711
10.4	24.6555
10.484	24.6287
10.568	24.7041
10.652	24.3287
10.736	24.1856
10.82	24.1009
10.904	24.0085
10.988	24.1871
11.072	24.2479
11.156	23.904
11.24	23.7084
11.324	23.4029
11.408	23.5715
11.492	23.6702
11.576	23.5312
11.66	23.5779
11.744	23.2383
11.828	22.9219
11.912	22.814
11.996	22.9586
12.08	22.9122
12.164	22.8944
12.248	22.6922
12.332	22.539
12.416	22.569
12.5	22.3817
12.584	22.1315
12.668	21.9104
12.752	21.9055
12.836	22.1576
12.92	22.0965
13.004	21.9528
13.088	21.6727
13.172	21.4156
13.256	21.3753
13.34	21.3548
13.424	21.5369
13.508	21.5183
13.592	21.2745
13.676	21.0782
13.76	20.9485
13.844	21.0621
13.928	21.1796
14.012	20.9385
14.096	20.6405
14.18	20.4574
14.264	20.3336
14.348	20.2987
14.432	20.3069
14.516	20.3361
14.6	20.4067
14.684	20.4424
14.768	20.2236
14.852	19.844
14.936	19.5798
15.02	19.5005
15.104	19.4741
15.188	19.3771
15.272	19.2904
15.356	19.2728
15.44	19.3478
15.524	19.5377
15.608	19.6325
15.692	19.4803
15.776	19.1984
15.86	18.9232
15.944	18.7079
16.028	18.5455
16.112	18.4561
16.196	18.5215
16.28	18.6667
16.364	18.6806
16.448	18.5322
16.532	18.3633
16.616	18.2026
16.7	18.0079
16.784	17.8693
16.868	17.8947
16.952	18.0068
17.036	17.9862
17.12	17.7245
17.204	17.3881
17.288	17.2242
17.372	17.2335
17.456	17.2184
17.54	17.0874
17.624	16.896
17.708	16.6968
17.792	16.5456
17.876	16.5231
17.96	16.6305
18.044	16.7726
18.128	16.8955
18.212	16.9978
18.296	17.0161
18.38	16.8505
18.464	16.5205
18.548	16.1852
18.632	15.9972
18.716	15.9927
18.8	16.102
18.884	16.1871
18.968	16.1015
19.052	15.8146
19.136	15.4793
19.22	15.3317
19.304	15.4939
19.388	15.8594
19.472	16.1841
19.556	16.2659
19.64	16.0743
19.724	15.7314
19.808	15.3998
19.892	15.1687
19.976	15.0452
20.06	15.0046
20.144	15.0062
20.228	14.9771
20.312	14.8352
20.396	14.567
20.48	14.2618
20.564	14.0585
20.648	14.0441
20.732	14.1997
20.816	14.4431
20.9	14.6895
20.984	14.8746
21.068	14.9427
21.152	14.8472
21.236	14.5823
21.32	14.2014
21.404	13.8092
21.488	13.5242
21.572	13.4301
21.656	13.5374
21.74	13.779
21.824	14.0451
21.908	14.234
21.992	14.2881
22.076	14.1992
22.16	14.0031
22.244	13.7675
22.328	13.5538
22.412	13.4075
22.496	13.3307
22.58	13.2911
22.664	13.25
22.748	13.1893
22.832	13.1258
22.916	13.0954
23	13.0958
23.084	13.0764
23.168	12.983
23.252	12.8099
23.336	12.5948
23.42	12.3801
23.504	12.1842
23.588	11.9405
23.672	11.531
23.756	10.8833
23.84	10.005
23.924	8.989404
24.008	8.000723
24.092	7.241333
24.176	6.868605
24.26	6.993038
24.344	7.648057
24.428	8.723901
24.512	9.920390
24.596	10.808
24.68	10.9676
24.764	10.2031
24.848	8.643777
24.932	6.882948
25.016	5.808981
25.1	6.250294
25.184	8.679255
25.268	12.8696
25.352	17.9327
25.436	22.5386
25.52	25.4268
25.604	25.8306
25.688	23.4986
25.772	18.7957
25.856	12.5637
25.94	6.052052
26.024	0.654613
26.108	-2.552151
26.192	-3.222888
26.276	-1.867514
26.36	0.185544
26.444	1.546100
26.528	1.325650
26.612	-0.544654
26.696	-3.566320
26.78	-7.001331
26.864	-10.4747
26.948	-14.024
27.028	-17.5223