File: Bakgrunnsmateriale/MATLAB/FTIR/ftir_data/LPE453/Mapping_121/LPE453_t30_cm-1.asc
PE IR       SPECTRUM    SPECTRUM    ASCII       PEDS        1.60
  -1
LPD855~1.ASC
17/05/16
16:49:33.00
17/05/16
16:49:33.00
tln
$LPE453_t0030$<tbV0>[-5.2,-7.8,8.0,0.0,27,1,0]
370
64

2002,4.07
MIRTGS : RIGHTBACK : INTERNAL 2
MIR : ON : INTERNAL 2
OPTKBR

0.200000
8
8.000000
FILLER
RATIO
SPECTRUM
UNLOCKED 256

DOUBLE
64
COMBINED
1
0
0

1.000000
RATIO

1
0
TRUE
51149
0
LEFT NOT FITTED RIGHT NOT FITTED 0
NONE
NONE
15600
12
4.427000
51148
TRUE
1 0 8 72 0 0 0 0

15798

#HDR
-1
-1
#GR
CM-1
%T
2.38419e-05
0.0
5000
-1.000000
4631
8
38.1804
-4.794764
#DATA
5000	-0.191950
4984	-0.011873
4968	-0.079226
4952	0.411224
4936	0.406885
4920	0.383877
4904	-0.168514
4888	0.312232
4872	0.316143
4856	0.194740
4840	0.257110
4824	0.218915
4808	0.152802
4792	0.319099
4776	0.590372
4760	0.033998
4744	-0.090980
4728	-0.078511
4712	-0.138878
4696	0.220012
4680	0.383138
4664	0.650835
4648	0.066399
4632	0.592875
4616	0.961017
4600	0.247120
4584	-0.171709
4568	0.266432
4552	-0.580430
4536	-1.017594
4520	-3.245258
4504	18.8641
4488	-2.458691
4472	-0.784635
4456	-0.275611
4440	-0.921654
4424	-0.455212
4408	0.518178
4392	0.062751
4376	0.164866
4360	0.190639
4344	0.222539
4328	-0.197315
4312	0.103187
4296	0.057101
4280	0.273203
4264	0.449466
4248	0.152921
4232	0.424695
4216	-0.109601
4200	0.227713
4184	0.037240
4168	0.526928
4152	0.210285
4136	-0.118517
4120	0.004005
4104	-0.088596
4088	-0.184535
4072	0.219607
4056	0.041675
4040	0.122952
4024	0.292801
4008	0.108838
3992	0.063395
3976	0.132107
3960	0.269818
3944	0.107693
3928	-0.014758
3912	-0.141525
3896	0.026249
3880	0.142049
3864	0.042724
3848	0.104641
3832	0.246620
3816	-0.060558
3800	-0.168037
3784	0.050282
3768	0.163650
3752	-0.058245
3736	-0.031447
3720	0.166845
3704	0.033020
3688	0.092625
3672	0.056791
3656	-0.072193
3640	-0.004410
3624	-0.056838
3608	0.154924
3592	0.071358
3576	0.181579
3560	-0.124287
3544	-0.022792
3528	0.165939
3512	0.008797
3496	-0.038623
3480	0.006270
3464	0.008964
3448	-0.037908
3432	0.116777
3416	0.150990
3400	0.283765
3384	0.179100
3368	0.109052
3352	0.001454
3336	-0.089073
3320	0.001597
3304	0.014877
3288	-0.049114
3272	0.043988
3256	-0.140166
3240	-0.019860
3224	0.103282
3208	0.014448
3192	0.106024
3176	-0.018739
3160	0.052332
3144	0.077533
3128	-0.021362
3112	0.173354
3096	-0.051188
3080	0.067758
3064	0.045680
3048	0.143814
3032	0.031590
3016	0.112938
3000	0.024676
2984	0.073599
2968	0.011062
2952	0.031185
2936	0.023841
2920	-0.015592
2904	0.040864
2888	0.104355
2872	-0.012540
2856	0.225448
2840	0.120496
2824	0.070905
2808	0.018095
2792	0.106000
2776	-0.011992
2760	-0.001835
2744	-0.028824
2728	0.066757
2712	-0.030636
2696	-0.005269
2680	0.052881
2664	0.064587
2648	0.015902
2632	-0.070691
2616	0.017523
2600	0.026941
2584	0.119018
2568	0.035214
2552	0.001597
2536	0.025725
2520	-0.099325
2504	-0.106692
2488	0.077795
2472	-0.073742
2456	-0.082182
2440	-0.074315
2424	0.092792
2408	-0.034976
2392	0.187587
2376	0.106644
2360	0.148200
2344	0.358033
2328	0.478911
2312	0.679326
2296	0.975012
2280	1.355671
2264	1.750540
2248	2.455711
2232	3.303480
2216	4.492163
2200	5.836081
2184	7.248330
2168	9.085845
2152	11.1381
2136	13.2853
2120	15.4051
2104	17.6147
2088	19.7761
2072	21.8256
2056	23.9245
2040	25.6214
2024	27.3101
2008	28.8316
1992	30.0049
1976	31.165
1960	32.1409
1944	33.1294
1928	33.8072
1912	34.6043
1896	35.0893
1880	35.5658
1864	35.9975
1848	36.3261
1832	36.7451
1816	36.8972
1800	37.0317
1784	37.3915
1768	37.4268
1752	37.5802
1736	37.608
1720	37.8035
1704	37.8587
1688	37.805
1672	37.8825
1656	37.9217
1640	38.0418
1624	37.9807
1608	37.9229
1592	38.0587
1576	38.0367
1560	37.8504
1544	37.9144
1528	38.0112
1512	38.0835
1496	37.8811
1480	37.8279
1464	38.1782
1448	38.0183
1432	37.8685
1416	37.8957
1400	37.9234
1384	37.8629
1368	37.6933
1352	37.7193
1336	37.8809
1320	37.7369
1304	37.5738
1288	37.6044
1272	37.7629
1256	37.4888
1240	37.3323
1224	37.6641
1208	37.733
1192	37.4671
1176	37.1335
1160	37.4215
1144	37.5847
1128	37.0775
1112	36.9049
1096	37.3597
1080	37.2502
1064	36.5942
1048	36.5284
1032	36.9888
1016	36.8184
1000	36.1931
984	 36.3406
968	 36.6347
952	 36.3636
936	 35.8114
920	 35.7096
904	 36.2892
888	 35.6556
872	 35.0709
856	 35.2318
840	 35.53
824	 34.9107
808	 34.0656
792	 34.4299
776	 34.7054
760	 33.9994
744	 33.2234
728	 33.6722
712	 34.0811
696	 32.6857
680	 32.1801
664	 32.2263
648	 32.7553
632	 32.0958
616	 31.1105
600	 31.0955
584	 31.2551
568	 30.2566
552	 29.4275
536	 30.21
520	 29.6291
504	 29.124
488	 27.3558
472	 27.1991
456	 27.8406
440	 27.3306
424	 26.9301
408	 28.0081
392	 26.6648
376	 26.3248
370	 5.660724