File: Bakgrunnsmateriale/MATLAB/FTIR/ftir_data/LPE453/Mapping_121/LPE453_t17.asc
PE IR       SPECTRUM    SPECTRUM    ASCII       PEDS        1.60
  -1
LPD795~1.ASC
17/05/16
15:42:27.00
17/05/16
15:42:53.00
tln
$LPE453_t0017$<tbV0>[0.0,-10.4,8.0,0.0,27,1,0]
27.028
64

2002,4.07
MIRTGS : RIGHTBACK : INTERNAL 2
MIR : ON : INTERNAL 2
OPTKBR

0.200000
8
8.000000
FILLER
RATIO
SPECTRUM
UNLOCKED 256

DOUBLE
64
COMBINED
1
0
0

0.002000
RATIO

1
0
TRUE
51149
0
LEFT NOT FITTED RIGHT NOT FITTED 0
NONE
NONE
15600
12
4.427000
51148
TRUE
1 0 8 72 0 0 0 0

15798

#HDR
-1
-1
#GR
µM
%T
2.38419e-05
0.0
2.000000
0.002000
12515
8
36.4413
-6.108853
#DATA
2.000000	 -0.100755
2.084000	 0.065053
2.168000	 -0.413719
2.252000	 0.464891
2.336000	 0.097065
2.420000	 0.075504
2.504000	 0.052350
2.588000	 0.143237
2.672000	 -0.104385
2.756000	 0.189308
2.840000	 0.179693
2.924000	 -0.023460
3.008000	 -0.006516
3.092000	 -0.051091
3.176000	 0.075668
3.260000	 -0.058240
3.344000	 0.028595
3.428000	 0.018876
3.512000	 0.128894
3.596000	 0.085426
3.680000	 0.043030
3.764000	 -0.001447
3.848000	 0.069622
3.932000	 0.053285
4.016000	 -0.029583
4.100000	 -0.071799
4.184000	 0.076886
4.268000	 0.094233
4.352000	 0.252509
4.436000	 0.841779
4.520000	 2.395356
4.604000	 4.932329
4.688000	 8.818798
4.772000	 13.1226
4.856000	 17.1767
4.940000	 21.0983
5.024000	 23.9252
5.108000	 26.218
5.192000	 27.8925
5.276000	 29.2007
5.359999	 30.1938
5.444000	 30.8398
5.528000	 31.3529
5.612000	 31.7382
5.696000	 31.8615
5.780000	 32.2259
5.864000	 32.2909
5.948000	 32.5226
6.032000	 32.5555
6.116000	 32.5721
6.200000	 32.529
6.284000	 32.5131
6.368000	 32.6305
6.452000	 32.5117
6.536000	 32.5456
6.620000	 32.6437
6.704000	 32.4902
6.788000	 32.5347
6.872000	 32.6149
6.956000	 32.4852
7.040000	 32.3486
7.124000	 32.0653
7.208000	 32.2404
7.292000	 32.1927
7.376000	 32.1756
7.460000	 32.0239
7.544000	 32.1962
7.628000	 32.1159
7.712000	 32.0719
7.796000	 32.0655
7.880000	 31.9335
7.964000	 31.9164
8.048000	 31.9581
8.132000	 31.973
8.216000	 32.0667
8.300000	 31.8317
8.384000	 32.084
8.468000	 31.8721
8.552000	 31.6607
8.635999	 31.7573
8.719999	 31.7901
8.804000	 31.7348
8.888000	 31.7037
8.972000	 31.5739
9.056000	 31.6155
9.140000	 31.35
9.224000	 31.7553
9.308000	 31.5209
9.391999	 31.164
9.475999	 31.0566
9.560000	 31.0179
9.644000	 31.036
9.728000	 31.1951
9.812000	 30.9437
9.896000	 30.665
9.980000	 31.025
10.064	30.7943
10.148	30.6904
10.232	30.8187
10.316	30.9275
10.4	30.7749
10.484	30.6716
10.568	30.535
10.652	30.4233
10.736	30.4237
10.82	30.4763
10.904	30.5487
10.988	30.2596
11.072	29.9937
11.156	29.8953
11.24	29.9179
11.324	30.0904
11.408	30.0651
11.492	29.7384
11.576	29.743
11.66	29.722
11.744	29.5473
11.828	29.3503
11.912	29.1495
11.996	29.084
12.08	29.1759
12.164	29.3066
12.248	29.2447
12.332	29.0823
12.416	28.9833
12.5	28.9673
12.584	28.8758
12.668	28.6511
12.752	28.3973
12.836	28.3601
12.92	28.5728
13.004	28.6085
13.088	28.5609
13.172	28.5138
13.256	28.2872
13.34	27.8364
13.424	27.4273
13.508	27.4865
13.592	27.6116
13.676	27.4984
13.76	27.6072
13.844	27.9318
13.928	28.1081
14.012	27.8464
14.096	27.5006
14.18	27.4041
14.264	27.2521
14.348	27.062
14.432	26.956
14.516	26.891
14.6	26.9117
14.684	26.9085
14.768	26.7912
14.852	26.6216
14.936	26.5227
15.02	26.5623
15.104	26.5988
15.188	26.603
15.272	26.6563
15.356	26.6147
15.44	26.4138
15.524	26.2716
15.608	26.2552
15.692	26.1159
15.776	25.7389
15.86	25.3991
15.944	25.3378
16.028	25.4579
16.112	25.6139
16.196	25.762
16.28	25.8178
16.364	25.7732
16.448	25.7852
16.532	25.8752
16.616	25.8376
16.7	25.5939
16.784	25.3081
16.868	25.094
16.952	24.8977
17.036	24.6633
17.12	24.4365
17.204	24.3082
17.288	24.3309
17.372	24.4734
17.456	24.6352
17.54	24.709
17.624	24.6523
17.708	24.5196
17.792	24.4297
17.876	24.4531
17.96	24.5005
18.044	24.4224
18.128	24.231
18.212	24.0819
18.296	24.0282
18.38	23.9481
18.464	23.7505
18.548	23.5032
18.632	23.3125
18.716	23.1963
18.8	23.1327
18.884	23.1319
18.968	23.2106
19.052	23.337
19.136	23.4317
19.22	23.4121
19.304	23.2391
19.388	22.9493
19.472	22.6466
19.556	22.4365
19.64	22.348
19.724	22.3347
19.808	22.3441
19.892	22.3642
19.976	22.4075
20.06	22.4648
20.144	22.4913
20.228	22.4414
20.312	22.3061
20.396	22.1154
20.48	21.9181
20.564	21.7548
20.648	21.6354
20.732	21.5482
20.816	21.4899
20.9	21.4694
20.984	21.4872
21.068	21.5234
21.152	21.5637
21.236	21.6255
21.32	21.7431
21.404	21.9216
21.488	22.1006
21.572	22.1911
21.656	22.1547
21.74	22.03
21.824	21.89
21.908	21.7587
21.992	21.589
22.076	21.3289
22.16	20.9908
22.244	20.6628
22.328	20.4487
22.412	20.4076
22.496	20.528
22.58	20.7572
22.664	21.0421
22.748	21.3513
22.832	21.6515
22.916	21.8441
23	21.7848
23.084	21.3368
23.168	20.4621
23.252	19.2921
23.336	18.1064
23.42	17.237
23.504	16.9093
23.588	17.1337
23.672	17.7324
23.756	18.4262
23.84	19.0065
23.924	19.4325
24.008	19.7419
24.092	19.9056
24.176	19.7972
24.26	19.174
24.344	17.8143
24.428	15.71
24.512	13.1382
24.596	10.5324
24.68	8.337772
24.764	6.837897
24.848	6.014800
24.932	5.563483
25.016	5.044010
25.1	4.063650
25.184	2.492334
25.268	0.581758
25.352	-1.148275
25.436	-2.048455
25.52	-1.598964
25.604	0.448892
25.688	4.202907
25.772	9.566954
25.856	16.173
25.94	23.2947
26.024	29.8237
26.108	34.5071
26.192	36.4248
26.276	35.2581
26.36	31.5014
26.444	26.1301
26.528	20.2123
26.612	14.5346
26.696	9.539915
26.78	5.373872
26.864	2.071172
26.948	-0.322648
27.028	-1.677393