File: Bakgrunnsmateriale/MATLAB/FTIR/ftir_data/LPE453/Mapping_121/LPE453_t12_cm-1.asc
PE IR       SPECTRUM    SPECTRUM    ASCII       PEDS        1.60
  -1
LPD750~1.ASC
17/05/16
15:19:23.00
17/05/16
15:19:23.00
tln
$LPE453_t0012$<tbV0>[13.0,-10.4,8.0,0.0,27,1,0]
370
64

2002,4.07
MIRTGS : RIGHTBACK : INTERNAL 2
MIR : ON : INTERNAL 2
OPTKBR

0.200000
8
8.000000
FILLER
RATIO
SPECTRUM
UNLOCKED 256

DOUBLE
64
COMBINED
1
0
0

1.000000
RATIO

1
0
TRUE
51149
0
LEFT NOT FITTED RIGHT NOT FITTED 0
NONE
NONE
15600
12
4.427000
51148
TRUE
1 0 8 72 0 0 0 0

15798

#HDR
-1
-1
#GR
CM-1
%T
2.38419e-05
0.0
5000
-1.000000
4631
8
28.0425
-2.929735
#DATA
5000	0.217247
4984	0.358462
4968	0.253367
4952	-0.432252
4936	0.013232
4920	0.175499
4904	-0.091218
4888	0.347161
4872	-0.323963
4856	0.123715
4840	0.456929
4824	0.032067
4808	0.076556
4792	0.072717
4776	0.152158
4760	-0.232577
4744	-0.032162
4728	0.161266
4712	0.103974
4696	0.248098
4680	0.307321
4664	0.880289
4648	1.034927
4632	0.569391
4616	1.382017
4600	0.672054
4584	1.004195
4568	0.375413
4552	0.701975
4536	0.375008
4520	-0.510430
4504	2.671241
4488	0.505852
4472	0.168061
4456	1.073050
4440	0.967860
4424	0.425100
4408	0.669240
4392	0.340557
4376	0.576329
4360	0.409603
4344	0.201702
4328	0.038194
4312	0.448083
4296	0.016546
4280	0.182437
4264	-0.217533
4248	0.079417
4232	0.073337
4216	0.283288
4200	-0.209355
4184	0.530076
4168	0.567030
4152	-0.018477
4136	0.347900
4120	0.087118
4104	0.019955
4088	0.080394
4072	0.107932
4056	-0.057268
4040	-0.014567
4024	0.017976
4008	0.057220
3992	0.058197
3976	0.287246
3960	-0.074052
3944	0.233173
3928	0.168991
3912	0.099205
3896	0.045871
3880	0.155711
3864	0.083518
3848	-0.053668
3832	0.073599
3816	-0.055861
3800	0.072455
3784	0.061798
3768	0.288391
3752	-0.086593
3736	-0.010013
3720	0.034117
3704	0.137805
3688	0.108647
3672	0.005412
3656	0.124096
3640	-0.021743
3624	-0.005292
3608	0.159239
3592	-0.111246
3576	-0.136566
3560	0.005364
3544	-0.053405
3528	0.037693
3512	0.048923
3496	-0.022959
3480	0.246238
3464	-0.091409
3448	0.010347
3432	-0.027465
3416	0.077915
3400	0.180721
3384	0.022816
3368	0.109338
3352	0.047445
3336	0.067853
3320	0.049614
3304	0.122237
3288	-0.029444
3272	0.053238
3256	-0.036573
3240	-0.026822
3224	0.110793
3208	-0.100922
3192	0.024247
3176	0.152969
3160	0.252151
3144	0.035476
3128	0.093078
3112	0.049161
3096	0.167942
3080	-0.071573
3064	-0.038623
3048	0.040531
3032	0.024747
3016	0.010061
3000	0.040721
2984	0.107407
2968	0.021147
2952	0.002336
2936	0.032138
2920	0.049257
2904	0.044131
2888	0.031065
2872	-0.084185
2856	-0.132179
2840	0.084733
2824	-0.005793
2808	0.116109
2792	0.007486
2776	0.087833
2760	0.069141
2744	0.036096
2728	-0.062704
2712	0.089597
2696	0.087642
2680	0.025439
2664	-0.007367
2648	-0.000715
2632	0.062680
2616	0.034594
2600	-0.023698
2584	0.072765
2568	0.071978
2552	0.081896
2536	-0.029563
2520	0.150704
2504	0.189042
2488	-0.290083
2472	0.018668
2456	0.047636
2440	0.028562
2424	0.072264
2408	0.016617
2392	-0.082516
2376	0.158286
2360	0.029850
2344	-0.078940
2328	0.071549
2312	0.053071
2296	0.109195
2280	0.219440
2264	0.413298
2248	0.755882
2232	1.147937
2216	1.516175
2200	2.115058
2184	2.946043
2168	4.028248
2152	5.094003
2136	6.237959
2120	7.846117
2104	9.237265
2088	10.7302
2072	12.5143
2056	13.7705
2040	15.2834
2024	16.6193
2008	17.874
1992	19.0286
1976	20.0608
1960	20.9213
1944	21.7858
1928	22.4619
1912	23.1724
1896	23.7315
1880	24.1989
1864	24.7841
1848	25.1732
1832	25.3652
1816	25.6885
1800	26.1734
1784	26.2597
1768	26.525
1752	26.6557
1736	26.79
1720	26.9118
1704	27.1601
1688	27.2172
1672	27.3519
1656	27.5799
1640	27.4309
1624	27.4754
1608	27.5936
1592	27.6166
1576	27.6862
1560	27.8905
1544	27.8586
1528	27.7575
1512	28.0034
1496	27.8389
1480	27.8197
1464	27.8624
1448	27.7572
1432	27.8439
1416	27.9372
1400	27.8823
1384	27.8117
1368	27.9142
1352	27.7797
1336	27.6156
1320	27.8488
1304	27.8906
1288	27.7075
1272	27.7391
1256	27.7162
1240	27.6652
1224	27.6154
1208	27.7172
1192	27.5971
1176	27.4814
1160	27.5667
1144	27.4321
1128	27.2516
1112	27.2943
1096	27.443
1080	26.9512
1064	26.9788
1048	27.3084
1032	26.7077
1016	26.5523
1000	26.8925
984	 26.5878
968	 26.4518
952	 26.5042
936	 26.1333
920	 25.8478
904	 25.8921
888	 25.7094
872	 25.2087
856	 25.409
840	 25.3261
824	 24.7741
808	 24.5924
792	 24.6695
776	 24.2064
760	 23.5902
744	 24.0161
728	 23.7795
712	 23.3316
696	 23.1043
680	 23.1173
664	 22.3062
648	 22.4335
632	 21.9879
616	 20.9639
600	 20.5348
584	 21.0566
568	 20.0094
552	 19.9778
536	 19.533
520	 19.0931
504	 19.3121
488	 18.2385
472	 17.9228
456	 16.6295
440	 17.6563
424	 17.0527
408	 14.3487
392	 -1.077222
376	 6.234741
370	 -1.538610