File: Bakgrunnsmateriale/MATLAB/FTIR/ftir_data/LPE453/Mapping_121/LPE453_t33_cm-1.asc
PE IR       SPECTRUM    SPECTRUM    ASCII       PEDS        1.60
  -1
LPD8D0~1.ASC
17/05/16
17:03:23.00
17/05/16
17:03:23.00
tln
$LPE453_t0033$<tbV0>[-13.0,-7.8,8.0,0.0,27,1,0]
370
64

2002,4.07
MIRTGS : RIGHTBACK : INTERNAL 2
MIR : ON : INTERNAL 2
OPTKBR

0.200000
8
8.000000
FILLER
RATIO
SPECTRUM
UNLOCKED 256

DOUBLE
64
COMBINED
1
0
0

1.000000
RATIO

1
0
TRUE
51149
0
LEFT NOT FITTED RIGHT NOT FITTED 0
NONE
NONE
15600
12
4.427000
51148
TRUE
1 0 8 72 0 0 0 0

15798

#HDR
-1
-1
#GR
CM-1
%T
2.38419e-05
0.0
5000
-1.000000
4631
8
44.3628
-74.1541
#DATA
5000	-0.035691
4984	0.113940
4968	0.123476
4952	0.663018
4936	0.286269
4920	0.073289
4904	-0.244140
4888	-0.054430
4872	-0.071406
4856	0.199007
4840	0.352835
4824	-0.067996
4808	0.063729
4792	0.276994
4776	0.306177
4760	-0.058245
4744	-0.085902
4728	0.010895
4712	-0.087809
4696	0.306749
4680	0.384521
4664	0.210356
4648	-0.125050
4632	0.053381
4616	0.159287
4600	0.376796
4584	0.804996
4568	-0.488495
4552	1.354289
4536	-0.815439
4520	7.561659
4504	3.129076
4488	-1.054859
4472	-0.224065
4456	0.494718
4440	0.291824
4424	0.384354
4408	0.448131
4392	0.588941
4376	0.574350
4360	0.413918
4344	0.326013
4328	0.350499
4312	-0.191545
4296	0.101304
4280	-0.031208
4264	-0.041365
4248	0.148510
4232	-0.042319
4216	0.210595
4200	-0.195312
4184	0.328397
4168	-0.161004
4152	-0.041365
4136	-0.104904
4120	0.044894
4104	-0.069189
4088	0.236153
4072	0.185012
4056	0.123429
4040	0.139331
4024	0.049734
4008	0.223803
3992	-0.104069
3976	-0.085473
3960	0.095272
3944	0.126004
3928	0.210189
3912	0.174856
3896	0.015878
3880	0.174951
3864	-0.334930
3848	0.001525
3832	-0.127530
3816	0.090408
3800	-0.015401
3784	0.115752
3768	-0.012946
3752	-0.019168
3736	-0.049066
3720	-0.017786
3704	0.103020
3688	0.050425
3672	0.192523
3656	0.121998
3640	-0.094056
3624	0.080466
3608	0.042748
3592	0.009727
3576	0.087046
3560	0.072789
3544	-0.111413
3528	0.207614
3512	-0.071191
3496	0.047254
3480	-0.062012
3464	0.173354
3448	0.009274
3432	0.178337
3416	0.136113
3400	0.179171
3384	0.184249
3368	0.184750
3352	0.202131
3336	-0.102639
3320	0.052833
3304	0.150322
3288	0.186896
3272	0.136876
3256	0.096273
3240	-0.008797
3224	-0.050401
3208	-0.153660
3192	0.099492
3176	0.138068
3160	-0.069689
3144	0.049734
3128	0.144839
3112	-0.099229
3096	-0.133299
3080	-0.085639
3064	0.057625
3048	0.078558
3032	0.020718
3016	0.093245
3000	0.075101
2984	0.201296
2968	0.148558
2952	0.074362
2936	0.027513
2920	0.064921
2904	0.046086
2888	-0.005769
2872	0.037813
2856	-0.068736
2840	0.134325
2824	0.046658
2808	0.129365
2792	0.058817
2776	0.047731
2760	0.042057
2744	0.067949
2728	0.008320
2712	0.005841
2696	-0.042176
2680	0.015425
2664	0.030970
2648	0.039434
2632	0.108885
2616	0.089144
2600	0.081276
2584	0.011706
2568	0.056719
2552	-0.045084
2536	-0.015830
2520	0.072479
2504	0.066518
2488	0.036334
2472	-0.032591
2456	0.017833
2440	0.181794
2424	-0.191497
2408	0.204777
2392	-0.019788
2376	-0.040841
2360	0.051188
2344	-0.065493
2328	0.098824
2312	0.156927
2296	0.202465
2280	0.268793
2264	0.483274
2248	0.798463
2232	1.217055
2216	1.552677
2200	2.326416
2184	3.130817
2168	4.017186
2152	5.517792
2136	6.696534
2120	8.229041
2104	9.832048
2088	11.4272
2072	13.3061
2056	14.8627
2040	16.5434
2024	18.0068
2008	19.4754
1992	20.5535
1976	21.9626
1960	23.0724
1944	24.0559
1928	24.8017
1912	25.6287
1896	26.3197
1880	26.8472
1864	27.4159
1848	28.0004
1832	28.41
1816	28.7853
1800	29.2549
1784	29.4286
1768	29.777
1752	30.0111
1736	30.3004
1720	30.3219
1704	30.5365
1688	30.7198
1672	30.723
1656	30.9618
1640	31.008
1624	31.0772
1608	31.1604
1592	31.3633
1576	31.3386
1560	31.4257
1544	31.6146
1528	31.45
1512	31.6809
1496	31.7186
1480	31.5293
1464	31.5984
1448	31.6437
1432	31.6118
1416	31.4563
1400	31.5618
1384	31.4368
1368	31.3071
1352	31.2631
1336	31.376
1320	31.0495
1304	31.1263
1288	31.1548
1272	30.9611
1256	30.9869
1240	30.959
1224	30.6944
1208	30.5529
1192	30.5465
1176	30.4105
1160	30.3042
1144	30.0853
1128	29.9349
1112	29.9628
1096	29.5577
1080	29.6085
1064	29.3176
1048	29.2219
1032	29.0413
1016	28.6039
1000	28.8223
984	 28.6099
968	 28.412
952	 28.3138
936	 27.7712
920	 27.8201
904	 27.5678
888	 27.0648
872	 27.3111
856	 27.0109
840	 26.2766
824	 26.2267
808	 26.2193
792	 26.0753
776	 25.8749
760	 25.6707
744	 25.4674
728	 24.7087
712	 24.9017
696	 24.3209
680	 23.7256
664	 23.5377
648	 23.5158
632	 23.0074
616	 22.723
600	 22.2284
584	 22.5458
568	 21.794
552	 21.6245
536	 21.5085
520	 19.7251
504	 20.1643
488	 19.4652
472	 19.3899
456	 19.4917
440	 20.5854
424	 17.232
408	 13.8634
392	 13.9928
376	 8.042335
370	 -74.1541