File: Bakgrunnsmateriale/MATLAB/FTIR/ftir_data/LPE453/Mapping_121/LPE453_t15.asc
PE IR       SPECTRUM    SPECTRUM    ASCII       PEDS        1.60
  -1
LPD79D~1.ASC
17/05/16
15:33:14.00
17/05/16
15:33:40.00
tln
$LPE453_t0015$<tbV0>[5.2,-10.4,8.0,0.0,27,1,0]
27.028
64

2002,4.07
MIRTGS : RIGHTBACK : INTERNAL 2
MIR : ON : INTERNAL 2
OPTKBR

0.200000
8
8.000000
FILLER
RATIO
SPECTRUM
UNLOCKED 256

DOUBLE
64
COMBINED
1
0
0

0.002000
RATIO

1
0
TRUE
51149
0
LEFT NOT FITTED RIGHT NOT FITTED 0
NONE
NONE
15600
12
4.427000
51148
TRUE
1 0 8 72 0 0 0 0

15798

#HDR
-1
-1
#GR
µM
%T
2.38419e-05
0.0
2.000000
0.002000
12515
8
36.6227
-16.8645
#DATA
2.000000	 -0.042343
2.084000	 0.459272
2.168000	 1.126530
2.252000	 -1.628188
2.336000	 -0.178226
2.420000	 0.057793
2.504000	 0.145577
2.588000	 0.052606
2.672000	 0.271844
2.756000	 0.062224
2.840000	 0.074276
2.924000	 0.013028
3.008000	 -0.014743
3.092000	 0.033252
3.176000	 0.034628
3.260000	 0.085662
3.344000	 -0.023327
3.428000	 0.078392
3.512000	 -0.139960
3.596000	 0.071906
3.680000	 0.107335
3.764000	 0.108705
3.848000	 0.013117
3.932000	 0.061977
4.016000	 0.084396
4.100000	 0.019878
4.184000	 0.184102
4.268000	 0.029308
4.352000	 0.117580
4.436000	 0.317427
4.520000	 1.309750
4.604000	 3.208881
4.688000	 6.148155
4.772000	 10.0735
4.856000	 14.0194
4.940000	 17.4926
5.024000	 20.4403
5.108000	 22.8448
5.192000	 24.4986
5.276000	 25.731
5.359999	 26.8568
5.444000	 27.4388
5.528000	 27.899
5.612000	 28.3322
5.696000	 28.6231
5.780000	 28.7313
5.864000	 29.032
5.948000	 29.0869
6.032000	 28.9955
6.116000	 29.0991
6.200000	 29.0091
6.284000	 28.8614
6.368000	 29.0043
6.452000	 29.0257
6.536000	 28.9313
6.620000	 28.824
6.704000	 28.8047
6.788000	 28.7938
6.872000	 28.7313
6.956000	 28.5369
7.040000	 28.4143
7.124000	 28.3258
7.208000	 28.5165
7.292000	 28.3913
7.376000	 28.1525
7.460000	 28.2174
7.544000	 28.0978
7.628000	 27.904
7.712000	 27.9162
7.796000	 28.0348
7.880000	 27.7841
7.964000	 27.7608
8.048000	 27.7215
8.132000	 27.5563
8.216000	 27.668
8.300000	 27.6752
8.384000	 27.5051
8.468000	 27.6714
8.552000	 27.6217
8.635999	 27.5094
8.719999	 27.4108
8.804000	 27.4301
8.888000	 27.281
8.972000	 27.1615
9.056000	 26.8754
9.140000	 27.23
9.224000	 26.7046
9.308000	 26.9261
9.391999	 26.9306
9.475999	 26.7839
9.560000	 26.7219
9.644000	 26.4887
9.728000	 26.3676
9.812000	 26.5858
9.896000	 26.3465
9.980000	 26.0323
10.064	25.9661
10.148	25.7063
10.232	25.8526
10.316	25.9469
10.4	25.8936
10.484	25.6685
10.568	25.4865
10.652	25.3983
10.736	25.3663
10.82	25.2205
10.904	25.2237
10.988	25.1298
11.072	24.8074
11.156	24.709
11.24	24.7947
11.324	24.7279
11.408	24.8882
11.492	24.9275
11.576	24.5152
11.66	24.3135
11.744	24.1985
11.828	24.0836
11.912	24.0548
11.996	24.1789
12.08	24.1077
12.164	23.8618
12.248	23.67
12.332	23.5357
12.416	23.4198
12.5	23.5569
12.584	23.5923
12.668	23.4327
12.752	23.4014
12.836	23.5448
12.92	23.3753
13.004	23.0225
13.088	22.9345
13.172	22.7925
13.256	22.499
13.34	22.5182
13.424	22.4558
13.508	22.4628
13.592	22.6864
13.676	22.9556
13.76	23.1752
13.844	22.8125
13.928	22.3142
14.012	22.1142
14.096	21.9658
14.18	21.7868
14.264	21.6734
14.348	21.777
14.432	22.0281
14.516	22.0738
14.6	21.8376
14.684	21.652
14.768	21.5318
14.852	21.3304
14.936	21.1495
15.02	21.0292
15.104	20.8251
15.188	20.5786
15.272	20.5623
15.356	20.8098
15.44	21.0593
15.524	21.0865
15.608	20.8436
15.692	20.491
15.776	20.3304
15.86	20.4697
15.944	20.5728
16.028	20.3727
16.112	20.0668
16.196	19.8378
16.28	19.6163
16.364	19.4404
16.448	19.4274
16.532	19.4805
16.616	19.453
16.7	19.4122
16.784	19.4578
16.868	19.5118
16.952	19.5036
17.036	19.4764
17.12	19.3888
17.204	19.1121
17.288	18.7294
17.372	18.5096
17.456	18.5369
17.54	18.6107
17.624	18.5585
17.708	18.4602
17.792	18.4846
17.876	18.6147
17.96	18.6426
18.044	18.4523
18.128	18.2153
18.212	18.2136
18.296	18.4939
18.38	18.7844
18.464	18.802
18.548	18.5571
18.632	18.2875
18.716	18.1697
18.8	18.1765
18.884	18.1716
18.968	18.0747
19.052	17.912
19.136	17.7455
19.22	17.6089
19.304	17.5141
19.388	17.4825
19.472	17.5217
19.556	17.577
19.64	17.5409
19.724	17.3542
19.808	17.075
19.892	16.8203
19.976	16.6577
20.06	16.5617
20.144	16.4733
20.228	16.3776
20.312	16.321
20.396	16.3543
20.48	16.4699
20.564	16.5892
20.648	16.6162
20.732	16.5006
20.816	16.2709
20.9	16.0173
20.984	15.8413
21.068	15.8065
21.152	15.9176
21.236	16.1264
21.32	16.3495
21.404	16.5027
21.488	16.5323
21.572	16.4275
21.656	16.2019
21.74	15.8782
21.824	15.4984
21.908	15.1362
21.992	14.8769
22.076	14.7765
22.16	14.8242
22.244	14.9334
22.328	15.003
22.412	14.9734
22.496	14.862
22.58	14.7376
22.664	14.6734
22.748	14.7072
22.832	14.8254
22.916	14.9791
23	15.0896
23.084	15.0743
23.168	14.8859
23.252	14.5516
23.336	14.1758
23.42	13.9318
23.504	13.9496
23.588	14.2712
23.672	14.8359
23.756	15.4628
23.84	15.9478
23.924	16.1853
24.008	16.1949
24.092	16.0949
24.176	16.0782
24.26	16.2993
24.344	16.7705
24.428	17.3531
24.512	17.8784
24.596	18.2073
24.68	18.2152
24.764	17.7709
24.848	16.7424
24.932	14.949
25.016	12.2279
25.1	8.506799
25.184	3.910966
25.268	-1.104737
25.352	-5.770277
25.436	-8.966061
25.52	-9.579306
25.604	-6.925757
25.688	-1.004586
25.772	7.212430
25.856	15.9553
25.94	22.9566
26.024	26.0498
26.108	24.0295
26.192	17.192
26.276	7.222815
26.36	-3.202011
26.444	-11.4899
26.528	-16.0363
26.612	-16.738
26.696	-14.6328
26.78	-11.2732
26.864	-8.066471
26.948	-5.781939
27.028	-4.545116