File: Bakgrunnsmateriale/MATLAB/FTIR/ftir_data/LPE453/Mapping_121/LPE453_t99.asc
PE IR       SPECTRUM    SPECTRUM    ASCII       PEDS        1.60
  -1
LPE7BD~1.ASC
17/05/16
22:29:43.00
17/05/16
22:30:09.00
tln
$LPE453_t0099$<tbV0>[-13.0,7.8,8.0,0.0,27,1,0]
27.028
64

2002,4.07
MIRTGS : RIGHTBACK : INTERNAL 2
MIR : ON : INTERNAL 2
OPTKBR

0.200000
8
8.000000
FILLER
RATIO
SPECTRUM
UNLOCKED 256

DOUBLE
64
COMBINED
1
0
0

0.002000
RATIO

1
0
TRUE
51149
0
LEFT NOT FITTED RIGHT NOT FITTED 0
NONE
NONE
15600
12
4.427000
51148
TRUE
1 0 8 72 0 0 0 0

15798

#HDR
-1
-1
#GR
µM
%T
2.38419e-05
0.0
2.000000
0.002000
12515
8
34.873
-10.1551
#DATA
2.000000	 0.485372
2.084000	 0.828479
2.168000	 1.187463
2.252000	 -1.298300
2.336000	 -0.122751
2.420000	 0.315567
2.504000	 0.235465
2.588000	 -0.112917
2.672000	 0.094022
2.756000	 -0.004922
2.840000	 0.144762
2.924000	 -0.015974
3.008000	 0.137902
3.092000	 0.017207
3.176000	 0.070021
3.260000	 0.119086
3.344000	 -0.107005
3.428000	 -0.036353
3.512000	 0.102125
3.596000	 0.067267
3.680000	 0.124525
3.764000	 0.044652
3.848000	 0.098199
3.932000	 0.087343
4.016000	 0.011562
4.100000	 0.080024
4.184000	 -0.024437
4.268000	 0.202404
4.352000	 0.439097
4.436000	 1.352391
4.520000	 3.040758
4.604000	 5.814908
4.688000	 9.618066
4.772000	 13.9371
4.856000	 17.9509
4.940000	 21.4587
5.024000	 24.3138
5.108000	 26.6084
5.192000	 28.2989
5.276000	 29.7221
5.359999	 30.7399
5.444000	 31.4267
5.528000	 32.1188
5.612000	 32.5569
5.696000	 33.032
5.780000	 33.3322
5.864000	 33.577
5.948000	 33.84
6.032000	 33.9934
6.116000	 34.0662
6.200000	 34.2231
6.284000	 34.3296
6.368000	 34.4457
6.452000	 34.6409
6.536000	 34.5232
6.620000	 34.7278
6.704000	 34.6857
6.788000	 34.6587
6.872000	 34.8218
6.956000	 34.7442
7.040000	 34.7205
7.124000	 34.8131
7.208000	 34.7803
7.292000	 34.7324
7.376000	 34.7023
7.460000	 34.6075
7.544000	 34.7544
7.628000	 34.7327
7.712000	 34.6686
7.796000	 34.5955
7.880000	 34.6979
7.964000	 34.4989
8.048000	 34.3835
8.132000	 34.4536
8.216000	 34.412
8.300000	 34.3883
8.384000	 34.2339
8.468000	 34.1411
8.552000	 33.9858
8.635999	 34.242
8.719999	 34.2318
8.804000	 34.0475
8.888000	 33.9295
8.972000	 33.7093
9.056000	 33.8625
9.140000	 33.6478
9.224000	 33.7085
9.308000	 33.5129
9.391999	 33.3465
9.475999	 33.1489
9.560000	 33.1025
9.644000	 33.2305
9.728000	 33.0676
9.812000	 32.9547
9.896000	 32.8455
9.980000	 32.6455
10.064	32.5373
10.148	32.6302
10.232	32.7909
10.316	32.5522
10.4	32.369
10.484	32.0864
10.568	32.0646
10.652	31.9753
10.736	31.8121
10.82	31.7855
10.904	31.7435
10.988	31.656
11.072	31.5962
11.156	31.2353
11.24	31.1164
11.324	30.9901
11.408	30.907
11.492	30.8175
11.576	30.9149
11.66	30.962
11.744	30.9682
11.828	30.7788
11.912	30.4705
11.996	30.2631
12.08	30.099
12.164	29.8288
12.248	29.8714
12.332	30.0799
12.416	30.043
12.5	29.9866
12.584	30.0501
12.668	30.0204
12.752	29.8894
12.836	29.7402
12.92	29.5622
13.004	29.2603
13.088	29.0327
13.172	28.8044
13.256	28.7044
13.34	29.0136
13.424	29.2029
13.508	28.9434
13.592	28.7373
13.676	28.7101
13.76	28.7534
13.844	28.6072
13.928	28.2755
14.012	28.0671
14.096	27.8797
14.18	27.7371
14.264	27.7419
14.348	27.7316
14.432	27.7385
14.516	27.8696
14.6	27.9491
14.684	27.8962
14.768	27.911
14.852	27.9981
14.936	27.9958
15.02	27.8712
15.104	27.5285
15.188	27.0654
15.272	26.799
15.356	26.7161
15.44	26.6721
15.524	26.7003
15.608	26.8016
15.692	26.9067
15.776	27.003
15.86	27.0703
15.944	27.0152
16.028	26.8208
16.112	26.6194
16.196	26.5393
16.28	26.5776
16.364	26.6199
16.448	26.5538
16.532	26.3906
16.616	26.2427
16.7	26.1607
16.784	26.0809
16.868	25.9457
16.952	25.7805
17.036	25.6435
17.12	25.5624
17.204	25.5002
17.288	25.375
17.372	25.1798
17.456	25.0659
17.54	25.1969
17.624	25.5164
17.708	25.7867
17.792	25.859
17.876	25.7891
17.96	25.6866
18.044	25.5775
18.128	25.4414
18.212	25.2803
18.296	25.1015
18.38	24.8956
18.464	24.6617
18.548	24.4331
18.632	24.271
18.716	24.2293
18.8	24.3074
18.884	24.4309
18.968	24.4926
19.052	24.4466
19.136	24.3389
19.22	24.2432
19.304	24.1786
19.388	24.1176
19.472	24.0608
19.556	24.0638
19.64	24.1711
19.724	24.3343
19.808	24.4341
19.892	24.3859
19.976	24.2249
20.06	24.0728
20.144	24.0246
20.228	24.0612
20.312	24.0577
20.396	23.8803
20.48	23.4882
20.564	22.9713
20.648	22.5033
20.732	22.241
20.816	22.2409
20.9	22.4433
20.984	22.7182
21.068	22.9368
21.152	23.0222
21.236	22.9585
21.32	22.7789
21.404	22.5522
21.488	22.3572
21.572	22.2528
21.656	22.2464
21.74	22.2883
21.824	22.3081
21.908	22.2754
21.992	22.2266
22.076	22.2397
22.16	22.3746
22.244	22.5975
22.328	22.8074
22.412	22.9038
22.496	22.85
22.58	22.7025
22.664	22.5585
22.748	22.4879
22.832	22.4977
22.916	22.5321
23	22.5095
23.084	22.3733
23.168	22.1124
23.252	21.7771
23.336	21.4825
23.42	21.3853
23.504	21.622
23.588	22.2224
23.672	23.0669
23.756	23.8825
23.84	24.3508
23.924	24.2177
24.008	23.4083
24.092	22.0607
24.176	20.4497
24.26	18.879
24.344	17.5947
24.428	16.7222
24.512	16.3504
24.596	16.5141
24.68	17.1708
24.764	18.1687
24.848	19.2403
24.932	20.0723
25.016	20.433
25.1	20.241
25.184	19.5797
25.268	18.6557
25.352	17.7065
25.436	16.8967
25.52	16.273
25.604	15.7987
25.688	15.3672
25.772	14.8298
25.856	14.0263
25.94	12.7884
26.024	10.9691
26.108	8.510907
26.192	5.517141
26.276	2.270064
26.36	-0.766562
26.444	-3.174943
26.528	-4.751810
26.612	-5.633024
26.696	-6.170922
26.78	-6.780154
26.864	-7.724125
26.948	-8.975060
27.028	-10.1551