File: Bakgrunnsmateriale/MATLAB/FTIR/ftir_data/LPE453/Mapping_121/LPE453_e126.asc
PE IR       SPECTRUM    SPECTRUM    ASCII       PEDS        1.60
  -1
LP8B83~1.ASC
17/05/16
21:38:07.00
17/05/16
21:38:34.00
tln
$LPE453_e0126$<ebV0>[-23.3,12.1,10.0,0.0,27,1,0]
27.028
64

2002,4.07
MIRTGS : RIGHTBACK : INTERNAL 2
MIR : ON : INTERNAL 2
OPTKBR

0.200000
8
8.000000
FILLER
SINGLE
SPECTRUM
UNLOCKED 256

DOUBLE

COMBINED
1
0
0

0.002000
BACKG

1
0
TRUE
51149
0
LEFT NOT FITTED RIGHT NOT FITTED 0
NONE
NONE
15600
12
4.427000
51148
TRUE
1 0 8 72 0 0 0 0

15798

#HDR
-1
-1
#GR
µM
EGY
2.38419e-05
0.0
2.000000
0.002000
12515
8
2.420753
0.009417
#DATA
2.000000	 0.769877
2.084000	 0.861260
2.168000	 0.918751
2.252000	 1.015149
2.336000	 1.130155
2.420000	 1.227764
2.504000	 1.387040
2.588000	 1.440731
2.672000	 1.538650
2.756000	 1.563813
2.840000	 1.613388
2.924000	 1.575079
3.008000	 1.668402
3.092000	 1.763981
3.176000	 1.794920
3.260000	 1.911052
3.344000	 2.010637
3.428000	 1.821502
3.512000	 1.989623
3.596000	 2.192109
3.680000	 2.233230
3.764000	 2.202772
3.848000	 2.203784
3.932000	 2.269059
4.016000	 2.300550
4.100000	 2.262499
4.184000	 2.226270
4.268000	 2.237338
4.352000	 2.308957
4.436000	 2.348118
4.520000	 2.336741
4.604000	 2.309578
4.688000	 2.303625
4.772000	 2.306335
4.856000	 2.349387
4.940000	 2.407967
5.024000	 2.420424
5.108000	 2.394496
5.192000	 2.367854
5.276000	 2.334056
5.359999	 2.340580
5.444000	 2.363499
5.528000	 2.389522
5.612000	 2.390889
5.696000	 2.361514
5.780000	 2.289017
5.864000	 2.248262
5.948000	 2.204206
6.032000	 2.156661
6.116000	 2.105697
6.200000	 1.974744
6.284000	 1.982978
6.368000	 1.947849
6.452000	 1.923144
6.536000	 2.063657
6.620000	 2.048064
6.704000	 1.663835
6.788000	 1.941662
6.872000	 1.763512
6.956000	 1.834812
7.040000	 1.827722
7.124000	 1.700378
7.208000	 1.761080
7.292000	 1.784986
7.376000	 1.788117
7.460000	 1.787873
7.544000	 1.817248
7.628000	 1.823107
7.712000	 1.825613
7.796000	 1.822274
7.880000	 1.746795
7.964000	 1.734446
8.048000	 1.806419
8.132000	 1.798762
8.216000	 1.760047
8.300000	 1.719936
8.384000	 1.717852
8.468000	 1.690009
8.552000	 1.650913
8.635999	 1.599985
8.719999	 1.581307
8.804000	 1.552664
8.888000	 1.504343
8.972000	 1.450257
9.056000	 1.411035
9.140000	 1.403480
9.224000	 1.406038
9.308000	 1.407537
9.391999	 1.416216
9.475999	 1.338434
9.560000	 1.306327
9.644000	 1.363478
9.728000	 1.350018
9.812000	 1.340904
9.896000	 1.359967
9.980000	 1.377292
10.064	1.377162
10.148	1.363620
10.232	1.346819
10.316	1.328371
10.4	1.300318
10.484	1.272900
10.568	1.254285
10.652	1.238440
10.736	1.224162
10.82	1.208269
10.904	1.190074
10.988	1.162808
11.072	1.144623
11.156	1.133668
11.24	1.113754
11.324	1.063443
11.408	1.017781
11.492	1.034563
11.576	1.068636
11.66	1.077817
11.744	1.073217
11.828	1.063990
11.912	1.042900
11.996	0.978723
12.08	0.870271
12.164	0.840927
12.248	0.901220
12.332	0.932541
12.416	0.932836
12.5	0.931119
12.584	0.939331
12.668	0.952981
12.752	0.963060
12.836	0.965038
12.92	0.962635
13.004	0.958795
13.088	0.954505
13.172	0.950587
13.256	0.944620
13.34	0.937363
13.424	0.930788
13.508	0.922697
13.592	0.911681
13.676	0.898758
13.76	0.885114
13.844	0.873268
13.928	0.861701
14.012	0.848884
14.096	0.836346
14.18	0.822718
14.264	0.806149
14.348	0.784631
14.432	0.755164
14.516	0.728173
14.6	0.719622
14.684	0.722969
14.768	0.722868
14.852	0.717265
14.936	0.709457
15.02	0.700376
15.104	0.691536
15.188	0.683879
15.272	0.675594
15.356	0.665536
15.44	0.655563
15.524	0.646089
15.608	0.636200
15.692	0.626398
15.776	0.617221
15.86	0.608668
15.944	0.600895
16.028	0.593523
16.112	0.585438
16.196	0.575222
16.28	0.561991
16.364	0.546012
16.448	0.530474
16.532	0.519938
16.616	0.515647
16.7	0.514392
16.784	0.512921
16.868	0.510397
16.952	0.507309
17.036	0.503601
17.12	0.499525
17.204	0.495793
17.288	0.493226
17.372	0.491622
17.456	0.489997
17.54	0.487250
17.624	0.483225
17.708	0.478617
17.792	0.474268
17.876	0.470351
17.96	0.466515
18.044	0.462583
18.128	0.458503
18.212	0.453974
18.296	0.448996
18.38	0.444020
18.464	0.439692
18.548	0.436076
18.632	0.432549
18.716	0.428493
18.8	0.423726
18.884	0.418354
18.968	0.412445
19.052	0.406278
19.136	0.400271
19.22	0.394688
19.304	0.389564
19.388	0.384756
19.472	0.380006
19.556	0.374979
19.64	0.369420
19.724	0.363435
19.808	0.357284
19.892	0.351175
19.976	0.344947
20.06	0.338263
20.144	0.331072
20.228	0.323623
20.312	0.316184
20.396	0.308897
20.48	0.301714
20.564	0.294653
20.648	0.287665
20.732	0.280780
20.816	0.273995
20.9	0.267346
20.984	0.260899
21.068	0.254854
21.152	0.249326
21.236	0.244230
21.32	0.239436
21.404	0.234659
21.488	0.229677
21.572	0.224294
21.656	0.218262
21.74	0.211596
21.824	0.204384
21.908	0.196866
21.992	0.189436
22.076	0.182531
22.16	0.176453
22.244	0.171268
22.328	0.166881
22.412	0.162985
22.496	0.159210
22.58	0.155431
22.664	0.151491
22.748	0.147277
22.832	0.142880
22.916	0.138302
23	0.133604
23.084	0.128813
23.168	0.123945
23.252	0.119028
23.336	0.114055
23.42	0.109004
23.504	0.103982
23.588	0.099025
23.672	0.094228
23.756	0.089651
23.84	0.085355
23.924	0.081322
24.008	0.077448
24.092	0.073675
24.176	0.069915
24.26	0.066124
24.344	0.062295
24.428	0.058438
24.512	0.054620
24.596	0.051101
24.68	0.047909
24.764	0.045254
24.848	0.043155
24.932	0.041577
25.016	0.040325
25.1	0.039174
25.184	0.037876
25.268	0.036207
25.352	0.034133
25.436	0.031749
25.52	0.029168
25.604	0.026646
25.688	0.024289
25.772	0.022224
25.856	0.020445
25.94	0.018922
26.024	0.017573
26.108	0.016378
26.192	0.015276
26.276	0.014326
26.36	0.013489
26.444	0.012770
26.528	0.012139
26.612	0.011580
26.696	0.011075
26.78	0.010581
26.864	0.010144
26.948	0.009778
27.028	0.009417