File: Bakgrunnsmateriale/MATLAB/FTIR/ftir_data/LPE453/Mapping_121/LPE453_t21.asc
PE IR       SPECTRUM    SPECTRUM    ASCII       PEDS        1.60
  -1
LPCB9D~1.ASC
17/05/16
16:00:54.00
17/05/16
16:01:20.00
tln
$LPE453_t0021$<tbV0>[-10.4,-10.4,8.0,0.0,27,1,0]
27.028
64

2002,4.07
MIRTGS : RIGHTBACK : INTERNAL 2
MIR : ON : INTERNAL 2
OPTKBR

0.200000
8
8.000000
FILLER
RATIO
SPECTRUM
UNLOCKED 256

DOUBLE
64
COMBINED
1
0
0

0.002000
RATIO

1
0
TRUE
51149
0
LEFT NOT FITTED RIGHT NOT FITTED 0
NONE
NONE
15600
12
4.427000
51148
TRUE
1 0 8 72 0 0 0 0

15798

#HDR
-1
-1
#GR
µM
%T
2.38419e-05
0.0
2.000000
0.002000
12515
8
41.0909
-12.7726
#DATA
2.000000	 0.202107
2.084000	 0.297566
2.168000	 0.926034
2.252000	 -0.807153
2.336000	 -0.137461
2.420000	 0.088778
2.504000	 0.217205
2.588000	 0.125348
2.672000	 0.059713
2.756000	 0.073206
2.840000	 -0.089218
2.924000	 0.043472
3.008000	 0.159501
3.092000	 0.187938
3.176000	 0.243217
3.260000	 0.042451
3.344000	 -0.090553
3.428000	 0.041291
3.512000	 0.172450
3.596000	 0.066185
3.680000	 0.126140
3.764000	 0.078439
3.848000	 0.011214
3.932000	 -0.077698
4.016000	 0.124144
4.100000	 0.218625
4.184000	 0.103817
4.268000	 0.235226
4.352000	 0.750364
4.436000	 1.905740
4.520000	 4.031600
4.604000	 7.365693
4.688000	 11.8097
4.772000	 16.5487
4.856000	 21.1423
4.940000	 24.6331
5.024000	 27.5772
5.108000	 29.7939
5.192000	 31.6441
5.276000	 32.792
5.359999	 33.6996
5.444000	 34.3865
5.528000	 35.0724
5.612000	 35.3295
5.696000	 35.5958
5.780000	 35.8968
5.864000	 35.8968
5.948000	 36.1407
6.032000	 36.256
6.116000	 36.0566
6.200000	 36.1979
6.284000	 35.9328
6.368000	 36.118
6.452000	 36.1373
6.536000	 36.0123
6.620000	 36.1179
6.704000	 36.092
6.788000	 35.756
6.872000	 35.6182
6.956000	 35.8723
7.040000	 35.7354
7.124000	 35.3788
7.208000	 35.5984
7.292000	 35.7873
7.376000	 35.3269
7.460000	 35.1874
7.544000	 35.2883
7.628000	 35.5172
7.712000	 35.2648
7.796000	 35.0229
7.880000	 35.0779
7.964000	 35.1206
8.048000	 35.1809
8.132000	 34.8693
8.216000	 34.8232
8.300000	 35.0247
8.384000	 35.1692
8.468000	 34.8716
8.552000	 34.7142
8.635999	 34.4865
8.719999	 34.8031
8.804000	 34.9922
8.888000	 34.7672
8.972000	 34.4227
9.056000	 33.931
9.140000	 34.0875
9.224000	 34.6344
9.308000	 34.4663
9.391999	 34.5798
9.475999	 34.3619
9.560000	 33.9684
9.644000	 33.8257
9.728000	 34.1065
9.812000	 34.3901
9.896000	 34.1172
9.980000	 34.1331
10.064	33.8199
10.148	33.7826
10.232	33.694
10.316	33.8156
10.4	33.9165
10.484	34.0895
10.568	34.2096
10.652	33.8644
10.736	33.3714
10.82	33.0207
10.904	32.8847
10.988	32.8508
11.072	33.0813
11.156	33.5212
11.24	33.6062
11.324	33.5319
11.408	33.1823
11.492	32.8491
11.576	32.5703
11.66	32.3771
11.744	32.3299
11.828	32.6192
11.912	32.8067
11.996	32.8343
12.08	32.813
12.164	32.8722
12.248	32.6034
12.332	32.4533
12.416	32.1852
12.5	31.9199
12.584	31.7191
12.668	31.7017
12.752	31.8475
12.836	32.2321
12.92	32.5509
13.004	32.6922
13.088	32.536
13.172	32.5051
13.256	32.5618
13.34	32.628
13.424	32.4474
13.508	31.6957
13.592	31.1761
13.676	31.2068
13.76	31.2676
13.844	31.1894
13.928	31.2683
14.012	31.3897
14.096	31.6275
14.18	31.9682
14.264	31.9695
14.348	31.5762
14.432	31.1619
14.516	30.886
14.6	30.582
14.684	30.3111
14.768	30.2387
14.852	30.2994
14.936	30.3792
15.02	30.4644
15.104	30.6439
15.188	30.8325
15.272	30.8666
15.356	30.8908
15.44	31.006
15.524	30.983
15.608	30.795
15.692	30.7233
15.776	30.7162
15.86	30.4905
15.944	30.0626
16.028	29.6635
16.112	29.4434
16.196	29.3679
16.28	29.3149
16.364	29.2689
16.448	29.2523
16.532	29.2602
16.616	29.3345
16.7	29.4697
16.784	29.5807
16.868	29.6592
16.952	29.6909
17.036	29.5845
17.12	29.4131
17.204	29.398
17.288	29.5334
17.372	29.5882
17.456	29.4617
17.54	29.2247
17.624	28.9269
17.708	28.6073
17.792	28.3611
17.876	28.233
17.96	28.1459
18.044	28.0336
18.128	27.9214
18.212	27.835
18.296	27.7582
18.38	27.709
18.464	27.7593
18.548	27.9106
18.632	28.0371
18.716	28.047
18.8	28.0059
18.884	28.0118
18.968	28.0556
19.052	28.0929
19.136	28.1534
19.22	28.2727
19.304	28.3714
19.388	28.323
19.472	28.1159
19.556	27.8644
19.64	27.6513
19.724	27.4502
19.808	27.2057
19.892	26.9136
19.976	26.5979
20.06	26.2532
20.144	25.8789
20.228	25.5515
20.312	25.4253
20.396	25.5995
20.48	25.9956
20.564	26.3932
20.648	26.5855
20.732	26.5301
20.816	26.354
20.9	26.2385
20.984	26.2885
21.068	26.4975
21.152	26.7776
21.236	27.005
21.32	27.0504
21.404	26.8163
21.488	26.3106
21.572	25.6918
21.656	25.2417
21.74	25.2166
21.824	25.6734
21.908	26.4029
21.992	27.0708
22.076	27.4324
22.16	27.4646
22.244	27.3219
22.328	27.1704
22.412	27.0515
22.496	26.8752
22.58	26.5461
22.664	26.0553
22.748	25.4818
22.832	24.8925
22.916	24.2857
23	23.6251
23.084	22.9048
23.168	22.221
23.252	21.7376
23.336	21.6044
23.42	21.93
23.504	22.7027
23.588	23.8228
23.672	25.1412
23.756	26.4311
23.84	27.4668
23.924	28.0671
24.008	28.1526
24.092	27.791
24.176	27.2095
24.26	26.6313
24.344	26.1933
24.428	25.8682
24.512	25.4505
24.596	24.6435
24.68	23.1689
24.764	20.89
24.848	17.857
24.932	14.1927
25.016	10.0235
25.1	5.457557
25.184	0.696871
25.268	-3.920060
25.352	-7.959952
25.436	-10.9472
25.52	-12.5376
25.604	-12.6012
25.688	-11.0063
25.772	-7.656442
25.856	-2.621919
25.94	3.691135
26.024	10.4143
26.108	16.3338
26.192	20.2447
26.276	21.3341
26.36	19.4767
26.444	15.3334
26.528	10.1131
26.612	5.177426
26.696	1.638268
26.78	0.040452
26.864	0.313428
26.948	1.886202
27.028	3.835272