File: Bakgrunnsmateriale/MATLAB/FTIR/ftir_data/LPE453/Mapping_121/LPE453_t77.asc
PE IR       SPECTRUM    SPECTRUM    ASCII       PEDS        1.60
  -1
LPDFA5~1.ASC
17/05/16
20:41:11.00
17/05/16
20:41:37.00
tln
$LPE453_t0077$<tbV0>[-13.0,2.6,8.0,0.0,27,1,0]
27.028
64

2002,4.07
MIRTGS : RIGHTBACK : INTERNAL 2
MIR : ON : INTERNAL 2
OPTKBR

0.200000
8
8.000000
FILLER
RATIO
SPECTRUM
UNLOCKED 256

DOUBLE
64
COMBINED
1
0
0

0.002000
RATIO

1
0
TRUE
51149
0
LEFT NOT FITTED RIGHT NOT FITTED 0
NONE
NONE
15600
12
4.427000
51148
TRUE
1 0 8 72 0 0 0 0

15798

#HDR
-1
-1
#GR
µM
%T
2.38419e-05
0.0
2.000000
0.002000
12515
8
32.0815
-10.7704
#DATA
2.000000	 0.234031
2.084000	 0.348693
2.168000	 0.648963
2.252000	 -0.166265
2.336000	 -0.022532
2.420000	 0.196588
2.504000	 -0.014042
2.588000	 0.114766
2.672000	 0.157587
2.756000	 0.052065
2.840000	 0.096416
2.924000	 0.009351
3.008000	 0.081214
3.092000	 -0.063878
3.176000	 0.194086
3.260000	 -0.035537
3.344000	 0.185837
3.428000	 0.105687
3.512000	 -0.020566
3.596000	 -0.034210
3.680000	 0.023365
3.764000	 0.061155
3.848000	 0.063349
3.932000	 0.071707
4.016000	 0.105349
4.100000	 0.010856
4.184000	 -0.000934
4.268000	 0.052665
4.352000	 0.225939
4.436000	 0.718073
4.520000	 1.970772
4.604000	 4.212447
4.688000	 7.580108
4.772000	 11.4134
4.856000	 15.1181
4.940000	 18.7382
5.024000	 21.6081
5.108000	 23.9489
5.192000	 25.736
5.276000	 27.1706
5.359999	 28.0912
5.444000	 29.0463
5.528000	 29.6811
5.612000	 30.1991
5.696000	 30.5276
5.780000	 30.947
5.864000	 31.1434
5.948000	 31.4128
6.032000	 31.4804
6.116000	 31.6132
6.200000	 31.6554
6.284000	 31.8019
6.368000	 31.7728
6.452000	 31.8427
6.536000	 31.9495
6.620000	 31.9694
6.704000	 31.9811
6.788000	 31.937
6.872000	 31.8702
6.956000	 31.9358
7.040000	 31.9242
7.124000	 31.7572
7.208000	 31.8495
7.292000	 31.598
7.376000	 31.6758
7.460000	 31.773
7.544000	 31.7137
7.628000	 31.6728
7.712000	 31.6397
7.796000	 31.6079
7.880000	 31.5234
7.964000	 31.4017
8.048000	 31.4443
8.132000	 31.385
8.216000	 31.3475
8.300000	 31.2151
8.384000	 31.1299
8.468000	 31.1613
8.552000	 30.9742
8.635999	 30.8468
8.719999	 30.713
8.804000	 30.8135
8.888000	 30.7443
8.972000	 30.5531
9.056000	 30.4281
9.140000	 30.494
9.224000	 30.3474
9.308000	 29.9991
9.391999	 30.0214
9.475999	 29.8641
9.560000	 29.8467
9.644000	 29.6856
9.728000	 29.7123
9.812000	 29.7071
9.896000	 29.2199
9.980000	 29.2166
10.064	29.2413
10.148	29.0867
10.232	29.1574
10.316	28.9416
10.4	28.8711
10.484	28.7473
10.568	28.6303
10.652	28.5027
10.736	28.3894
10.82	28.2196
10.904	28.1432
10.988	27.9037
11.072	27.9398
11.156	27.8505
11.24	27.78
11.324	27.8352
11.408	27.5549
11.492	27.4147
11.576	27.4015
11.66	27.2622
11.744	27.2431
11.828	26.9784
11.912	26.8807
11.996	26.8315
12.08	26.6205
12.164	26.5003
12.248	26.4371
12.332	26.4805
12.416	26.4222
12.5	26.292
12.584	26.3564
12.668	26.1632
12.752	25.771
12.836	25.4861
12.92	25.4116
13.004	25.2997
13.088	25.1633
13.172	25.2698
13.256	25.6528
13.34	25.6987
13.424	25.4479
13.508	25.4046
13.592	25.2511
13.676	24.8578
13.76	24.5897
13.844	24.4823
13.928	24.4327
14.012	24.3356
14.096	24.243
14.18	24.3263
14.264	24.311
14.348	24.0192
14.432	23.8574
14.516	23.9786
14.6	24.0592
14.684	23.9186
14.768	23.6644
14.852	23.488
14.936	23.4594
15.02	23.4495
15.104	23.2985
15.188	23.0822
15.272	23.0098
15.356	23.1518
15.44	23.4476
15.524	23.6822
15.608	23.6505
15.692	23.4578
15.776	23.3152
15.86	23.2428
15.944	23.1025
16.028	22.8096
16.112	22.4998
16.196	22.3746
16.28	22.4029
16.364	22.4239
16.448	22.4368
16.532	22.5111
16.616	22.584
16.7	22.5811
16.784	22.5449
16.868	22.4928
16.952	22.3655
17.036	22.1585
17.12	21.9681
17.204	21.8812
17.288	21.8664
17.372	21.8211
17.456	21.7261
17.54	21.6656
17.624	21.6671
17.708	21.6683
17.792	21.6387
17.876	21.5793
17.96	21.4524
18.044	21.2457
18.128	21.0498
18.212	20.9567
18.296	20.9507
18.38	20.975
18.464	21.0233
18.548	21.0937
18.632	21.1315
18.716	21.0818
18.8	20.9611
18.884	20.8288
18.968	20.7222
19.052	20.6495
19.136	20.6121
19.22	20.592
19.304	20.5344
19.388	20.3843
19.472	20.1376
19.556	19.854
19.64	19.6059
19.724	19.4404
19.808	19.3704
19.892	19.3962
19.976	19.4915
20.06	19.5891
20.144	19.6171
20.228	19.5685
20.312	19.5191
20.396	19.5656
20.48	19.7333
20.564	19.9306
20.648	19.985
20.732	19.7547
20.816	19.2346
20.9	18.5833
20.984	18.0391
21.068	17.7781
21.152	17.8211
21.236	18.0553
21.32	18.3437
21.404	18.6117
21.488	18.8413
21.572	19.0145
21.656	19.0956
21.74	19.0635
21.824	18.9467
21.908	18.8182
21.992	18.7397
22.076	18.7136
22.16	18.6874
22.244	18.6029
22.328	18.4492
22.412	18.2647
22.496	18.1153
22.58	18.06
22.664	18.1286
22.748	18.3076
22.832	18.5439
22.916	18.7468
23	18.8594
23.084	18.875
23.168	18.8528
23.252	18.8787
23.336	19.0099
23.42	19.251
23.504	19.5378
23.588	19.7689
23.672	19.8612
23.756	19.7848
23.84	19.572
23.924	19.2909
24.008	18.9894
24.092	18.6526
24.176	18.2028
24.26	17.5182
24.344	16.4853
24.428	15.0802
24.512	13.4112
24.596	11.6604
24.68	10.0124
24.764	8.584095
24.848	7.367096
24.932	6.279288
25.016	5.239386
25.1	4.208020
25.184	3.255816
25.268	2.504157
25.352	1.999039
25.436	1.775232
25.52	1.821590
25.604	2.075764
25.688	2.468535
25.772	3.009590
25.856	3.786371
25.94	4.791312
26.024	5.800821
26.108	6.376192
26.192	6.151720
26.276	4.995945
26.36	3.193386
26.444	1.088892
26.528	-1.066666
26.612	-3.233227
26.696	-5.375229
26.78	-7.310616
26.864	-8.739473
26.948	-9.647505
27.028	-10.7704