File: Bakgrunnsmateriale/MATLAB/FTIR/ftir_data/LPE453/Mapping_121/LPE453_t13.asc
PE IR       SPECTRUM    SPECTRUM    ASCII       PEDS        1.60
  -1
LPC795~1.ASC
17/05/16
15:24:00.00
17/05/16
15:24:26.00
tln
$LPE453_t0013$<tbV0>[10.4,-10.4,8.0,0.0,27,1,0]
27.028
64

2002,4.07
MIRTGS : RIGHTBACK : INTERNAL 2
MIR : ON : INTERNAL 2
OPTKBR

0.200000
8
8.000000
FILLER
RATIO
SPECTRUM
UNLOCKED 256

DOUBLE
64
COMBINED
1
0
0

0.002000
RATIO

1
0
TRUE
51149
0
LEFT NOT FITTED RIGHT NOT FITTED 0
NONE
NONE
15600
12
4.427000
51148
TRUE
1 0 8 72 0 0 0 0

15798

#HDR
-1
-1
#GR
µM
%T
2.38419e-05
0.0
2.000000
0.002000
12515
8
41.0347
-19.7971
#DATA
2.000000	 -0.148987
2.084000	 0.294408
2.168000	 0.827791
2.252000	 -0.320551
2.336000	 -0.091216
2.420000	 0.064325
2.504000	 0.098075
2.588000	 -0.162091
2.672000	 0.186505
2.756000	 -0.104803
2.840000	 -0.079001
2.924000	 0.092155
3.008000	 0.024265
3.092000	 0.179355
3.176000	 0.072997
3.260000	 0.009590
3.344000	 0.049173
3.428000	 0.073903
3.512000	 0.158078
3.596000	 0.089615
3.680000	 -0.037028
3.764000	 0.120984
3.848000	 0.049603
3.932000	 -0.095610
4.016000	 0.176894
4.100000	 0.023330
4.184000	 0.024866
4.268000	 0.086760
4.352000	 0.307474
4.436000	 0.740023
4.520000	 2.089963
4.604000	 4.581320
4.688000	 7.902700
4.772000	 12.138
4.856000	 16.0846
4.940000	 19.9022
5.024000	 22.8602
5.108000	 25.0993
5.192000	 26.9865
5.276000	 28.3659
5.359999	 29.2971
5.444000	 30.2548
5.528000	 30.7304
5.612000	 31.344
5.696000	 31.5337
5.780000	 31.6956
5.864000	 32.0983
5.948000	 32.1672
6.032000	 32.1746
6.116000	 32.4446
6.200000	 32.0474
6.284000	 32.4316
6.368000	 32.0061
6.452000	 32.5015
6.536000	 32.4204
6.620000	 32.077
6.704000	 32.3194
6.788000	 32.0242
6.872000	 31.9778
6.956000	 32.1073
7.040000	 31.8468
7.124000	 31.6972
7.208000	 32.0364
7.292000	 31.6602
7.376000	 31.3966
7.460000	 31.8169
7.544000	 31.8288
7.628000	 31.1924
7.712000	 31.4892
7.796000	 31.7718
7.880000	 31.2889
7.964000	 30.9558
8.048000	 31.2936
8.132000	 31.5536
8.216000	 31.1434
8.300000	 30.9118
8.384000	 31.0987
8.468000	 31.3483
8.552000	 31.04
8.635999	 30.7991
8.719999	 30.7143
8.804000	 31.0907
8.888000	 31.1531
8.972000	 30.8035
9.056000	 30.2702
9.140000	 30.3635
9.224000	 30.7435
9.308000	 30.8455
9.391999	 30.505
9.475999	 30.0745
9.560000	 29.9804
9.644000	 30.246
9.728000	 30.5065
9.812000	 30.7447
9.896000	 30.2252
9.980000	 29.8283
10.064	29.6061
10.148	29.8402
10.232	30.1011
10.316	30.1768
10.4	29.9396
10.484	29.5759
10.568	29.2896
10.652	29.1514
10.736	29.3552
10.82	29.6742
10.904	29.5308
10.988	29.5304
11.072	29.2388
11.156	28.717
11.24	28.4799
11.324	28.4182
11.408	28.8368
11.492	29.1286
11.576	28.8378
11.66	28.754
11.744	28.433
11.828	27.993
11.912	27.7888
11.996	27.7636
12.08	27.7671
12.164	28.0953
12.248	28.2186
12.332	28.2135
12.416	28.0853
12.5	27.7096
12.584	27.4663
12.668	27.2335
12.752	27.1405
12.836	27.2669
12.92	27.3478
13.004	27.4394
13.088	27.5723
13.172	27.5543
13.256	27.2929
13.34	27.1187
13.424	26.8437
13.508	26.6069
13.592	26.506
13.676	26.5002
13.76	26.5353
13.844	26.5139
13.928	26.6339
14.012	26.7711
14.096	26.7543
14.18	26.6108
14.264	26.3297
14.348	25.9595
14.432	25.6406
14.516	25.4503
14.6	25.295
14.684	25.1713
14.768	25.1261
14.852	25.2127
14.936	25.4407
15.02	25.6305
15.104	25.6475
15.188	25.587
15.272	25.5622
15.356	25.4972
15.44	25.3513
15.524	25.1949
15.608	24.9525
15.692	24.5919
15.776	24.284
15.86	24.1323
15.944	24.1338
16.028	24.2657
16.112	24.4152
16.196	24.4825
16.28	24.5088
16.364	24.5425
16.448	24.5483
16.532	24.4946
16.616	24.388
16.7	24.2259
16.784	23.986
16.868	23.6893
16.952	23.4432
17.036	23.3439
17.12	23.3507
17.204	23.3522
17.288	23.3136
17.372	23.2629
17.456	23.1965
17.54	23.1084
17.624	23.0607
17.708	23.1025
17.792	23.1863
17.876	23.2523
17.96	23.2909
18.044	23.2758
18.128	23.148
18.212	22.9215
18.296	22.6853
18.38	22.4716
18.464	22.2389
18.548	21.9774
18.632	21.7144
18.716	21.4675
18.8	21.2593
18.884	21.1423
18.968	21.1547
19.052	21.2568
19.136	21.3463
19.22	21.3432
19.304	21.2627
19.388	21.2091
19.472	21.311
19.556	21.6277
19.64	22.0932
19.724	22.5464
19.808	22.8285
19.892	22.8528
19.976	22.6193
20.06	22.1886
20.144	21.6637
20.228	21.1687
20.312	20.8033
20.396	20.5819
20.48	20.4316
20.564	20.2622
20.648	20.0541
20.732	19.8718
20.816	19.7916
20.9	19.8178
20.984	19.88
21.068	19.903
21.152	19.8745
21.236	19.8385
21.32	19.8299
21.404	19.8221
21.488	19.746
21.572	19.5598
21.656	19.307
21.74	19.0933
21.824	19.0109
21.908	19.0708
21.992	19.2044
22.076	19.3252
22.16	19.389
22.244	19.421
22.328	19.469
22.412	19.5483
22.496	19.6286
22.58	19.6438
22.664	19.5343
22.748	19.2598
22.832	18.7758
22.916	18.0527
23	17.1256
23.084	16.1078
23.168	15.187
23.252	14.5368
23.336	14.2509
23.42	14.2544
23.504	14.3808
23.588	14.4466
23.672	14.3541
23.756	14.1766
23.84	14.12
23.924	14.4662
24.008	15.4325
24.092	17.0499
24.176	19.1182
24.26	21.2683
24.344	23.0111
24.428	23.9298
24.512	23.8008
24.596	22.6651
24.68	20.9065
24.764	19.2195
24.848	18.2942
24.932	18.6855
25.016	20.5705
25.1	23.6937
25.184	27.472
25.268	31.2426
25.352	34.4892
25.436	36.9667
25.52	38.7259
25.604	39.9476
25.688	40.7401
25.772	41.0335
25.856	40.6072
25.94	39.2402
26.024	36.7955
26.108	33.3023
26.192	28.889
26.276	23.6844
26.36	17.7809
26.444	11.2874
26.528	4.423268
26.612	-2.461299
26.696	-8.843927
26.78	-14.1049
26.864	-17.7443
26.948	-19.5591
27.028	-19.7958