File: Bakgrunnsmateriale/MATLAB/FTIR/ftir_data/LPE453/Mapping_121/LPE453_t115.asc
PE IR       SPECTRUM    SPECTRUM    ASCII       PEDS        1.60
  -1
LP9788~1.ASC
17/05/16
23:50:18.00
17/05/16
23:50:44.00
tln
$LPE453_t0115$<tbV0>[2.6,13.0,8.0,0.0,27,1,0]
27.028
64

2002,4.07
MIRTGS : RIGHTBACK : INTERNAL 2
MIR : ON : INTERNAL 2
OPTKBR

0.200000
8
8.000000
FILLER
RATIO
SPECTRUM
UNLOCKED 256

DOUBLE
64
COMBINED
1
0
0

0.002000
RATIO

1
0
TRUE
51149
0
LEFT NOT FITTED RIGHT NOT FITTED 0
NONE
NONE
15600
12
4.427000
51148
TRUE
1 0 8 72 0 0 0 0

15798

#HDR
-1
-1
#GR
µM
%T
2.38419e-05
0.0
2.000000
0.002000
12515
8
36.28
-14.6744
#DATA
2.000000	 0.412416
2.084000	 0.120557
2.168000	 0.841015
2.252000	 -0.525314
2.336000	 0.342289
2.420000	 0.141352
2.504000	 0.025995
2.588000	 0.043111
2.672000	 0.219141
2.756000	 0.012529
2.840000	 0.045962
2.924000	 -0.006090
3.008000	 0.131447
3.092000	 0.107131
3.176000	 0.099295
3.260000	 -0.057864
3.344000	 -0.044847
3.428000	 0.150900
3.512000	 -0.001616
3.596000	 0.083184
3.680000	 0.085814
3.764000	 0.055752
3.848000	 0.092297
3.932000	 -0.035173
4.016000	 0.012476
4.100000	 0.023710
4.184000	 0.196258
4.268000	 0.494501
4.352000	 1.184284
4.436000	 2.818466
4.520000	 5.361531
4.604000	 9.089520
4.688000	 13.5504
4.772000	 18.0479
4.856000	 22.0554
4.940000	 25.3661
5.024000	 27.9498
5.108000	 29.8246
5.192000	 31.2555
5.276000	 32.3156
5.359999	 33.3069
5.444000	 33.7986
5.528000	 34.4202
5.612000	 34.7272
5.696000	 34.9546
5.780000	 35.3083
5.864000	 35.4765
5.948000	 35.7641
6.032000	 35.7373
6.116000	 35.8889
6.200000	 35.9654
6.284000	 36.1081
6.368000	 36.068
6.452000	 36.1521
6.536000	 36.134
6.620000	 36.0335
6.704000	 36.0834
6.788000	 36.1846
6.872000	 36.1037
6.956000	 35.9119
7.040000	 36.1828
7.124000	 36.1432
7.208000	 35.9267
7.292000	 35.9596
7.376000	 35.9299
7.460000	 36.0225
7.544000	 35.9493
7.628000	 35.6387
7.712000	 35.7379
7.796000	 35.8586
7.880000	 35.9393
7.964000	 35.6938
8.048000	 35.4834
8.132000	 35.6093
8.216000	 35.7157
8.300000	 35.8418
8.384000	 35.5633
8.468000	 35.5791
8.552000	 35.1888
8.635999	 35.3217
8.719999	 35.5586
8.804000	 35.6009
8.888000	 35.56
8.972000	 35.233
9.056000	 35.1817
9.140000	 34.9873
9.224000	 35.1572
9.308000	 35.1498
9.391999	 35.3363
9.475999	 35.1152
9.560000	 35.0618
9.644000	 34.8405
9.728000	 34.8594
9.812000	 34.8376
9.896000	 35.0588
9.980000	 35.0435
10.064	35.0138
10.148	34.8921
10.232	34.655
10.316	34.3898
10.4	34.234
10.484	34.2155
10.568	34.4401
10.652	34.644
10.736	34.684
10.82	34.6174
10.904	34.4327
10.988	34.1824
11.072	33.9682
11.156	33.7493
11.24	33.773
11.324	33.74
11.408	33.9879
11.492	34.1141
11.576	34.1492
11.66	33.8249
11.744	33.6668
11.828	33.748
11.912	33.6006
11.996	33.3771
12.08	33.2164
12.164	33.0879
12.248	33.0019
12.332	33.1549
12.416	33.2336
12.5	33.373
12.584	33.4548
12.668	33.2949
12.752	33.2103
12.836	33.1179
12.92	32.8318
13.004	32.691
13.088	32.4335
13.172	32.2671
13.256	32.311
13.34	32.3353
13.424	32.2225
13.508	32.182
13.592	32.3488
13.676	32.5099
13.76	32.5191
13.844	32.5885
13.928	32.7715
14.012	32.7112
14.096	32.486
14.18	32.3239
14.264	32.2478
14.348	32.0973
14.432	31.9276
14.516	31.839
14.6	31.6362
14.684	31.3898
14.768	31.2945
14.852	31.3535
14.936	31.5338
15.02	31.7818
15.104	32.0105
15.188	32.0862
15.272	31.9066
15.356	31.6258
15.44	31.4965
15.524	31.4906
15.608	31.4787
15.692	31.3721
15.776	31.056
15.86	30.6696
15.944	30.4755
16.028	30.4361
16.112	30.385
16.196	30.2902
16.28	30.2072
16.364	30.2038
16.448	30.2567
16.532	30.2848
16.616	30.3177
16.7	30.4066
16.784	30.4737
16.868	30.4709
16.952	30.4845
17.036	30.5481
17.12	30.5688
17.204	30.4909
17.288	30.3746
17.372	30.3045
17.456	30.3217
17.54	30.4
17.624	30.4123
17.708	30.2187
17.792	29.8309
17.876	29.4089
17.96	29.0841
18.044	28.8694
18.128	28.7199
18.212	28.6022
18.296	28.4929
18.38	28.3846
18.464	28.3053
18.548	28.288
18.632	28.3136
18.716	28.3298
18.8	28.3261
18.884	28.3511
18.968	28.4463
19.052	28.5785
19.136	28.666
19.22	28.6447
19.304	28.52
19.388	28.3733
19.472	28.3223
19.556	28.4323
19.64	28.6478
19.724	28.8371
19.808	28.917
19.892	28.923
19.976	28.9366
20.06	28.9608
20.144	28.9084
20.228	28.7061
20.312	28.3714
20.396	27.9809
20.48	27.5925
20.564	27.223
20.648	26.8852
20.732	26.6175
20.816	26.4665
20.9	26.4418
20.984	26.5107
21.068	26.6198
21.152	26.7213
21.236	26.7818
21.32	26.7857
21.404	26.7456
21.488	26.7096
21.572	26.7402
21.656	26.8678
21.74	27.0535
21.824	27.2018
21.908	27.2168
21.992	27.064
22.076	26.7915
22.16	26.5081
22.244	26.3273
22.328	26.3105
22.412	26.4479
22.496	26.6602
22.58	26.8514
22.664	26.9534
22.748	26.952
22.832	26.8755
22.916	26.7574
23	26.5825
23.084	26.2963
23.168	25.8326
23.252	25.1792
23.336	24.4175
23.42	23.7036
23.504	23.1966
23.588	22.9744
23.672	22.9987
23.756	23.1263
23.84	23.1947
23.924	23.0961
24.008	22.8334
24.092	22.5138
24.176	22.2692
24.26	22.2147
24.344	22.4029
24.428	22.8128
24.512	23.4204
24.596	24.1812
24.68	25.0368
24.764	25.9154
24.848	26.6939
24.932	27.2152
25.016	27.3569
25.1	27.0892
25.184	26.5051
25.268	25.783
25.352	25.0965
25.436	24.5802
25.52	24.2593
25.604	24.0316
25.688	23.6548
25.772	22.8251
25.856	21.2942
25.94	19.0075
26.024	16.0947
26.108	12.7965
26.192	9.284744
26.276	5.615104
26.36	1.738961
26.444	-2.336349
26.528	-6.433391
26.612	-10.1038
26.696	-12.8477
26.78	-14.3579
26.864	-14.6401
26.948	-14.0748
27.028	-13.4161