File: Bakgrunnsmateriale/MATLAB/FTIR/ftir_data/LPE453/Mapping_121/LPE453_t41_cm-1.asc
PE IR       SPECTRUM    SPECTRUM    ASCII       PEDS        1.60
  -1
LP59D5~1.ASC
17/05/16
17:40:53.00
17/05/16
17:40:53.00
tln
$LPE453_t0041$<tbV0>[-5.2,-5.2,8.0,0.0,27,1,0]
370
64

2002,4.07
MIRTGS : RIGHTBACK : INTERNAL 2
MIR : ON : INTERNAL 2
OPTKBR

0.200000
8
8.000000
FILLER
RATIO
SPECTRUM
UNLOCKED 256

DOUBLE
64
COMBINED
1
0
0

1.000000
RATIO

1
0
TRUE
51149
0
LEFT NOT FITTED RIGHT NOT FITTED 0
NONE
NONE
15600
12
4.427000
51148
TRUE
1 0 8 72 0 0 0 0

15798

#HDR
-1
-1
#GR
CM-1
%T
2.38419e-05
0.0
5000
-1.000000
4631
8
35.904
-37.5846
#DATA
5000	0.154805
4984	-0.085330
4968	0.734615
4952	-0.122189
4936	-0.342082
4920	0.139260
4904	0.248599
4888	0.017905
4872	0.810647
4856	-0.043988
4840	0.069355
4824	0.082826
4808	-0.080680
4792	0.204086
4776	-0.035047
4760	0.066041
4744	0.326418
4728	-0.005602
4712	0.171256
4696	0.240826
4680	0.401473
4664	0.309586
4648	0.274229
4632	0.357031
4616	0.180482
4600	-0.332880
4584	0.515961
4568	-0.023794
4552	-1.213884
4536	-1.921749
4520	5.980396
4504	0.009417
4488	-1.313066
4472	-0.418996
4456	-0.559592
4440	-0.073027
4424	-0.254487
4408	0.365447
4392	0.428748
4376	0.394058
4360	-0.024628
4344	-0.279784
4328	0.264167
4312	-0.323271
4296	-0.025057
4280	0.031375
4264	-0.088024
4248	-0.230121
4232	0.049972
4216	-0.096058
4200	0.167989
4184	0.665879
4168	0.064945
4152	0.119256
4136	0.100159
4120	-0.124597
4104	-0.053811
4088	0.131201
4072	0.013422
4056	0.196266
4040	-0.006175
4024	0.097203
4008	0.190210
3992	0.022745
3976	0.036573
3960	0.115513
3944	-0.104260
3928	0.069236
3912	-0.007247
3896	-0.017952
3880	-0.152277
3864	0.009226
3848	0.291490
3832	0.159287
3816	0.007987
3800	0.043010
3784	-0.027132
3768	0.203537
3752	0.073409
3736	-0.185227
3720	0.132179
3704	-0.034356
3688	0.199961
3672	0.080275
3656	0.333571
3640	0.056838
3624	0.044584
3608	0.290083
3592	0.051188
3576	0.196743
3560	0.216412
3544	0.064373
3528	0.117778
3512	0.130295
3496	0.043964
3480	0.075912
3464	0.227046
3448	0.071930
3432	0.004863
3416	0.011849
3400	0.125360
3384	0.086379
3368	0.116491
3352	-0.010418
3336	0.108313
3320	-0.141406
3304	0.108361
3288	0.056743
3272	0.063014
3256	0.139284
3240	0.210428
3224	-0.077819
3208	-0.019860
3192	0.208210
3176	0.010228
3160	-0.016999
3144	0.090169
3128	0.125646
3112	0.291872
3096	0.043416
3080	-0.133299
3064	-0.027465
3048	0.038146
3032	0.033211
3016	0.023698
3000	-0.082635
2984	0.019145
2968	0.085854
2952	-0.011539
2936	-0.016617
2920	-0.002479
2904	0.103831
2888	0.110435
2872	0.024914
2856	0.212240
2840	0.118994
2824	0.021052
2808	0.089764
2792	0.034666
2776	0.041604
2760	-0.096702
2744	-0.075268
2728	-0.052642
2712	0.066876
2696	0.047588
2680	0.038146
2664	0.044059
2648	0.044107
2632	-0.018930
2616	0.030112
2600	0.102210
2584	0.011634
2568	-0.039815
2552	0.062966
2536	0.041365
2520	0.053668
2504	0.112724
2488	0.247645
2472	0.006413
2456	0.072193
2440	-0.039219
2424	-0.198650
2408	0.135445
2392	0.004458
2376	0.088930
2360	0.074648
2344	0.062417
2328	0.267744
2312	0.351953
2296	0.450396
2280	0.654244
2264	1.145100
2248	1.631784
2232	2.066564
2216	3.056788
2200	4.127383
2184	5.425262
2168	7.160043
2152	8.928704
2136	10.7888
2120	12.8613
2104	14.8001
2088	17.0761
2072	19.2472
2056	21.0173
2040	22.8105
2024	24.6582
2008	26.0397
1992	27.2763
1976	28.7182
1960	29.6899
1944	30.6072
1928	31.4546
1912	32.2413
1896	32.7122
1880	33.3518
1864	33.848
1848	34.1923
1832	34.4284
1816	34.8209
1800	34.9185
1784	35.0918
1768	35.314
1752	35.3253
1736	35.4582
1720	35.4711
1704	35.6098
1688	35.6168
1672	35.7019
1656	35.8126
1640	35.8319
1624	35.7262
1608	35.6724
1592	35.8361
1576	35.8058
1560	35.5572
1544	35.8457
1528	35.7996
1512	35.6099
1496	35.6251
1480	35.6568
1464	35.3086
1448	35.4455
1432	35.5294
1416	35.5104
1400	35.1452
1384	35.364
1368	35.3972
1352	35.1684
1336	35.1086
1320	35.4307
1304	35.1004
1288	34.9267
1272	34.9565
1256	34.9725
1240	34.7539
1224	34.8727
1208	34.9472
1192	34.8161
1176	34.4745
1160	34.4434
1144	34.6577
1128	34.4554
1112	34.1867
1096	34.1413
1080	34.0192
1064	33.7952
1048	33.7059
1032	33.9859
1016	33.7253
1000	33.2376
984	 33.6489
968	 33.4042
952	 32.593
936	 32.8394
920	 33.1405
904	 32.3545
888	 32.1079
872	 32.459
856	 31.9925
840	 31.2933
824	 31.7903
808	 31.4921
792	 31.0433
776	 30.4332
760	 30.626
744	 31.0168
728	 29.8697
712	 29.5483
696	 29.9487
680	 28.8414
664	 28.3672
648	 28.5523
632	 28.1421
616	 27.2439
600	 26.5146
584	 27.2195
568	 26.4798
552	 25.4994
536	 25.9774
520	 24.4254
504	 24.3559
488	 23.9107
472	 23.6667
456	 23.9544
440	 22.1128
424	 21.9189
408	 20.8866
392	 29.7765
376	 -29.617
370	 -27.3467