File: Bakgrunnsmateriale/MATLAB/FTIR/ftir_data/LPE453/Mapping_121/LPE453_t19.asc
PE IR       SPECTRUM    SPECTRUM    ASCII       PEDS        1.60
  -1
LPE79D~1.ASC
17/05/16
15:51:41.00
17/05/16
15:52:07.00
tln
$LPE453_t0019$<tbV0>[-5.2,-10.4,8.0,0.0,27,1,0]
27.028
64

2002,4.07
MIRTGS : RIGHTBACK : INTERNAL 2
MIR : ON : INTERNAL 2
OPTKBR

0.200000
8
8.000000
FILLER
RATIO
SPECTRUM
UNLOCKED 256

DOUBLE
64
COMBINED
1
0
0

0.002000
RATIO

1
0
TRUE
51149
0
LEFT NOT FITTED RIGHT NOT FITTED 0
NONE
NONE
15600
12
4.427000
51148
TRUE
1 0 8 72 0 0 0 0

15798

#HDR
-1
-1
#GR
µM
%T
2.38419e-05
0.0
2.000000
0.002000
12515
8
41.7263
-1.228923
#DATA
2.000000	 0.009632
2.084000	 -0.040175
2.168000	 0.067582
2.252000	 0.345113
2.336000	 0.198957
2.420000	 0.051527
2.504000	 0.207160
2.588000	 -0.030109
2.672000	 -0.084090
2.756000	 -0.026299
2.840000	 -0.074747
2.924000	 -0.018903
3.008000	 0.187490
3.092000	 0.074171
3.176000	 -0.074673
3.260000	 0.137035
3.344000	 -0.056467
3.428000	 0.037777
3.512000	 -0.015724
3.596000	 -0.060789
3.680000	 0.082091
3.764000	 0.023768
3.848000	 -0.058126
3.932000	 -0.046714
4.016000	 0.124347
4.100000	 -0.046619
4.184000	 0.089522
4.268000	 0.280075
4.352000	 0.937153
4.436000	 2.216932
4.520000	 4.891117
4.604000	 8.812384
4.688000	 13.7483
4.772000	 19.0368
4.856000	 23.7798
4.940000	 27.5791
5.024000	 30.4136
5.108000	 32.6702
5.192000	 34.3367
5.276000	 35.1588
5.359999	 36.3327
5.444000	 36.4806
5.528000	 37.2526
5.612000	 37.4176
5.696000	 37.6175
5.780000	 38.1291
5.864000	 37.8126
5.948000	 38.5202
6.032000	 38.1321
6.116000	 38.1465
6.200000	 38.5832
6.284000	 37.7697
6.368000	 38.2204
6.452000	 38.5974
6.536000	 37.8489
6.620000	 38.192
6.704000	 38.4022
6.788000	 38.0579
6.872000	 37.7776
6.956000	 38.3762
7.040000	 38.2194
7.124000	 37.652
7.208000	 37.6389
7.292000	 38.2626
7.376000	 38.03
7.460000	 37.504
7.544000	 37.5541
7.628000	 38.0859
7.712000	 38.1929
7.796000	 37.5793
7.880000	 37.0849
7.964000	 37.5024
8.048000	 38.0896
8.132000	 37.8686
8.216000	 37.3008
8.300000	 37.0311
8.384000	 37.4847
8.468000	 38.1031
8.552000	 37.9678
8.635999	 37.3003
8.719999	 36.9542
8.804000	 37.0992
8.888000	 37.7128
8.972000	 37.864
9.056000	 37.6017
9.140000	 37.2654
9.224000	 36.5417
9.308000	 36.7114
9.391999	 37.3409
9.475999	 37.5976
9.560000	 37.494
9.644000	 37.2331
9.728000	 36.669
9.812000	 36.2886
9.896000	 36.1956
9.980000	 36.7008
10.064	37.2882
10.148	37.7019
10.232	37.5724
10.316	36.9656
10.4	36.3301
10.484	36.1066
10.568	36.1131
10.652	36.4856
10.736	37.019
10.82	37.1281
10.904	37.1017
10.988	36.7694
11.072	36.1711
11.156	35.6353
11.24	35.3859
11.324	35.4504
11.408	35.8644
11.492	36.2668
11.576	36.5524
11.66	36.6745
11.744	36.393
11.828	35.9223
11.912	35.4697
11.996	35.2102
12.08	35.0277
12.164	34.9242
12.248	35.1305
12.332	35.4675
12.416	35.7011
12.5	35.8947
12.584	35.8977
12.668	35.6277
12.752	35.2412
12.836	35.012
12.92	34.8381
13.004	34.4179
13.088	34.2762
13.172	34.5106
13.256	34.3256
13.34	34.1808
13.424	34.4833
13.508	34.8858
13.592	35.0273
13.676	35.0087
13.76	34.9032
13.844	34.7038
13.928	34.5433
14.012	34.2041
14.096	33.5594
14.18	33.0653
14.264	32.9579
14.348	33.0311
14.432	33.2015
14.516	33.4433
14.6	33.5672
14.684	33.6911
14.768	34.0286
14.852	34.4647
14.936	34.6858
15.02	34.5595
15.104	34.1632
15.188	33.6033
15.272	33.2013
15.356	33.1233
15.44	33.0305
15.524	32.6791
15.608	32.2549
15.692	32.0057
15.776	31.9763
15.86	32.0964
15.944	32.2397
16.028	32.2754
16.112	32.2507
16.196	32.3246
16.28	32.4977
16.364	32.6769
16.448	32.8386
16.532	32.8885
16.616	32.7166
16.7	32.4449
16.784	32.2875
16.868	32.2772
16.952	32.2899
17.036	32.1993
17.12	31.942
17.204	31.5607
17.288	31.202
17.372	30.9942
17.456	30.9367
17.54	30.9594
17.624	31.0471
17.708	31.2142
17.792	31.4054
17.876	31.5349
17.96	31.6155
18.044	31.7316
18.128	31.8784
18.212	31.9225
18.296	31.7682
18.38	31.4943
18.464	31.2937
18.548	31.2759
18.632	31.3731
18.716	31.4478
18.8	31.4415
18.884	31.3588
18.968	31.1989
19.052	30.9793
19.136	30.7681
19.22	30.6172
19.304	30.4786
19.388	30.2342
19.472	29.8193
19.556	29.2974
19.64	28.8302
19.724	28.587
19.808	28.6508
19.892	28.931
19.976	29.1818
20.06	29.1482
20.144	28.7527
20.228	28.1671
20.312	27.6983
20.396	27.5752
20.48	27.8027
20.564	28.2019
20.648	28.5894
20.732	28.9208
20.816	29.2829
20.9	29.7513
20.984	30.2577
21.068	30.6141
21.152	30.6634
21.236	30.4153
21.32	30.0422
21.404	29.7402
21.488	29.6066
21.572	29.6063
21.656	29.6421
21.74	29.6399
21.824	29.5884
21.908	29.5201
21.992	29.4577
22.076	29.3862
22.16	29.2718
22.244	29.1048
22.328	28.9141
22.412	28.7437
22.496	28.5926
22.58	28.4031
22.664	28.0825
22.748	27.545
22.832	26.7801
22.916	25.8764
23	25.0093
23.084	24.3726
23.168	24.128
23.252	24.3211
23.336	24.8687
23.42	25.621
23.504	26.4168
23.588	27.0961
23.672	27.5222
23.756	27.6059
23.84	27.2665
23.924	26.4689
24.008	25.2603
24.092	23.7977
24.176	22.3427
24.26	21.193
24.344	20.6353
24.428	20.8063
24.512	21.6053
24.596	22.7022
24.68	23.5946
24.764	23.7757
24.848	22.9186
24.932	21.1207
25.016	18.9789
25.1	17.3461
25.184	17.1421
25.268	18.8913
25.352	22.4891
25.436	27.2405
25.52	32.0711
25.604	35.9225
25.688	38.007
25.772	38.1096
25.856	36.6132
25.94	34.3968
26.024	32.5831
26.108	32.0937
26.192	33.314
26.276	35.9199
26.36	38.9688
26.444	41.2226
26.528	41.5994
26.612	39.5444
26.696	35.0919
26.78	28.8296
26.864	21.6807
26.948	14.5818
27.028	8.553647