File: Bakgrunnsmateriale/MATLAB/FTIR/ftir_data/LPE453/Mapping_121/LPE453_t72.asc
PE IR       SPECTRUM    SPECTRUM    ASCII       PEDS        1.60
  -1
LPCFA1~1.ASC
17/05/16
20:18:07.00
17/05/16
20:18:34.00
tln
$LPE453_t0072$<tbV0>[0.0,2.6,8.0,0.0,27,1,0]
27.028
64

2002,4.07
MIRTGS : RIGHTBACK : INTERNAL 2
MIR : ON : INTERNAL 2
OPTKBR

0.200000
8
8.000000
FILLER
RATIO
SPECTRUM
UNLOCKED 256

DOUBLE
64
COMBINED
1
0
0

0.002000
RATIO

1
0
TRUE
51149
0
LEFT NOT FITTED RIGHT NOT FITTED 0
NONE
NONE
15600
12
4.427000
51148
TRUE
1 0 8 72 0 0 0 0

15798

#HDR
-1
-1
#GR
µM
%T
2.38419e-05
0.0
2.000000
0.002000
12515
8
33.1836
-0.816187
#DATA
2.000000	 0.122928
2.084000	 0.599628
2.168000	 0.403916
2.252000	 -0.611689
2.336000	 -0.521829
2.420000	 0.211990
2.504000	 0.186568
2.588000	 0.076074
2.672000	 0.106609
2.756000	 0.073918
2.840000	 -0.071746
2.924000	 0.134100
3.008000	 0.096424
3.092000	 0.266973
3.176000	 0.091734
3.260000	 0.150409
3.344000	 0.023604
3.428000	 0.026304
3.512000	 0.062710
3.596000	 -0.029828
3.680000	 0.028627
3.764000	 0.078346
3.848000	 0.059682
3.932000	 0.059507
4.016000	 0.086877
4.100000	 0.030648
4.184000	 -0.038379
4.268000	 0.052856
4.352000	 0.341671
4.436000	 1.062583
4.520000	 2.885165
4.604000	 5.809253
4.688000	 9.955887
4.772000	 14.4949
4.856000	 18.767
4.940000	 22.3393
5.024000	 25.2277
5.108000	 27.4198
5.192000	 29.0465
5.276000	 30.2524
5.359999	 31.135
5.444000	 31.6687
5.528000	 32.1454
5.612000	 32.3996
5.696000	 32.707
5.780000	 32.859
5.864000	 32.9004
5.948000	 32.9532
6.032000	 33.0297
6.116000	 32.9669
6.200000	 33.1014
6.284000	 32.8313
6.368000	 33.1275
6.452000	 32.7292
6.536000	 32.9967
6.620000	 32.9498
6.704000	 32.5057
6.788000	 32.8435
6.872000	 32.4983
6.956000	 32.4989
7.040000	 32.7529
7.124000	 32.4242
7.208000	 32.4263
7.292000	 32.6677
7.376000	 32.4729
7.460000	 32.0306
7.544000	 32.3713
7.628000	 32.2707
7.712000	 31.8979
7.796000	 31.9117
7.880000	 32.3118
7.964000	 31.9939
8.048000	 31.4727
8.132000	 31.6371
8.216000	 32.0672
8.300000	 31.7055
8.384000	 31.3548
8.468000	 31.3173
8.552000	 31.6387
8.635999	 31.6055
8.719999	 31.1957
8.804000	 30.9485
8.888000	 31.1145
8.972000	 31.4872
9.056000	 31.3436
9.140000	 30.7965
9.224000	 30.466
9.308000	 30.813
9.391999	 31.11
9.475999	 31.1008
9.560000	 30.4906
9.644000	 30.2517
9.728000	 30.252
9.812000	 30.3345
9.896000	 30.7051
9.980000	 30.2814
10.064	30.1042
10.148	29.5808
10.232	29.6725
10.316	29.8534
10.4	29.8909
10.484	30.0219
10.568	29.6089
10.652	29.2968
10.736	29.0552
10.82	28.959
10.904	29.2314
10.988	29.4472
11.072	29.2855
11.156	29.0908
11.24	28.7302
11.324	28.2578
11.408	28.2249
11.492	28.3624
11.576	28.6943
11.66	28.8797
11.744	28.7463
11.828	28.4281
11.912	28.1331
11.996	27.7509
12.08	27.5325
12.164	27.655
12.248	27.6953
12.332	27.6098
12.416	27.7643
12.5	27.8886
12.584	27.575
12.668	27.2779
12.752	27.0367
12.836	26.7412
12.92	26.7169
13.004	26.8426
13.088	26.9629
13.172	27.046
13.256	27.0382
13.34	26.7722
13.424	26.3559
13.508	26.2225
13.592	26.3451
13.676	26.1664
13.76	25.7656
13.844	25.3924
13.928	25.2382
14.012	25.4043
14.096	25.681
14.18	25.8418
14.264	25.8102
14.348	25.7037
14.432	25.6452
14.516	25.5637
14.6	25.2585
14.684	24.837
14.768	24.5065
14.852	24.3124
14.936	24.2568
15.02	24.2901
15.104	24.348
15.188	24.4211
15.272	24.5371
15.356	24.6663
15.44	24.7181
15.524	24.6637
15.608	24.5563
15.692	24.3981
15.776	24.172
15.86	23.9489
15.944	23.7306
16.028	23.457
16.112	23.2123
16.196	23.0902
16.28	23.0633
16.364	23.1241
16.448	23.2348
16.532	23.2653
16.616	23.2502
16.7	23.3386
16.784	23.4385
16.868	23.3624
16.952	23.1653
17.036	23.0255
17.12	22.9581
17.204	22.8118
17.288	22.4873
17.372	22.1016
17.456	21.8895
17.54	21.9195
17.624	22.0294
17.708	22.0719
17.792	22.0498
17.876	21.9947
17.96	21.8832
18.044	21.7527
18.128	21.7366
18.212	21.8817
18.296	22.0456
18.38	22.0739
18.464	21.9873
18.548	21.9148
18.632	21.9083
18.716	21.9258
18.8	21.9393
18.884	21.9487
18.968	21.9088
19.052	21.733
19.136	21.3861
19.22	20.9339
19.304	20.5001
19.388	20.1886
19.472	20.0442
19.556	20.0486
19.64	20.1339
19.724	20.2243
19.808	20.274
19.892	20.2804
19.976	20.2548
20.06	20.1946
20.144	20.0844
20.228	19.9241
20.312	19.7494
20.396	19.6218
20.48	19.5888
20.564	19.6466
20.648	19.7234
20.732	19.7153
20.816	19.5478
20.9	19.2384
20.984	18.8922
21.068	18.6375
21.152	18.5446
21.236	18.5866
21.32	18.6732
21.404	18.724
21.488	18.724
21.572	18.7055
21.656	18.6948
21.74	18.6804
21.824	18.6435
21.908	18.6121
21.992	18.6661
22.076	18.8826
22.16	19.2536
22.244	19.6593
22.328	19.9323
22.412	19.9574
22.496	19.7544
22.58	19.4416
22.664	19.1524
22.748	18.9589
22.832	18.8352
22.916	18.6953
23	18.4633
23.084	18.0903
23.168	17.5821
23.252	16.9921
23.336	16.3798
23.42	15.7741
23.504	15.1989
23.588	14.6651
23.672	14.1909
23.756	13.8487
23.84	13.7451
23.924	13.9745
24.008	14.5886
24.092	15.5693
24.176	16.7827
24.26	17.9633
24.344	18.7378
24.428	18.7646
24.512	17.7943
24.596	15.8091
24.68	13.0646
24.764	10.0704
24.848	7.428501
24.932	5.854098
25.016	5.946451
25.1	7.983430
25.184	11.7989
25.268	16.6968
25.352	21.5808
25.436	25.2636
25.52	26.8982
25.604	26.2045
25.688	23.5132
25.772	19.7062
25.856	15.8927
25.94	13.0799
26.024	11.9283
26.108	12.5625
26.192	14.6246
26.276	17.4434
26.36	20.2674
26.444	22.4208
26.528	23.4489
26.612	23.0996
26.696	21.4064
26.78	18.7017
26.864	15.4019
26.948	11.7092
27.028	7.647943