File: Bakgrunnsmateriale/MATLAB/FTIR/ftir_data/LPE453/Mapping_121/LPE453_t100_cm-1.asc
PE IR       SPECTRUM    SPECTRUM    ASCII       PEDS        1.60
  -1
LP0378~1.ASC
17/05/16
22:34:57.00
17/05/16
22:34:57.00
tln
$LPE453_t0100$<tbV0>[13.0,10.4,8.0,0.0,27,1,0]
370
64

2002,4.07
MIRTGS : RIGHTBACK : INTERNAL 2
MIR : ON : INTERNAL 2
OPTKBR

0.200000
8
8.000000
FILLER
RATIO
SPECTRUM
UNLOCKED 256

DOUBLE
64
COMBINED
1
0
0

1.000000
RATIO

1
0
TRUE
51149
0
LEFT NOT FITTED RIGHT NOT FITTED 0
NONE
NONE
15600
12
4.427000
51148
TRUE
1 0 8 72 0 0 0 0

15798

#HDR
-1
-1
#GR
CM-1
%T
2.38419e-05
0.0
5000
-1.000000
4631
8
24.573
-10.2397
#DATA
5000	0.186824
4984	0.265049
4968	-0.101089
4952	0.113272
4936	0.197005
4920	0.019788
4904	0.025725
4888	-0.029087
4872	0.487470
4856	-0.094962
4840	0.057196
4824	0.286889
4808	0.182151
4792	0.244450
4776	0.105834
4760	0.015234
4744	0.462055
4728	0.191736
4712	-0.250172
4696	0.034999
4680	-0.068283
4664	0.192952
4648	0.265383
4632	0.027036
4616	1.168894
4600	0.174498
4584	0.579452
4568	-0.469708
4552	-0.185418
4536	-0.529313
4520	0.365686
4504	5.193424
4488	-2.153897
4472	-0.778484
4456	0.360083
4440	0.182580
4424	-0.180888
4408	0.079846
4392	-0.146198
4376	0.805711
4360	-0.159358
4344	0.471591
4328	0.502395
4312	0.431609
4296	0.238108
4280	-0.136685
4264	0.214719
4248	-0.173139
4232	0.228977
4216	0.081253
4200	0.266194
4184	-0.000381
4168	0.135302
4152	0.076699
4136	0.080108
4120	0.097703
4104	-0.055551
4088	0.175142
4072	-0.000739
4056	0.020599
4040	-0.112962
4024	0.341558
4008	0.198245
3992	0.153803
3976	-0.085949
3960	0.001430
3944	0.198197
3928	0.123858
3912	0.235843
3896	0.238728
3880	0.201034
3864	0.042653
3848	-0.012445
3832	-0.010371
3816	0.097346
3800	0.104951
3784	-0.009465
3768	0.019145
3752	0.128316
3736	-0.026202
3720	-0.037932
3704	0.020360
3688	0.059676
3672	0.003576
3656	-0.017690
3640	0.111055
3624	0.011849
3608	0.042366
3592	0.082707
3576	0.078225
3560	-0.104570
3544	0.073242
3528	-0.060510
3512	0.068378
3496	-0.089669
3480	-0.023794
3464	0.070238
3448	0.014972
3432	0.061655
3416	0.015425
3400	0.219106
3384	0.115942
3368	-0.021266
3352	0.057911
3336	0.026440
3320	0.038599
3304	-0.128579
3288	0.101470
3272	0.034189
3256	0.168323
3240	0.090193
3224	-0.098848
3208	0.105524
3192	0.016164
3176	0.047945
3160	0.132894
3144	0.028109
3128	0.044989
3112	0.137948
3096	-0.015974
3080	-0.030040
3064	0.080132
3048	0.043034
3032	0.112509
3016	-0.044107
3000	0.036382
2984	0.016307
2968	0.046086
2952	0.026392
2936	-0.023078
2920	0.062441
2904	-0.007557
2888	0.016570
2872	-0.010490
2856	-0.110888
2840	0.065422
2824	0.016331
2808	-0.006031
2792	0.088906
2776	0.034379
2760	0.090599
2744	0.052022
2728	0.057077
2712	0.039219
2696	-0.149774
2680	0.038337
2664	0.072312
2648	0.009131
2632	-0.072956
2616	-0.010728
2600	0.009965
2584	0.061988
2568	0.081634
2552	-0.013899
2536	0.079178
2520	-0.067019
2504	0.125002
2488	-0.028657
2472	0.052046
2456	-0.054121
2440	0.075268
2424	0.191617
2408	0.053215
2392	0.107431
2376	0.007891
2360	-0.064730
2344	-0.003194
2328	0.005578
2312	-0.002741
2296	0.122761
2280	0.023746
2264	0.115728
2248	0.274872
2232	0.457191
2216	0.770735
2200	1.190543
2184	1.649975
2168	2.222323
2152	3.102445
2136	4.106259
2120	5.136919
2104	6.453680
2088	7.770371
2072	9.218311
2056	10.4664
2040	11.8118
2024	13.0492
2008	14.2185
1992	15.4501
1976	16.4847
1960	17.3847
1944	18.246
1928	18.9878
1912	19.6824
1896	20.2783
1880	20.8654
1864	21.2957
1848	21.8257
1832	22.1708
1816	22.5281
1800	22.771
1784	22.9964
1768	23.2256
1752	23.4637
1736	23.5944
1720	23.8334
1704	23.8352
1688	24.0414
1672	24.0877
1656	24.1827
1640	24.3065
1624	24.4245
1608	24.4405
1592	24.3889
1576	24.3768
1560	24.4678
1544	24.4752
1528	24.4471
1512	24.4779
1496	24.4201
1480	24.4897
1464	24.4634
1448	24.4913
1432	24.2693
1416	24.2747
1400	24.3581
1384	24.2058
1368	24.2041
1352	24.2449
1336	24.1001
1320	24.0721
1304	24.0272
1288	23.9609
1272	23.8601
1256	23.7179
1240	23.7457
1224	23.5759
1208	23.7351
1192	23.5876
1176	23.4736
1160	23.509
1144	23.2852
1128	23.2808
1112	23.1763
1096	23.1867
1080	23.1155
1064	22.8396
1048	22.7494
1032	22.7635
1016	22.4681
1000	22.4493
984	 22.3166
968	 22.0182
952	 22.1481
936	 21.7612
920	 21.6362
904	 21.4011
888	 21.3299
872	 20.986
856	 20.9159
840	 20.6163
824	 20.1791
808	 20.058
792	 19.9754
776	 19.5828
760	 19.3369
744	 19.4323
728	 18.794
712	 18.6666
696	 18.6002
680	 17.9958
664	 17.6354
648	 17.2707
632	 17.099
616	 16.7649
600	 16.1353
584	 15.6384
568	 15.4189
552	 14.6237
536	 14.4638
520	 13.9024
504	 14.2252
488	 12.1951
472	 12.9719
456	 12.8297
440	 11.9269
424	 8.347988
408	 6.655788
392	 -2.912521
376	 -6.925296
370	 -10.2397