File: Bakgrunnsmateriale/MATLAB/FTIR/ftir_data/LPE453/Mapping_121/LPE453_t55.asc
PE IR       SPECTRUM    SPECTRUM    ASCII       PEDS        1.60
  -1
LPD7AD~1.ASC
17/05/16
18:52:24.00
17/05/16
18:52:50.00
tln
$LPE453_t0055$<tbV0>[-13.0,-2.6,8.0,0.0,27,1,0]
27.028
64

2002,4.07
MIRTGS : RIGHTBACK : INTERNAL 2
MIR : ON : INTERNAL 2
OPTKBR

0.200000
8
8.000000
FILLER
RATIO
SPECTRUM
UNLOCKED 256

DOUBLE
64
COMBINED
1
0
0

0.002000
RATIO

1
0
TRUE
51149
0
LEFT NOT FITTED RIGHT NOT FITTED 0
NONE
NONE
15600
12
4.427000
51148
TRUE
1 0 8 72 0 0 0 0

15798

#HDR
-1
-1
#GR
µM
%T
2.38419e-05
0.0
2.000000
0.002000
12515
8
30.6833
-1.940066
#DATA
2.000000	 -0.160932
2.084000	 0.277654
2.168000	 0.478117
2.252000	 -0.550139
2.336000	 0.146522
2.420000	 -0.024190
2.504000	 0.187246
2.588000	 0.067108
2.672000	 0.132010
2.756000	 0.026113
2.840000	 0.059547
2.924000	 -0.138649
3.008000	 -0.001573
3.092000	 0.019303
3.176000	 0.059805
3.260000	 0.009372
3.344000	 -0.040617
3.428000	 0.210630
3.512000	 0.108332
3.596000	 0.015614
3.680000	 0.042086
3.764000	 0.053838
3.848000	 -0.059233
3.932000	 0.129672
4.016000	 0.026470
4.100000	 0.073847
4.184000	 0.086394
4.268000	 -0.138798
4.352000	 0.182594
4.436000	 0.523614
4.520000	 1.676129
4.604000	 3.660600
4.688000	 6.679105
4.772000	 10.3214
4.856000	 13.9309
4.940000	 17.3775
5.024000	 20.0733
5.108000	 22.3548
5.192000	 24.1656
5.276000	 25.4597
5.359999	 26.5255
5.444000	 27.3356
5.528000	 28.0455
5.612000	 28.4563
5.696000	 28.8356
5.780000	 29.2726
5.864000	 29.4839
5.948000	 29.7197
6.032000	 29.8228
6.116000	 29.9483
6.200000	 30.1495
6.284000	 30.2786
6.368000	 30.4311
6.452000	 30.4253
6.536000	 30.5434
6.620000	 30.4508
6.704000	 30.6821
6.788000	 30.4674
6.872000	 30.4591
6.956000	 30.5658
7.040000	 30.4986
7.124000	 30.4833
7.208000	 30.2633
7.292000	 30.2618
7.376000	 30.2058
7.460000	 30.2841
7.544000	 30.1835
7.628000	 30.151
7.712000	 30.1786
7.796000	 30.0665
7.880000	 30.0482
7.964000	 29.9965
8.048000	 29.8225
8.132000	 29.7249
8.216000	 29.7012
8.300000	 29.7324
8.384000	 29.7112
8.468000	 29.4364
8.552000	 29.4377
8.635999	 29.4098
8.719999	 29.2268
8.804000	 29.066
8.888000	 29.1072
8.972000	 29.022
9.056000	 28.909
9.140000	 28.7931
9.224000	 28.658
9.308000	 28.6367
9.391999	 28.4817
9.475999	 28.5469
9.560000	 28.0729
9.644000	 27.998
9.728000	 28.0595
9.812000	 27.9196
9.896000	 27.9006
9.980000	 27.7898
10.064	27.6402
10.148	27.4691
10.232	27.5542
10.316	27.4024
10.4	27.1831
10.484	26.9875
10.568	26.9656
10.652	26.8466
10.736	26.7393
10.82	26.8148
10.904	26.7084
10.988	26.3909
11.072	26.2297
11.156	26.2073
11.24	26.2535
11.324	26.1297
11.408	25.9084
11.492	25.8387
11.576	25.7291
11.66	25.727
11.744	25.5168
11.828	25.2973
11.912	25.2722
11.996	25.3606
12.08	25.2573
12.164	25.0525
12.248	25.022
12.332	24.9055
12.416	24.8294
12.5	24.7957
12.584	24.622
12.668	24.3939
12.752	24.3044
12.836	24.3535
12.92	24.3004
13.004	24.1142
13.088	24.0366
13.172	24.1219
13.256	24.1305
13.34	23.9424
13.424	23.76
13.508	23.4813
13.592	23.3853
13.676	23.5218
13.76	23.5439
13.844	23.4914
13.928	23.4344
14.012	23.2939
14.096	23.1907
14.18	22.9703
14.264	22.7637
14.348	22.604
14.432	22.3306
14.516	22.385
14.6	22.6965
14.684	22.7778
14.768	22.6773
14.852	22.5413
14.936	22.4307
15.02	22.3628
15.104	22.3185
15.188	22.2435
15.272	22.112
15.356	21.996
15.44	21.9345
15.524	21.863
15.608	21.7402
15.692	21.6086
15.776	21.4267
15.86	21.1843
15.944	21.0939
16.028	21.2721
16.112	21.4838
16.196	21.4979
16.28	21.4245
16.364	21.4342
16.448	21.3794
16.532	21.0807
16.616	20.7207
16.7	20.5951
16.784	20.7307
16.868	20.9641
16.952	21.149
17.036	21.1984
17.12	21.0994
17.204	20.9122
17.288	20.6892
17.372	20.4285
17.456	20.156
17.54	19.9795
17.624	19.9561
17.708	19.9935
17.792	19.9612
17.876	19.8397
17.96	19.7189
18.044	19.6896
18.128	19.7646
18.212	19.8615
18.296	19.88
18.38	19.8129
18.464	19.7306
18.548	19.6678
18.632	19.5964
18.716	19.5018
18.8	19.4162
18.884	19.3585
18.968	19.2975
19.052	19.207
19.136	19.1246
19.22	19.114
19.304	19.1882
19.388	19.279
19.472	19.2978
19.556	19.2118
19.64	19.067
19.724	18.9361
19.808	18.8648
19.892	18.8592
19.976	18.8951
20.06	18.9181
20.144	18.853
20.228	18.6421
20.312	18.3018
20.396	17.9381
20.48	17.6813
20.564	17.5996
20.648	17.6707
20.732	17.8136
20.816	17.9499
20.9	18.0421
20.984	18.092
21.068	18.1129
21.152	18.0919
21.236	17.9864
21.32	17.7576
21.404	17.4285
21.488	17.101
21.572	16.9054
21.656	16.9056
21.74	17.0437
21.824	17.1763
21.908	17.1835
21.992	17.0567
22.076	16.8882
22.16	16.7942
22.244	16.8239
22.328	16.9242
22.412	17.0036
22.496	17.0128
22.58	16.9817
22.664	16.9889
22.748	17.1045
22.832	17.3267
22.916	17.5657
23	17.6835
23.084	17.5869
23.168	17.2739
23.252	16.8449
23.336	16.4644
23.42	16.2252
23.504	16.0931
23.588	15.9114
23.672	15.5121
23.756	14.8454
23.84	14.0575
23.924	13.4614
24.008	13.3399
24.092	13.7494
24.176	14.4561
24.26	15.0424
24.344	15.107
24.428	14.5365
24.512	13.592
24.596	12.7924
24.68	12.7243
24.764	13.7743
24.848	15.9177
24.932	18.6965
25.016	21.3914
25.1	23.2964
25.184	23.9551
25.268	23.3796
25.352	21.9842
25.436	20.4223
25.52	19.3013
25.604	18.9672
25.688	19.4835
25.772	20.6233
25.856	22.0004
25.94	23.2523
26.024	24.1106
26.108	24.4446
26.192	24.2635
26.276	23.6645
26.36	22.8128
26.444	21.7934
26.528	20.5617
26.612	18.9327
26.696	16.7333
26.78	13.9597
26.864	10.826
26.948	7.730800
27.028	5.262541