File: Bakgrunnsmateriale/MATLAB/FTIR/ftir_data/LPE453/Mapping_121/LPE453_t64.asc
PE IR       SPECTRUM    SPECTRUM    ASCII       PEDS        1.60
  -1
LPDBA9~1.ASC
17/05/16
19:34:31.00
17/05/16
19:34:57.00
tln
$LPE453_t0064$<tbV0>[-7.8,0.0,8.0,0.0,27,1,0]
27.028
64

2002,4.07
MIRTGS : RIGHTBACK : INTERNAL 2
MIR : ON : INTERNAL 2
OPTKBR

0.200000
8
8.000000
FILLER
RATIO
SPECTRUM
UNLOCKED 256

DOUBLE
64
COMBINED
1
0
0

0.002000
RATIO

1
0
TRUE
51149
0
LEFT NOT FITTED RIGHT NOT FITTED 0
NONE
NONE
15600
12
4.427000
51148
TRUE
1 0 8 72 0 0 0 0

15798

#HDR
-1
-1
#GR
µM
%T
2.38419e-05
0.0
2.000000
0.002000
12515
8
38.9113
-17.4954
#DATA
2.000000	 0.027656
2.084000	 0.059788
2.168000	 0.442997
2.252000	 -0.202665
2.336000	 -0.118286
2.420000	 0.119111
2.504000	 0.020646
2.588000	 0.243763
2.672000	 0.056349
2.756000	 0.115885
2.840000	 0.214534
2.924000	 -0.014650
3.008000	 0.071940
3.092000	 0.010129
3.176000	 -0.024084
3.260000	 0.002396
3.344000	 0.201722
3.428000	 0.034210
3.512000	 -0.013480
3.596000	 -0.006797
3.680000	 0.024435
3.764000	 0.067676
3.848000	 0.064335
3.932000	 0.047069
4.016000	 -0.017956
4.100000	 -0.060973
4.184000	 0.018939
4.268000	 -0.033507
4.352000	 0.257214
4.436000	 0.985202
4.520000	 2.523583
4.604000	 5.300953
4.688000	 9.287786
4.772000	 13.7452
4.856000	 18.1637
4.940000	 21.7926
5.024000	 24.8041
5.108000	 27.1123
5.192000	 28.8194
5.276000	 30.0019
5.359999	 30.9527
5.444000	 31.5727
5.528000	 31.9873
5.612000	 32.3337
5.696000	 32.6207
5.780000	 32.7118
5.864000	 32.8128
5.948000	 32.8811
6.032000	 32.9414
6.116000	 33.1553
6.200000	 33.0119
6.284000	 33.1151
6.368000	 33
6.452000	 32.9121
6.536000	 32.9566
6.620000	 32.8922
6.704000	 32.6286
6.788000	 32.8711
6.872000	 32.6789
6.956000	 32.8688
7.040000	 32.7347
7.124000	 32.4939
7.208000	 32.6704
7.292000	 32.6742
7.376000	 32.3014
7.460000	 32.4396
7.544000	 32.4913
7.628000	 32.308
7.712000	 32.1194
7.796000	 32.4011
7.880000	 32.2368
7.964000	 32.1018
8.048000	 32.0298
8.132000	 32.1839
8.216000	 32.1035
8.300000	 31.7587
8.384000	 31.7659
8.468000	 31.9375
8.552000	 31.8982
8.635999	 31.7479
8.719999	 31.6213
8.804000	 31.5842
8.888000	 31.7301
8.972000	 31.7467
9.056000	 31.2641
9.140000	 31.0563
9.224000	 31.3343
9.308000	 31.5173
9.391999	 31.3825
9.475999	 31.1923
9.560000	 30.981
9.644000	 30.7715
9.728000	 30.9181
9.812000	 31.0642
9.896000	 30.976
9.980000	 30.591
10.064	30.2054
10.148	30.1878
10.232	30.7124
10.316	30.5678
10.4	30.6971
10.484	30.4892
10.568	30.1912
10.652	29.8551
10.736	29.9021
10.82	29.8621
10.904	30.0154
10.988	29.9041
11.072	29.5801
11.156	29.3955
11.24	29.0806
11.324	28.9609
11.408	29.1091
11.492	29.3676
11.576	29.4427
11.66	29.2852
11.744	28.9486
11.828	28.8412
11.912	28.6822
11.996	28.3051
12.08	27.986
12.164	28.2113
12.248	28.5
12.332	28.3456
12.416	28.3952
12.5	28.2993
12.584	27.9837
12.668	27.6403
12.752	27.6426
12.836	27.6953
12.92	27.5449
13.004	27.5348
13.088	27.7846
13.172	28.1505
13.256	28.1352
13.34	27.8222
13.424	27.4921
13.508	27.1943
13.592	26.736
13.676	26.4563
13.76	26.6681
13.844	27.0276
13.928	27.1818
14.012	27.0205
14.096	26.7762
14.18	26.6447
14.264	26.6531
14.348	26.7739
14.432	26.6413
14.516	26.1455
14.6	25.7412
14.684	25.6914
14.768	25.8114
14.852	25.7992
14.936	25.7175
15.02	25.8112
15.104	25.9729
15.188	26.0624
15.272	26.0994
15.356	26.0812
15.44	25.979
15.524	25.6791
15.608	25.2081
15.692	24.837
15.776	24.6726
15.86	24.6075
15.944	24.5754
16.028	24.5949
16.112	24.6465
16.196	24.6538
16.28	24.6285
16.364	24.6152
16.448	24.5276
16.532	24.3726
16.616	24.3068
16.7	24.3013
16.784	24.202
16.868	24.0734
16.952	24.0913
17.036	24.2131
17.12	24.2185
17.204	23.9796
17.288	23.592
17.372	23.2763
17.456	23.1741
17.54	23.2311
17.624	23.2883
17.708	23.265
17.792	23.2026
17.876	23.1621
17.96	23.126
18.044	23.0293
18.128	22.8712
18.212	22.7502
18.296	22.7586
18.38	22.8588
18.464	22.9217
18.548	22.8726
18.632	22.7468
18.716	22.6079
18.8	22.4673
18.884	22.298
18.968	22.1042
19.052	21.9368
19.136	21.8333
19.22	21.7757
19.304	21.709
19.388	21.6034
19.472	21.4729
19.556	21.352
19.64	21.2636
19.724	21.2189
19.808	21.2205
19.892	21.2588
19.976	21.3171
20.06	21.3978
20.144	21.5308
20.228	21.7415
20.312	22.002
20.396	22.2314
20.48	22.3474
20.564	22.3293
20.648	22.2137
20.732	22.0501
20.816	21.8546
20.9	21.6173
20.984	21.3292
21.068	21.0045
21.152	20.6702
21.236	20.3418
21.32	20.0226
21.404	19.7179
21.488	19.4739
21.572	19.3616
21.656	19.4417
21.74	19.714
21.824	20.1078
21.908	20.5169
21.992	20.8498
22.076	21.0649
22.16	21.1702
22.244	21.1901
22.328	21.1402
22.412	21.0167
22.496	20.8015
22.58	20.4687
22.664	20.0015
22.748	19.4178
22.832	18.7713
22.916	18.1375
23	17.5725
23.084	17.0926
23.168	16.6835
23.252	16.3415
23.336	16.1089
23.42	16.0559
23.504	16.2378
23.588	16.6098
23.672	17.0224
23.756	17.2878
23.84	17.2783
23.924	17.0247
24.008	16.6832
24.092	16.4307
24.176	16.3734
24.26	16.4792
24.344	16.618
24.428	16.673
24.512	16.6302
24.596	16.5545
24.68	16.5897
24.764	16.92
24.848	17.6113
24.932	18.6353
25.016	19.8979
25.1	21.2678
25.184	22.6942
25.268	24.2265
25.352	25.9453
25.436	27.8793
25.52	29.96
25.604	32.0532
25.688	33.9922
25.772	35.6597
25.856	37.0089
25.94	38.0593
26.024	38.7544
26.108	38.8586
26.192	37.9875
26.276	35.684
26.36	31.587
26.444	25.6655
26.528	18.306
26.612	10.2064
26.696	2.218182
26.78	-4.832179
26.864	-10.5007
26.948	-14.721
27.028	-17.4954