File: Bakgrunnsmateriale/MATLAB/FTIR/ftir_data/LPE453/Mapping_121/LPE453_t25.asc
PE IR       SPECTRUM    SPECTRUM    ASCII       PEDS        1.60
  -1
LPDB9D~1.ASC
17/05/16
16:26:29.00
17/05/16
16:26:55.00
tln
$LPE453_t0025$<tbV0>[7.8,-7.8,8.0,0.0,27,1,0]
27.028
64

2002,4.07
MIRTGS : RIGHTBACK : INTERNAL 2
MIR : ON : INTERNAL 2
OPTKBR

0.200000
8
8.000000
FILLER
RATIO
SPECTRUM
UNLOCKED 256

DOUBLE
64
COMBINED
1
0
0

0.002000
RATIO

1
0
TRUE
51149
0
LEFT NOT FITTED RIGHT NOT FITTED 0
NONE
NONE
15600
12
4.427000
51148
TRUE
1 0 8 72 0 0 0 0

15798

#HDR
-1
-1
#GR
µM
%T
2.38419e-05
0.0
2.000000
0.002000
12515
8
64.9791
-3.884160
#DATA
2.000000	 0.300812
2.084000	 0.397431
2.168000	 -0.288795
2.252000	 0.224553
2.336000	 0.232162
2.420000	 0.179103
2.504000	 0.337156
2.588000	 0.072651
2.672000	 0.114710
2.756000	 0.061642
2.840000	 -0.043944
2.924000	 0.024186
3.008000	 0.155246
3.092000	 0.145399
3.176000	 0.033997
3.260000	 -0.009636
3.344000	 0.097321
3.428000	 -0.048441
3.512000	 0.050661
3.596000	 0.103322
3.680000	 0.028769
3.764000	 0.048546
3.848000	 0.159029
3.932000	 0.024051
4.016000	 0.187744
4.100000	 0.061468
4.184000	 -0.081492
4.268000	 -0.002265
4.352000	 0.097358
4.436000	 0.342737
4.520000	 0.935907
4.604000	 2.623932
4.688000	 5.086125
4.772000	 8.586889
4.856000	 12.2808
4.940000	 15.8781
5.024000	 18.686
5.108000	 21.189
5.192000	 23.0633
5.276000	 24.2667
5.359999	 25.2924
5.444000	 26.1033
5.528000	 26.6526
5.612000	 27.0084
5.696000	 27.3266
5.780000	 27.4832
5.864000	 27.591
5.948000	 27.6358
6.032000	 27.8112
6.116000	 27.7784
6.200000	 27.8307
6.284000	 27.7857
6.368000	 27.7509
6.452000	 27.8122
6.536000	 27.7135
6.620000	 27.7782
6.704000	 27.615
6.788000	 27.5763
6.872000	 27.6767
6.956000	 27.4634
7.040000	 27.1793
7.124000	 27.3112
7.208000	 27.3064
7.292000	 27.0786
7.376000	 27.1686
7.460000	 27.0274
7.544000	 26.9738
7.628000	 26.9461
7.712000	 26.9088
7.796000	 26.7049
7.880000	 26.7301
7.964000	 26.667
8.048000	 26.6724
8.132000	 26.5933
8.216000	 26.5506
8.300000	 26.37
8.384000	 26.3802
8.468000	 26.2794
8.552000	 26.2085
8.635999	 26.0479
8.719999	 26.0678
8.804000	 26.3559
8.888000	 25.9717
8.972000	 25.8512
9.056000	 25.8202
9.140000	 25.8965
9.224000	 25.5645
9.308000	 25.6731
9.391999	 25.4052
9.475999	 25.1849
9.560000	 25.0785
9.644000	 25.1977
9.728000	 25.2393
9.812000	 24.8799
9.896000	 24.7527
9.980000	 24.7621
10.064	24.8659
10.148	24.8598
10.232	24.7212
10.316	24.7219
10.4	24.6399
10.484	24.3182
10.568	24.3269
10.652	24.2679
10.736	24.1393
10.82	24.0416
10.904	24.0699
10.988	23.8285
11.072	23.575
11.156	23.5852
11.24	23.5004
11.324	23.3554
11.408	23.2007
11.492	23.1305
11.576	23.0915
11.66	22.9879
11.744	22.9138
11.828	22.8624
11.912	22.8978
11.996	22.9993
12.08	22.6424
12.164	22.4583
12.248	22.4287
12.332	22.3863
12.416	22.2526
12.5	21.9716
12.584	21.8911
12.668	21.8177
12.752	21.7284
12.836	21.6235
12.92	21.554
13.004	21.4243
13.088	21.28
13.172	21.2898
13.256	21.1696
13.34	21.1273
13.424	21.1585
13.508	21.4115
13.592	21.4897
13.676	21.0051
13.76	20.603
13.844	20.5908
13.928	20.5669
14.012	20.4824
14.096	20.3597
14.18	20.1233
14.264	19.992
14.348	20.0932
14.432	20.209
14.516	20.197
14.6	20.0624
14.684	19.8244
14.768	19.59
14.852	19.4117
14.936	19.2969
15.02	19.2989
15.104	19.2766
15.188	19.1391
15.272	19.0547
15.356	19.0287
15.44	18.9424
15.524	18.8775
15.608	18.9326
15.692	18.9404
15.776	18.7023
15.86	18.3263
15.944	18.0671
16.028	18.0413
16.112	18.1726
16.196	18.29
16.28	18.3172
16.364	18.3485
16.448	18.4473
16.532	18.4647
16.616	18.2633
16.7	17.9823
16.784	17.8325
16.868	17.7818
16.952	17.6757
17.036	17.5399
17.12	17.4953
17.204	17.46
17.288	17.2412
17.372	16.8859
17.456	16.6498
17.54	16.6359
17.624	16.6891
17.708	16.6614
17.792	16.5704
17.876	16.4968
17.96	16.4743
18.044	16.5086
18.128	16.5847
18.212	16.6406
18.296	16.6033
18.38	16.4748
18.464	16.3375
18.548	16.2536
18.632	16.1876
18.716	16.0724
18.8	15.9141
18.884	15.7886
18.968	15.7399
19.052	15.7308
19.136	15.7219
19.22	15.7228
19.304	15.754
19.388	15.7881
19.472	15.7959
19.556	15.7955
19.64	15.8271
19.724	15.8825
19.808	15.9094
19.892	15.8841
19.976	15.8197
20.06	15.6874
20.144	15.3811
20.228	14.8122
20.312	14.0567
20.396	13.3727
20.48	13.0483
20.564	13.2003
20.648	13.6864
20.732	14.2007
20.816	14.4572
20.9	14.3495
20.984	13.9935
21.068	13.627
21.152	13.4428
21.236	13.4712
21.32	13.5802
21.404	13.5934
21.488	13.4336
21.572	13.1784
21.656	12.9886
21.74	13.0098
21.824	13.287
21.908	13.7499
21.992	14.2612
22.076	14.6618
22.16	14.826
22.244	14.7259
22.328	14.4307
22.412	14.0764
22.496	13.7933
22.58	13.6388
22.664	13.592
22.748	13.5908
22.832	13.6167
22.916	13.7327
23	14.0595
23.084	14.6963
23.168	15.6307
23.252	16.7016
23.336	17.64
23.42	18.1721
23.504	18.1288
23.588	17.5328
23.672	16.5608
23.756	15.4563
23.84	14.4058
23.924	13.4745
24.008	12.631
24.092	11.8315
24.176	11.0968
24.26	10.5496
24.344	10.3909
24.428	10.7744
24.512	11.6777
24.596	12.9514
24.68	14.3738
24.764	15.7183
24.848	16.9038
24.932	17.9016
25.016	18.6651
25.1	19.0938
25.184	19.0826
25.268	18.5888
25.352	17.6642
25.436	16.4582
25.52	15.1472
25.604	13.849
25.688	12.6119
25.772	11.4491
25.856	10.4299
25.94	9.757024
26.024	9.790556
26.108	10.9459
26.192	13.6429
26.276	18.1759
26.36	24.535
26.444	32.3444
26.528	40.877
26.612	49.24
26.696	56.471
26.78	61.7553
26.864	64.5667
26.948	64.7231
27.028	62.5605