File: Bakgrunnsmateriale/MATLAB/FTIR/ftir_data/LPE453/Mapping_121/LPE453_t16.asc
PE IR       SPECTRUM    SPECTRUM    ASCII       PEDS        1.60
  -1
LPD791~1.ASC
17/05/16
15:37:50.00
17/05/16
15:38:16.00
tln
$LPE453_t0016$<tbV0>[2.6,-10.4,8.0,0.0,27,1,0]
27.028
64

2002,4.07
MIRTGS : RIGHTBACK : INTERNAL 2
MIR : ON : INTERNAL 2
OPTKBR

0.200000
8
8.000000
FILLER
RATIO
SPECTRUM
UNLOCKED 256

DOUBLE
64
COMBINED
1
0
0

0.002000
RATIO

1
0
TRUE
51149
0
LEFT NOT FITTED RIGHT NOT FITTED 0
NONE
NONE
15600
12
4.427000
51148
TRUE
1 0 8 72 0 0 0 0

15798

#HDR
-1
-1
#GR
µM
%T
2.38419e-05
0.0
2.000000
0.002000
12515
8
30.744
-24.7175
#DATA
2.000000	 0.021910
2.084000	 0.170518
2.168000	 0.171351
2.252000	 0.454348
2.336000	 0.192226
2.420000	 -0.206322
2.504000	 0.182536
2.588000	 0.083776
2.672000	 0.223873
2.756000	 0.193264
2.840000	 0.151577
2.924000	 0.095343
3.008000	 0.059960
3.092000	 0.025481
3.176000	 -0.123751
3.260000	 -0.060763
3.344000	 0.147013
3.428000	 0.124651
3.512000	 0.118344
3.596000	 0.075869
3.680000	 0.006249
3.764000	 0.082666
3.848000	 0.041072
3.932000	 0.044602
4.016000	 0.036035
4.100000	 0.105479
4.184000	 0.018240
4.268000	 0.032363
4.352000	 0.095264
4.436000	 0.441507
4.520000	 1.416125
4.604000	 3.556933
4.688000	 6.921692
4.772000	 10.6688
4.856000	 14.8526
4.940000	 18.5296
5.024000	 21.5033
5.108000	 23.8498
5.192000	 25.6551
5.276000	 27.0289
5.359999	 28.0496
5.444000	 28.6818
5.528000	 29.3862
5.612000	 29.7363
5.696000	 30.0135
5.780000	 30.1337
5.864000	 30.3527
5.948000	 30.4848
6.032000	 30.6036
6.116000	 30.731
6.200000	 30.3801
6.284000	 30.1998
6.368000	 30.4328
6.452000	 30.3718
6.536000	 30.3851
6.620000	 30.5096
6.704000	 30.239
6.788000	 30.2684
6.872000	 30.3033
6.956000	 30.0685
7.040000	 30.0624
7.124000	 29.9586
7.208000	 29.9874
7.292000	 29.8623
7.376000	 29.8159
7.460000	 29.7106
7.544000	 29.7618
7.628000	 29.6371
7.712000	 29.5941
7.796000	 29.5081
7.880000	 29.4404
7.964000	 29.3781
8.048000	 29.3398
8.132000	 29.3965
8.216000	 29.2134
8.300000	 29.2091
8.384000	 29.1246
8.468000	 29.1333
8.552000	 29.0886
8.635999	 28.8859
8.719999	 28.8421
8.804000	 28.9951
8.888000	 28.9008
8.972000	 28.7915
9.056000	 28.6394
9.140000	 28.5259
9.224000	 28.4155
9.308000	 28.3372
9.391999	 28.4396
9.475999	 28.2511
9.560000	 28.381
9.644000	 28.177
9.728000	 28.0796
9.812000	 28.2622
9.896000	 28.0125
9.980000	 27.7482
10.064	27.9135
10.148	27.6943
10.232	27.4612
10.316	27.7531
10.4	27.4729
10.484	27.2837
10.568	27.1881
10.652	27.1543
10.736	27.0835
10.82	27.0296
10.904	26.953
10.988	26.8725
11.072	27.0226
11.156	26.7466
11.24	26.4797
11.324	26.4096
11.408	26.2959
11.492	26.3365
11.576	26.2621
11.66	26.0784
11.744	26.103
11.828	26.0405
11.912	25.9023
11.996	25.8159
12.08	25.6694
12.164	25.7185
12.248	25.5197
12.332	25.5424
12.416	25.4041
12.5	25.2139
12.584	25.1918
12.668	25.0334
12.752	24.9815
12.836	25.0746
12.92	24.9533
13.004	24.8059
13.088	24.5059
13.172	24.3136
13.256	24.3593
13.34	24.6173
13.424	24.8002
13.508	24.5171
13.592	24.0794
13.676	24.1218
13.76	24.2088
13.844	23.9829
13.928	23.7951
14.012	23.4799
14.096	23.3429
14.18	23.5001
14.264	23.3932
14.348	23.0158
14.432	22.9522
14.516	23.289
14.6	23.4463
14.684	23.2402
14.768	22.8872
14.852	22.6255
14.936	22.5565
15.02	22.5573
15.104	22.6183
15.188	22.7213
15.272	22.7185
15.356	22.5817
15.44	22.347
15.524	22.0489
15.608	21.9247
15.692	22.1894
15.776	22.5524
15.86	22.5933
15.944	22.3658
16.028	22.0849
16.112	21.7671
16.196	21.4625
16.28	21.2591
16.364	21.1578
16.448	21.2294
16.532	21.4251
16.616	21.4651
16.7	21.3196
16.784	21.2495
16.868	21.2569
16.952	21.1654
17.036	21.0379
17.12	20.98
17.204	20.8371
17.288	20.4508
17.372	19.9622
17.456	19.6316
17.54	19.5297
17.624	19.5357
17.708	19.577
17.792	19.7081
17.876	19.9433
17.96	20.1664
18.044	20.2613
18.128	20.2171
18.212	20.0885
18.296	19.9354
18.38	19.8169
18.464	19.754
18.548	19.6937
18.632	19.5656
18.716	19.3687
18.8	19.1565
18.884	18.9681
18.968	18.8113
19.052	18.695
19.136	18.6294
19.22	18.6056
19.304	18.6144
19.388	18.6759
19.472	18.8057
19.556	18.9589
19.64	19.0332
19.724	18.9586
19.808	18.765
19.892	18.5526
19.976	18.4027
20.06	18.3289
20.144	18.3064
20.228	18.3282
20.312	18.4225
20.396	18.6088
20.48	18.8437
20.564	19.0156
20.648	19.004
20.732	18.7598
20.816	18.347
20.9	17.8999
20.984	17.5414
21.068	17.3254
21.152	17.2303
21.236	17.2041
21.32	17.2018
21.404	17.1947
21.488	17.1604
21.572	17.0867
21.656	16.9892
21.74	16.8992
21.824	16.8315
21.908	16.7451
21.992	16.5713
22.076	16.2936
22.16	15.991
22.244	15.8256
22.328	15.9277
22.412	16.2934
22.496	16.7642
22.58	17.1409
22.664	17.308
22.748	17.295
22.832	17.2047
22.916	17.1224
23	17.0079
23.084	16.7211
23.168	16.103
23.252	15.0952
23.336	13.7731
23.42	12.3563
23.504	11.123
23.588	10.3193
23.672	10.0848
23.756	10.4114
23.84	11.1342
23.924	11.9902
24.008	12.7613
24.092	13.3809
24.176	13.9271
24.26	14.619
24.344	15.6362
24.428	16.9339
24.512	18.2405
24.596	19.1583
24.68	19.2497
24.764	18.2006
24.848	16.0161
24.932	13.0695
25.016	10.0252
25.1	7.672244
25.184	6.632007
25.268	7.094121
25.352	8.837967
25.436	11.398
25.52	14.2344
25.604	16.8353
25.688	18.5424
25.772	18.5529
25.856	16.1154
25.94	10.9079
26.024	3.328198
26.108	-5.429184
26.192	-13.8278
26.276	-20.3828
26.36	-24.0847
26.444	-24.4661
26.528	-21.5728
26.612	-15.7834
26.696	-7.750393
26.78	1.649294
26.864	11.3535
26.948	20.2979
27.028	27.2699