File: Bakgrunnsmateriale/MATLAB/FTIR/ftir_data/LPE453/Mapping_121/LPE453_t05.asc
PE IR       SPECTRUM    SPECTRUM    ASCII       PEDS        1.60
  -1
LPD39D~1.ASC
17/05/16
14:46:28.00
17/05/16
14:46:55.00
tln
$LPE453_t0005$<tbV0>[2.6,-13.0,8.0,0.0,27,1,0]
27.028
64

2002,4.07
MIRTGS : RIGHTBACK : INTERNAL 2
MIR : ON : INTERNAL 2
OPTKBR

0.200000
8
8.000000
FILLER
RATIO
SPECTRUM
UNLOCKED 256

DOUBLE
64
COMBINED
1
0
0

0.002000
RATIO

1
0
TRUE
51149
0
LEFT NOT FITTED RIGHT NOT FITTED 0
NONE
NONE
15600
12
4.427000
51148
TRUE
1 0 8 72 0 0 0 0

15798

#HDR
-1
-1
#GR
µM
%T
2.38419e-05
0.0
2.000000
0.002000
12515
8
44.2437
-6.525897
#DATA
2.000000	 -0.225424
2.084000	 -0.138223
2.168000	 0.677026
2.252000	 0.013100
2.336000	 -0.004030
2.420000	 0.006145
2.504000	 0.243403
2.588000	 -0.007380
2.672000	 0.086684
2.756000	 0.079109
2.840000	 0.182983
2.924000	 0.081741
3.008000	 -0.074633
3.092000	 -0.019967
3.176000	 -0.031662
3.260000	 0.100253
3.344000	 0.076633
3.428000	 0.023078
3.512000	 0.059410
3.596000	 0.071349
3.680000	 0.054745
3.764000	 0.028710
3.848000	 0.010245
3.932000	 0.037264
4.016000	 0.005469
4.100000	 0.047756
4.184000	 -0.052601
4.268000	 0.004785
4.352000	 0.265120
4.436000	 1.007422
4.520000	 2.492681
4.604000	 5.274516
4.688000	 9.083406
4.772000	 13.8137
4.856000	 18.2916
4.940000	 22.3116
5.024000	 25.433
5.108000	 27.9146
5.192000	 29.8017
5.276000	 31.0806
5.359999	 32.0595
5.444000	 32.5742
5.528000	 33.1965
5.612000	 33.4854
5.696000	 33.6906
5.780000	 33.984
5.864000	 34.1835
5.948000	 34.2678
6.032000	 34.3114
6.116000	 34.0745
6.200000	 34.1703
6.284000	 34.0494
6.368000	 33.9256
6.452000	 34.1098
6.536000	 34.0332
6.620000	 34.0393
6.704000	 33.8184
6.788000	 33.8162
6.872000	 33.6573
6.956000	 33.7185
7.040000	 33.5997
7.124000	 33.5181
7.208000	 33.3916
7.292000	 33.3279
7.376000	 33.2706
7.460000	 33.4486
7.544000	 33.3662
7.628000	 33.1629
7.712000	 33.1134
7.796000	 33.106
7.880000	 32.8045
7.964000	 32.8037
8.048000	 32.75
8.132000	 32.8283
8.216000	 32.7081
8.300000	 32.7223
8.384000	 32.6568
8.468000	 32.5412
8.552000	 32.5311
8.635999	 32.409
8.719999	 32.3814
8.804000	 32.3269
8.888000	 32.1863
8.972000	 32.1833
9.056000	 32.1889
9.140000	 31.775
9.224000	 32.0549
9.308000	 31.939
9.391999	 31.8955
9.475999	 31.7366
9.560000	 31.7134
9.644000	 31.6159
9.728000	 31.5408
9.812000	 31.5467
9.896000	 31.2877
9.980000	 31.2989
10.064	31.4042
10.148	31.3689
10.232	31.2607
10.316	31.0939
10.4	30.9635
10.484	30.9166
10.568	30.9264
10.652	30.8293
10.736	30.7165
10.82	30.6011
10.904	30.6613
10.988	30.7207
11.072	30.5475
11.156	30.1931
11.24	30.3221
11.324	30.4694
11.408	30.3582
11.492	30.186
11.576	30.1028
11.66	29.9953
11.744	29.7599
11.828	29.7832
11.912	29.864
11.996	29.7355
12.08	29.6167
12.164	29.4413
12.248	29.3261
12.332	29.1287
12.416	29.0329
12.5	29.0224
12.584	29.2929
12.668	29.3932
12.752	29.2285
12.836	29.0074
12.92	28.9749
13.004	28.9584
13.088	28.7283
13.172	28.6451
13.256	28.7415
13.34	28.5358
13.424	28.2677
13.508	28.2901
13.592	28.27
13.676	28.1435
13.76	28.2148
13.844	28.3079
13.928	28.3252
14.012	28.1742
14.096	27.876
14.18	27.572
14.264	27.4137
14.348	27.3917
14.432	27.284
14.516	27.1354
14.6	27.1213
14.684	27.2002
14.768	27.2504
14.852	27.2244
14.936	27.0916
15.02	26.8884
15.104	26.7011
15.188	26.5365
15.272	26.369
15.356	26.3169
15.44	26.4543
15.524	26.594
15.608	26.5996
15.692	26.5735
15.776	26.5525
15.86	26.4312
15.944	26.2015
16.028	26.0384
16.112	26.0632
16.196	26.1581
16.28	26.168
16.364	26.1129
16.448	26.0458
16.532	25.9359
16.616	25.7619
16.7	25.5417
16.784	25.2471
16.868	24.8458
16.952	24.4833
17.036	24.4073
17.12	24.6095
17.204	24.7732
17.288	24.6971
17.372	24.5553
17.456	24.6165
17.54	24.8798
17.624	25.1102
17.708	25.1317
17.792	24.9581
17.876	24.7089
17.96	24.4614
18.044	24.2053
18.128	23.9155
18.212	23.6704
18.296	23.606
18.38	23.7356
18.464	23.9025
18.548	23.9382
18.632	23.7976
18.716	23.5609
18.8	23.3644
18.884	23.3232
18.968	23.4502
19.052	23.614
19.136	23.6458
19.22	23.5005
19.304	23.2952
19.388	23.1811
19.472	23.2034
19.556	23.2796
19.64	23.2844
19.724	23.1621
19.808	22.9626
19.892	22.8016
19.976	22.772
20.06	22.8714
20.144	23.0107
20.228	23.0872
20.312	23.0691
20.396	23.0096
20.48	22.9844
20.564	23.018
20.648	23.0596
20.732	23.0288
20.816	22.8818
20.9	22.653
20.984	22.4497
21.068	22.3863
21.152	22.4989
21.236	22.7102
21.32	22.8845
21.404	22.9187
21.488	22.8113
21.572	22.6437
21.656	22.5187
21.74	22.4928
21.824	22.5482
21.908	22.6135
21.992	22.6222
22.076	22.5551
22.16	22.4419
22.244	22.3369
22.328	22.2695
22.412	22.2151
22.496	22.1143
22.58	21.9132
22.664	21.6021
22.748	21.2312
22.832	20.8646
22.916	20.5486
23	20.2986
23.084	20.097
23.168	19.8964
23.252	19.6412
23.336	19.2831
23.42	18.8193
23.504	18.286
23.588	17.7701
23.672	17.3914
23.756	17.2737
23.84	17.4951
23.924	18.1066
24.008	19.093
24.092	20.336
24.176	21.6512
24.26	22.787
24.344	23.4481
24.428	23.4383
24.512	22.7731
24.596	21.6599
24.68	20.4165
24.764	19.3462
24.848	18.5655
24.932	17.9934
25.016	17.4245
25.1	16.6358
25.184	15.5867
25.268	14.5299
25.352	13.9354
25.436	14.3809
25.52	16.301
25.604	19.8217
25.688	24.7451
25.772	30.5304
25.856	36.3816
25.94	41.2478
26.024	43.9772
26.108	43.6828
26.192	40.1745
26.276	34.0052
26.36	26.4301
26.444	18.8542
26.528	12.3403
26.612	7.264687
26.696	3.432612
26.78	0.317094
26.864	-2.430925
26.948	-4.806791
27.028	-6.525897