File: Bakgrunnsmateriale/MATLAB/FTIR/ftir_data/LPE453/Mapping_121/LPE453_t59.asc
PE IR       SPECTRUM    SPECTRUM    ASCII       PEDS        1.60
  -1
LPE7AD~1.ASC
17/05/16
19:11:27.00
17/05/16
19:11:53.00
tln
$LPE453_t0059$<tbV0>[5.2,0.0,8.0,0.0,27,1,0]
27.028
64

2002,4.07
MIRTGS : RIGHTBACK : INTERNAL 2
MIR : ON : INTERNAL 2
OPTKBR

0.200000
8
8.000000
FILLER
RATIO
SPECTRUM
UNLOCKED 256

DOUBLE
64
COMBINED
1
0
0

0.002000
RATIO

1
0
TRUE
51149
0
LEFT NOT FITTED RIGHT NOT FITTED 0
NONE
NONE
15600
12
4.427000
51148
TRUE
1 0 8 72 0 0 0 0

15798

#HDR
-1
-1
#GR
µM
%T
2.38419e-05
0.0
2.000000
0.002000
12515
8
25.8045
-2.443956
#DATA
2.000000	 0.574278
2.084000	 -0.044318
2.168000	 0.705682
2.252000	 -1.077713
2.336000	 0.171604
2.420000	 0.235128
2.504000	 0.100537
2.588000	 0.032489
2.672000	 -0.101628
2.756000	 0.124257
2.840000	 0.015650
2.924000	 0.027290
3.008000	 -0.021409
3.092000	 0.116564
3.176000	 0.112794
3.260000	 -0.047604
3.344000	 0.036265
3.428000	 0.027959
3.512000	 0.151610
3.596000	 -0.031204
3.680000	 0.062811
3.764000	 0.106464
3.848000	 -0.032060
3.932000	 0.093475
4.016000	 0.023185
4.100000	 0.015386
4.184000	 -0.075144
4.268000	 0.006912
4.352000	 0.004109
4.436000	 0.308668
4.520000	 0.807304
4.604000	 2.266100
4.688000	 4.657934
4.772000	 7.844000
4.856000	 11.1666
4.940000	 14.3695
5.024000	 17.3408
5.108000	 19.4986
5.192000	 21.1943
5.276000	 22.5124
5.359999	 23.5174
5.444000	 24.1331
5.528000	 24.8077
5.612000	 25.0741
5.696000	 25.3768
5.780000	 25.5003
5.864000	 25.7727
5.948000	 25.7504
6.032000	 25.7223
6.116000	 25.7525
6.200000	 25.7446
6.284000	 25.7322
6.368000	 25.599
6.452000	 25.6912
6.536000	 25.6387
6.620000	 25.6198
6.704000	 25.6062
6.788000	 25.5647
6.872000	 25.1842
6.956000	 25.3211
7.040000	 25.3196
7.124000	 25.1513
7.208000	 25.2408
7.292000	 25.0135
7.376000	 25.0845
7.460000	 25.0163
7.544000	 24.948
7.628000	 24.8808
7.712000	 24.7601
7.796000	 24.661
7.880000	 24.6038
7.964000	 24.5364
8.048000	 24.551
8.132000	 24.4196
8.216000	 24.4449
8.300000	 24.4143
8.384000	 24.3006
8.468000	 24.2468
8.552000	 24.1163
8.635999	 24.0838
8.719999	 24.0704
8.804000	 23.8024
8.888000	 23.7844
8.972000	 23.7097
9.056000	 23.5763
9.140000	 23.6182
9.224000	 23.3886
9.308000	 23.1176
9.391999	 23.2313
9.475999	 23.2111
9.560000	 22.9864
9.644000	 23.0721
9.728000	 22.9391
9.812000	 22.8787
9.896000	 22.9506
9.980000	 22.8536
10.064	22.6961
10.148	22.5508
10.232	22.4816
10.316	22.2754
10.4	22.1362
10.484	22.0391
10.568	21.8667
10.652	21.9333
10.736	21.7769
10.82	21.6484
10.904	21.5701
10.988	21.5036
11.072	21.2099
11.156	21.3001
11.24	21.2816
11.324	21.0804
11.408	21.0364
11.492	20.9564
11.576	20.8407
11.66	20.8001
11.744	20.7213
11.828	20.6705
11.912	20.4799
11.996	20.1798
12.08	20.1576
12.164	19.987
12.248	19.8468
12.332	19.7539
12.416	19.6626
12.5	19.6656
12.584	19.6211
12.668	19.3097
12.752	19.0474
12.836	18.9881
12.92	19.0104
13.004	19.1766
13.088	19.094
13.172	18.842
13.256	18.8142
13.34	18.577
13.424	18.2085
13.508	18.3401
13.592	18.352
13.676	18.1683
13.76	17.9614
13.844	17.9093
13.928	18.1277
14.012	18.2382
14.096	18.0602
14.18	17.9037
14.264	17.7886
14.348	17.5776
14.432	17.4728
14.516	17.4249
14.6	17.3558
14.684	17.3139
14.768	17.2078
14.852	17.1185
14.936	17.0727
15.02	16.8318
15.104	16.5422
15.188	16.448
15.272	16.4719
15.356	16.5604
15.44	16.5505
15.524	16.3203
15.608	16.0742
15.692	15.9642
15.776	15.9528
15.86	15.9772
15.944	15.9593
16.028	15.8601
16.112	15.7291
16.196	15.627
16.28	15.5948
16.364	15.6175
16.448	15.5848
16.532	15.4511
16.616	15.3725
16.7	15.4761
16.784	15.6518
16.868	15.7438
16.952	15.7151
17.036	15.5408
17.12	15.2129
17.204	14.8704
17.288	14.6882
17.372	14.6864
17.456	14.7754
17.54	14.8768
17.624	14.9142
17.708	14.819
17.792	14.5983
17.876	14.321
17.96	14.0748
18.044	13.9713
18.128	14.0765
18.212	14.2738
18.296	14.3157
18.38	14.1048
18.464	13.8299
18.548	13.7439
18.632	13.8825
18.716	14.0715
18.8	14.1584
18.884	14.1351
18.968	14.0471
19.052	13.894
19.136	13.6636
19.22	13.406
19.304	13.2142
19.388	13.1287
19.472	13.0969
19.556	13.0368
19.64	12.9237
19.724	12.7977
19.808	12.7046
19.892	12.6485
19.976	12.5958
20.06	12.5116
20.144	12.3963
20.228	12.29
20.312	12.2359
20.396	12.2357
20.48	12.2454
20.564	12.2047
20.648	12.0736
20.732	11.8671
20.816	11.6534
20.9	11.5285
20.984	11.5527
21.068	11.7084
21.152	11.9033
21.236	12.0301
21.32	12.032
21.404	11.912
21.488	11.6896
21.572	11.3613
21.656	10.9227
21.74	10.4267
21.824	10.0231
21.908	9.909397
21.992	10.2004
22.076	10.8433
22.16	11.6303
22.244	12.3093
22.328	12.7166
22.412	12.8145
22.496	12.6609
22.58	12.3363
22.664	11.9132
22.748	11.4567
22.832	11.0243
22.916	10.6705
23	10.4174
23.084	10.258
23.168	10.1793
23.252	10.1945
23.336	10.3497
23.42	10.706
23.504	11.2521
23.588	11.8554
23.672	12.3069
23.756	12.4039
23.84	12.066
23.924	11.4046
24.008	10.6788
24.092	10.1857
24.176	10.127
24.26	10.5004
24.344	11.1538
24.428	11.9082
24.512	12.6175
24.596	13.2437
24.68	13.7681
24.764	14.0908
24.848	13.9891
24.932	13.204
25.016	11.6254
25.1	9.387999
25.184	6.943387
25.268	4.905644
25.352	3.801303
25.436	3.874656
25.52	4.976722
25.604	6.702315
25.688	8.464896
25.772	9.808832
25.856	10.6511
25.94	11.2461
26.024	12.0841
26.108	13.6274
26.192	16.0917
26.276	19.2669
26.36	22.4671
26.444	24.8535
26.528	25.7319
26.612	24.8333
26.696	22.2218
26.78	18.2481
26.864	13.2915
26.948	7.792051
27.028	2.681374