File: Bakgrunnsmateriale/MATLAB/FTIR/ftir_data/LPE453/Mapping_121/LPE453_e123_cm-1.asc
PE IR       SPECTRUM    SPECTRUM    ASCII       PEDS        1.60
  -1
LP06BB~1.ASC
17/05/16
16:11:26.00
17/05/16
16:11:26.00
tln
$LPE453_e0123$<ebV0>[-23.3,12.1,10.0,0.0,27,1,0]
370
64

2002,4.07
MIRTGS : RIGHTBACK : INTERNAL 2
MIR : ON : INTERNAL 2
OPTKBR

0.200000
8
8.000000
FILLER
SINGLE
SPECTRUM
UNLOCKED 256

DOUBLE

COMBINED
1
0
0

1.000000
BACKG

1
0
TRUE
51149
0
LEFT NOT FITTED RIGHT NOT FITTED 0
NONE
NONE
15600
12
4.427000
51148
TRUE
1 0 8 72 0 0 0 0

15798

#HDR
-1
-1
#GR
CM-1
EGY
2.38419e-05
0.0
5000
-1.000000
4631
8
2.420973
0.006079
#DATA
5000	0.765037
4984	0.772643
4968	0.776672
4952	0.784087
4936	0.792121
4920	0.798368
4904	0.805187
4888	0.807857
4872	0.820207
4856	0.826978
4840	0.836777
4824	0.848150
4808	0.858020
4792	0.867938
4776	0.874233
4760	0.883030
4744	0.887584
4728	0.895977
4712	0.898504
4696	0.903367
4680	0.901436
4664	0.905227
4648	0.906515
4632	0.916266
4616	0.925993
4600	0.930547
4584	0.938653
4568	0.952410
4552	0.957155
4536	0.989651
4520	1.001262
4504	0.976419
4488	0.980496
4472	0.992083
4456	1.007318
4440	1.007151
4424	1.009869
4408	1.013970
4392	1.024031
4376	1.030302
4360	1.043701
4344	1.056742
4328	1.074171
4312	1.093029
4296	1.113557
4280	1.126432
4264	1.146221
4248	1.160287
4232	1.170730
4216	1.178216
4200	1.188421
4184	1.192355
4168	1.205158
4152	1.213383
4136	1.222419
4120	1.238799
4104	1.252722
4088	1.271438
4072	1.291823
4056	1.313424
4040	1.332950
4024	1.352739
4008	1.370215
3992	1.385951
3976	1.396536
3960	1.403522
3944	1.410388
3928	1.413726
3912	1.422071
3896	1.425313
3880	1.432585
3864	1.443314
3848	1.450395
3832	1.470422
3816	1.479816
3800	1.501035
3784	1.525163
3768	1.535630
3752	1.529192
3736	1.545357
3720	1.560091
3704	1.562714
3688	1.554608
3672	1.551175
3656	1.560997
3640	1.567864
3624	1.565980
3608	1.572942
3592	1.583743
3576	1.590824
3560	1.600384
3544	1.606607
3528	1.608228
3512	1.609063
3496	1.606464
3480	1.596784
3464	1.588940
3448	1.581859
3432	1.568222
3416	1.574754
3400	1.580905
3384	1.593327
3368	1.605558
3352	1.630067
3336	1.651477
3320	1.673531
3304	1.696801
3288	1.713991
3272	1.732826
3256	1.749610
3240	1.760005
3224	1.768064
3208	1.768827
3192	1.774764
3176	1.777219
3160	1.785302
3144	1.795005
3128	1.808190
3112	1.831698
3096	1.860380
3080	1.891446
3064	1.911449
3048	1.937818
3032	1.953315
3016	1.940417
3000	2.000784
2984	2.004599
2968	1.935458
2952	1.901531
2936	1.796674
2920	1.784706
2904	1.927018
2888	1.976132
2872	1.961469
2856	1.906132
2840	2.044558
2824	2.101778
2808	2.138018
2792	2.168464
2776	2.198266
2760	2.216362
2744	2.229785
2728	2.233624
2712	2.227282
2696	2.222800
2680	2.217078
2664	2.205157
2648	2.200484
2632	2.194833
2616	2.199625
2600	2.201294
2584	2.215600
2568	2.237057
2552	2.257156
2536	2.277350
2520	2.290081
2504	2.298259
2488	2.299952
2472	2.293920
2456	2.280354
2440	2.267980
2424	2.249813
2408	2.235412
2392	2.226305
2376	2.217793
2360	2.210092
2344	2.238440
2328	2.256393
2312	2.287530
2296	2.314448
2280	2.328205
2264	2.345848
2248	2.349781
2232	2.349972
2216	2.338457
2200	2.329325
2184	2.316570
2168	2.308988
2152	2.304530
2136	2.300572
2120	2.304744
2104	2.306199
2088	2.302908
2072	2.319383
2056	2.352333
2040	2.386021
2024	2.404880
2008	2.415394
1992	2.420496
1976	2.408480
1960	2.395224
1944	2.383089
1928	2.370667
1912	2.351832
1896	2.334499
1880	2.338790
1864	2.341818
1848	2.351999
1832	2.365851
1816	2.381443
1800	2.389216
1784	2.388215
1768	2.375078
1752	2.348732
1736	2.287244
1720	2.270722
1704	2.238225
1688	2.213740
1672	2.192330
1656	2.143025
1640	2.118802
1624	2.069783
1608	1.940441
1592	1.981782
1576	1.950836
1560	1.898026
1544	1.920390
1528	2.071690
1512	2.052211
1496	1.673197
1480	1.928591
1464	1.904892
1448	1.754474
1432	1.839184
1416	1.814222
1400	1.705551
1384	1.757407
1368	1.787018
1352	1.787757
1336	1.794314
1320	1.821517
1304	1.822829
1288	1.823925
1272	1.777195
1256	1.730251
1240	1.808500
1224	1.786088
1208	1.725721
1192	1.714682
1176	1.675605
1160	1.607847
1144	1.576161
1128	1.519966
1112	1.437783
1096	1.402974
1080	1.406955
1064	1.416873
1048	1.286578
1032	1.358270
1016	1.344299
1000	1.379704
984	 1.359534
968	 1.322007
952	 1.266527
936	 1.232314
920	 1.195430
904	 1.144504
888	 1.104211
872	 1.020693
856	 1.076507
840	 1.044535
824	 0.831794
808	 0.935935
792	 0.945210
776	 0.962471
760	 0.949144
744	 0.926089
728	 0.888776
712	 0.842952
696	 0.777435
680	 0.721979
664	 0.696563
648	 0.653886
632	 0.610589
616	 0.565934
600	 0.517082
584	 0.500011
568	 0.479793
552	 0.461435
536	 0.429153
520	 0.393080
504	 0.354361
488	 0.300693
472	 0.247502
456	 0.194263
440	 0.145864
424	 0.095891
408	 0.054526
392	 0.028634
376	 0.008988
370	 0.006079