File: Bakgrunnsmateriale/MATLAB/FTIR/ftir_data/LPE453/Mapping_121/LPE453_t114_cm-1.asc
PE IR       SPECTRUM    SPECTRUM    ASCII       PEDS        1.60
  -1
LP07FC~1.ASC
17/05/16
23:45:42.00
17/05/16
23:45:42.00
tln
$LPE453_t0114$<tbV0>[5.2,13.0,8.0,0.0,27,1,0]
370
64

2002,4.07
MIRTGS : RIGHTBACK : INTERNAL 2
MIR : ON : INTERNAL 2
OPTKBR

0.200000
8
8.000000
FILLER
RATIO
SPECTRUM
UNLOCKED 256

DOUBLE
64
COMBINED
1
0
0

1.000000
RATIO

1
0
TRUE
51149
0
LEFT NOT FITTED RIGHT NOT FITTED 0
NONE
NONE
15600
12
4.427000
51148
TRUE
1 0 8 72 0 0 0 0

15798

#HDR
-1
-1
#GR
CM-1
%T
2.38419e-05
0.0
5000
-1.000000
4631
8
37.9432
-5.501842
#DATA
5000	-0.050139
4984	-0.365662
4968	0.156378
4952	0.038623
4936	0.107455
4920	-0.055098
4904	0.269007
4888	0.515699
4872	-0.399160
4856	0.149154
4840	-0.102233
4824	0.246572
4808	-0.132799
4792	-0.550246
4776	0.172400
4760	0.232911
4744	0.324988
4728	0.395750
4712	0.564312
4696	0.050163
4680	0.923633
4664	1.379084
4648	0.128054
4632	-0.104618
4616	-0.198912
4600	0.159621
4584	-0.202727
4568	0.211119
4552	-0.749182
4536	-0.061273
4520	-0.079464
4504	-5.501842
4488	20.805
4472	-0.421071
4456	-1.177620
4440	-0.355529
4424	-0.070667
4408	0.168061
4392	0.418114
4376	0.583481
4360	0.446772
4344	0.096392
4328	0.531125
4312	-0.134062
4296	-0.408244
4280	0.143861
4264	-0.177264
4248	0.215744
4232	0.526785
4216	-0.006675
4200	0.101304
4184	0.603485
4168	-0.060701
4152	0.175046
4136	0.127935
4120	-0.209116
4104	-0.061798
4088	-0.090503
4072	0.162696
4056	0.122666
4040	0.011968
4024	0.139856
4008	0.128674
3992	0.008368
3976	-0.065660
3960	0.108218
3944	0.115537
3928	0.052642
3912	0.145339
3896	-0.012421
3880	0.131559
3864	0.066757
3848	0.003337
3832	-0.114655
3816	0.011038
3800	0.080609
3784	0.034642
3768	0.062847
3752	0.121736
3736	0.037980
3720	0.101470
3704	-0.157880
3688	-0.015830
3672	0.085091
3656	0.036025
3640	0.043392
3624	0.064802
3608	0.016069
3592	-0.062870
3576	-0.018668
3560	-0.015497
3544	0.043272
3528	-0.191235
3512	0.045800
3496	-0.024962
3480	0.164151
3464	0.036644
3448	-0.120639
3432	-0.046825
3416	0.032997
3400	0.055527
3384	0.041556
3368	0.029969
3352	0.045013
3336	0.166916
3320	0.039815
3304	-0.028753
3288	0.187778
3272	0.146627
3256	0.047397
3240	0.072598
3224	0.005078
3208	0.058650
3192	0.126028
3176	0.112962
3160	-0.060081
3144	0.017929
3128	0.009226
3112	-0.031208
3096	0.007271
3080	-0.001931
3064	0.036382
3048	0.056076
3032	0.107407
3016	0.052118
3000	-0.124025
2984	-0.011014
2968	-0.045919
2952	0.031590
2936	0.064826
2920	0.004911
2904	-0.010251
2888	0.000500
2872	0.018835
2856	0.032615
2840	0.099277
2824	0.123786
2808	0.047636
2792	0.009918
2776	0.141239
2760	0.043892
2744	0.146365
2728	-0.013685
2712	0.032758
2696	0.071668
2680	0.044465
2664	0.171327
2648	0.058794
2632	0.010466
2616	0.022482
2600	-0.003957
2584	0.089716
2568	0.012898
2552	-0.038743
2536	0.003123
2520	0.099539
2504	0.060796
2488	0.181031
2472	0.139594
2456	0.131297
2440	0.206732
2424	0.201535
2408	0.323963
2392	0.501346
2376	0.508594
2360	0.643634
2344	0.717473
2328	1.082539
2312	1.462841
2296	1.900148
2280	2.441143
2264	2.957272
2248	3.921747
2232	5.020213
2216	6.252241
2200	7.593441
2184	9.283947
2168	11.1636
2152	12.9676
2136	15.0191
2120	16.6819
2104	18.7096
2088	20.7479
2072	22.4466
2056	23.9833
2040	25.3386
2024	26.7771
2008	27.99
1992	28.804
1976	29.8627
1960	30.8056
1944	31.4807
1928	31.9379
1912	32.4066
1896	33.2663
1880	33.7914
1864	33.8893
1848	34.026
1832	34.609
1816	35.0902
1800	35.1643
1784	35.0762
1768	35.2747
1752	35.727
1736	35.9599
1720	35.7838
1704	35.7183
1688	36.2055
1672	36.5115
1656	36.4872
1640	36.1796
1624	36.4448
1608	36.8314
1592	37.0852
1576	36.8859
1560	36.5001
1544	36.814
1528	37.2126
1512	37.2545
1496	36.7683
1480	36.813
1464	37.2328
1448	37.4298
1432	37.2453
1416	36.9004
1400	37.1148
1384	37.527
1368	37.461
1352	37.1866
1336	36.8761
1320	37.2959
1304	37.6552
1288	37.5138
1272	37.0159
1256	37.0092
1240	37.5513
1224	37.9254
1208	37.4849
1192	36.9274
1176	37.1738
1160	37.5963
1144	37.6872
1128	37.1419
1112	36.7853
1096	37.2128
1080	37.6873
1064	37.2078
1048	36.7556
1032	36.7325
1016	37.1718
1000	37.4432
984	 36.9577
968	 36.4824
952	 36.521
936	 37.0565
920	 37.019
904	 36.2047
888	 35.8963
872	 36.0554
856	 36.703
840	 36.4152
824	 35.2877
808	 35.2641
792	 35.598
776	 35.9722
760	 34.9626
744	 34.6489
728	 34.3329
712	 34.9524
696	 35.1348
680	 34.2188
664	 33.3122
648	 33.7587
632	 34.2163
616	 33.9129
600	 32.5903
584	 32.2918
568	 32.3175
552	 32.7253
536	 31.57
520	 30.2153
504	 30.1589
488	 30.2825
472	 29.8633
456	 29.4211
440	 27.4226
424	 25.3924
408	 26.956
392	 27.1479
376	 27.5705
370	 -4.795145