File: Bakgrunnsmateriale/MATLAB/FTIR/ftir_data/LPE453/Mapping_121/LPE453_t106_cm-1.asc
PE IR       SPECTRUM    SPECTRUM    ASCII       PEDS        1.60
  -1
LP0978~1.ASC
17/05/16
23:02:36.00
17/05/16
23:02:36.00
tln
$LPE453_t0106$<tbV0>[-2.6,10.4,8.0,0.0,27,1,0]
370
64

2002,4.07
MIRTGS : RIGHTBACK : INTERNAL 2
MIR : ON : INTERNAL 2
OPTKBR

0.200000
8
8.000000
FILLER
RATIO
SPECTRUM
UNLOCKED 256

DOUBLE
64
COMBINED
1
0
0

1.000000
RATIO

1
0
TRUE
51149
0
LEFT NOT FITTED RIGHT NOT FITTED 0
NONE
NONE
15600
12
4.427000
51148
TRUE
1 0 8 72 0 0 0 0

15798

#HDR
-1
-1
#GR
CM-1
%T
2.38419e-05
0.0
5000
-1.000000
4631
8
36.4049
-9.692692
#DATA
5000	0.073504
4984	0.433468
4968	-0.085115
4952	0.015759
4936	0.139594
4920	-0.009274
4904	0.011801
4888	-0.018477
4872	-0.139117
4856	0.289559
4840	0.131320
4824	0.335383
4808	0.228047
4792	-0.075173
4776	0.899934
4760	0.173163
4744	0.300526
4728	-0.287771
4712	0.544714
4696	-1.175689
4680	1.780486
4664	1.137924
4648	0.567150
4632	-0.017762
4616	-0.513148
4600	-0.107884
4584	-0.318360
4568	-0.391840
4552	-0.606179
4536	-0.881195
4520	-1.313757
4504	3.239154
4488	7.835650
4472	-1.809430
4456	-0.269913
4440	-0.243973
4424	-0.488352
4408	0.326752
4392	-0.303840
4376	0.244736
4360	0.605511
4344	0.330448
4328	0.444984
4312	0.398206
4296	0.077128
4280	0.222229
4264	-0.014519
4248	-0.060200
4232	0.067114
4216	0.041389
4200	0.143003
4184	0.092840
4168	0.201916
4152	-0.064015
4136	0.079202
4120	-0.106024
4104	-0.003218
4088	-0.002551
4072	0.137329
4056	0.036621
4040	-0.087833
4024	0.085020
4008	-0.062346
3992	0.313425
3976	0.002884
3960	0.111818
3944	0.223779
3928	0.080418
3912	-0.109720
3896	-0.008535
3880	0.118923
3864	0.214362
3848	-0.003314
3832	0.164890
3816	-0.147366
3800	0.159144
3784	0.077700
3768	-0.021696
3752	-0.036025
3736	0.012445
3720	0.135874
3704	0.112533
3688	0.073909
3672	0.040650
3656	0.031304
3640	0.010395
3624	0.104713
3608	0.152826
3592	0.007367
3576	0.071668
3560	-0.017166
3544	0.109434
3528	0.129556
3512	-0.003361
3496	0.090670
3480	0.038409
3464	-0.031495
3448	0.025534
3432	-0.060224
3416	0.077795
3400	-0.006246
3384	0.107908
3368	0.029850
3352	0.032377
3336	0.047564
3320	0.170326
3304	0.051569
3288	0.084042
3272	0.109696
3256	0.011658
3240	0.072932
3224	0.012469
3208	0.048279
3192	0.029349
3176	0.024104
3160	-0.050687
3144	0.019931
3128	0.001645
3112	0.016593
3096	-0.037336
3080	-0.062036
3064	0.217270
3048	0.086331
3032	0.003719
3016	0.055480
3000	0.092077
2984	0.005507
2968	0.010395
2952	0.046992
2936	0.029778
2920	0.086259
2904	-0.023603
2888	0.097346
2872	0.125575
2856	0.034451
2840	0.028944
2824	0.103282
2808	0.041985
2792	0.059580
2776	0.076580
2760	0.088500
2744	-0.074172
2728	-0.052094
2712	0.023269
2696	0.076127
2680	0.058150
2664	0.015044
2648	-0.081110
2632	0.026345
2616	0.049042
2600	0.102424
2584	0.052785
2568	0.129938
2552	-0.065469
2536	0.070428
2520	0.061678
2504	0.109267
2488	0.067067
2472	0.049710
2456	0.100851
2440	0.014233
2424	0.171995
2408	0.088787
2392	0.085067
2376	0.148820
2360	0.209856
2344	0.275945
2328	0.398468
2312	0.555062
2296	0.746273
2280	0.991249
2264	1.494812
2248	2.020907
2232	2.726721
2216	3.650093
2200	4.872035
2184	6.273365
2168	8.043932
2152	9.786033
2136	11.6753
2120	13.682
2104	15.7308
2088	17.8656
2072	19.8778
2056	21.5213
2040	23.4596
2024	25.4242
2008	26.4584
1992	27.7569
1976	29.3912
1960	30.2156
1944	30.8069
1928	31.8946
1912	32.7953
1896	32.7326
1880	33.3504
1864	34.4049
1848	34.246
1832	34.3688
1816	35.1009
1800	35.3755
1784	34.9524
1768	35.2574
1752	35.9423
1736	35.6416
1720	35.2877
1704	35.8572
1688	36.2063
1672	35.605
1656	35.477
1640	36.2714
1624	36.1741
1608	35.4741
1592	35.7573
1576	36.225
1560	35.8715
1544	35.3962
1528	36.0385
1512	36.253
1496	35.4763
1480	35.5317
1464	36.2037
1448	35.915
1432	35.1066
1416	35.4512
1400	36.0742
1384	35.3406
1368	34.8649
1352	35.6797
1336	35.8642
1320	34.8442
1304	34.8262
1288	35.6917
1272	35.4661
1256	34.4878
1240	34.9766
1224	35.6823
1208	35.0147
1192	34.3029
1176	35.0747
1160	35.3464
1144	34.3906
1128	34.1854
1112	35.0681
1096	34.8656
1080	33.8616
1064	33.974
1048	34.7976
1032	34.3046
1016	33.3928
1000	33.7941
984	 34.5633
968	 33.3128
952	 32.7224
936	 33.4705
920	 33.6696
904	 32.6506
888	 32.3888
872	 33.0157
856	 32.8221
840	 31.5873
824	 31.5134
808	 32.29
792	 31.5196
776	 30.5586
760	 31.1992
744	 31.4806
728	 30.2201
712	 29.5725
696	 30.3246
680	 30.1296
664	 29.1565
648	 28.4866
632	 29.1522
616	 28.8494
600	 27.4311
584	 27.4708
568	 27.6783
552	 26.742
536	 25.3443
520	 25.9532
504	 25.218
488	 24.358
472	 24.0178
456	 24.492
440	 24.1597
424	 21.3395
408	 18.6388
392	 21.2065
376	 -2.590513
370	 -7.540011