File: Bakgrunnsmateriale/MATLAB/FTIR/ftir_data/LPE453/Mapping_121/LPE453_t12.asc
PE IR       SPECTRUM    SPECTRUM    ASCII       PEDS        1.60
  -1
LPC791~1.ASC
17/05/16
15:19:23.00
17/05/16
15:19:49.00
tln
$LPE453_t0012$<tbV0>[13.0,-10.4,8.0,0.0,27,1,0]
27.028
64

2002,4.07
MIRTGS : RIGHTBACK : INTERNAL 2
MIR : ON : INTERNAL 2
OPTKBR

0.200000
8
8.000000
FILLER
RATIO
SPECTRUM
UNLOCKED 256

DOUBLE
64
COMBINED
1
0
0

0.002000
RATIO

1
0
TRUE
51149
0
LEFT NOT FITTED RIGHT NOT FITTED 0
NONE
NONE
15600
12
4.427000
51148
TRUE
1 0 8 72 0 0 0 0

15798

#HDR
-1
-1
#GR
µM
%T
2.38419e-05
0.0
2.000000
0.002000
12515
8
28.0429
-2.947927
#DATA
2.000000	 0.217247
2.084000	 -0.041973
2.168000	 1.141522
2.252000	 0.962938
2.336000	 0.140512
2.420000	 0.514960
2.504000	 0.023612
2.588000	 0.083462
2.672000	 -0.032454
2.756000	 -0.024272
2.840000	 0.166596
2.924000	 -0.019154
3.008000	 -0.083043
3.092000	 -0.033305
3.176000	 -0.010147
3.260000	 0.008424
3.344000	 0.085109
3.428000	 0.084837
3.512000	 -0.001758
3.596000	 0.054067
3.680000	 0.004432
3.764000	 -0.046086
3.848000	 -0.038590
3.932000	 -0.032735
4.016000	 -0.265219
4.100000	 0.033597
4.184000	 -0.043662
4.268000	 -0.081326
4.352000	 0.079502
4.436000	 0.561992
4.520000	 1.669480
4.604000	 3.687444
4.688000	 6.529755
4.772000	 10.0629
4.856000	 13.4119
4.940000	 16.5932
5.024000	 19.132
5.108000	 21.0719
5.192000	 22.5385
5.276000	 23.7461
5.359999	 24.7753
5.444000	 25.2079
5.528000	 25.8754
5.612000	 26.2734
5.696000	 26.6153
5.780000	 26.8348
5.864000	 27.0986
5.948000	 27.2652
6.032000	 27.4766
6.116000	 27.5563
6.200000	 27.6005
6.284000	 27.624
6.368000	 27.7521
6.452000	 27.801
6.536000	 27.7491
6.620000	 28.0277
6.704000	 27.9511
6.788000	 27.8921
6.872000	 27.9596
6.956000	 28.009
7.040000	 27.912
7.124000	 27.9399
7.208000	 27.7897
7.292000	 27.9139
7.376000	 27.8283
7.460000	 27.7013
7.544000	 27.8054
7.628000	 27.8649
7.712000	 27.7687
7.796000	 27.6678
7.880000	 27.7989
7.964000	 27.7046
8.048000	 27.6409
8.132000	 27.7149
8.216000	 27.6395
8.300000	 27.678
8.384000	 27.5884
8.468000	 27.43
8.552000	 27.6086
8.635999	 27.5366
8.719999	 27.4869
8.804000	 27.2946
8.888000	 27.2783
8.972000	 27.2441
9.056000	 27.5622
9.140000	 27.4158
9.224000	 27.1015
9.308000	 26.9381
9.391999	 26.9655
9.475999	 27.3909
9.560000	 27.1774
9.644000	 26.7794
9.728000	 26.6272
9.812000	 26.612
9.896000	 26.5552
9.980000	 26.8958
10.064	26.9261
10.148	26.6578
10.232	26.469
10.316	26.4651
10.4	26.4066
10.484	26.5452
10.568	26.3308
10.652	26.232
10.736	25.9513
10.82	25.8249
10.904	25.9621
10.988	25.9835
11.072	25.9237
11.156	26.0974
11.24	25.7914
11.324	25.498
11.408	25.2487
11.492	25.2453
11.576	25.4154
11.66	25.4354
11.744	25.4764
11.828	25.6477
11.912	25.2863
11.996	24.9804
12.08	24.8292
12.164	24.8014
12.248	24.7297
12.332	24.5294
12.416	24.6841
12.5	24.7356
12.584	24.6981
12.668	24.6464
12.752	24.5161
12.836	24.2931
12.92	24.1399
13.004	23.8591
13.088	23.5811
13.172	23.6207
13.256	23.8619
13.34	24.0117
13.424	24.0322
13.508	23.8908
13.592	23.7883
13.676	23.784
13.76	23.7904
13.844	23.7906
13.928	23.5296
14.012	23.3413
14.096	23.3207
14.18	23.2832
14.264	23.302
14.348	23.1531
14.432	23.0804
14.516	23.3586
14.6	23.42
14.684	23.1832
14.768	22.9347
14.852	22.6467
14.936	22.4046
15.02	22.3313
15.104	22.2471
15.188	22.1276
15.272	22.2131
15.356	22.3808
15.44	22.4351
15.524	22.4396
15.608	22.3958
15.692	22.2709
15.776	22.0952
15.86	21.899
15.944	21.6832
16.028	21.4497
16.112	21.2043
16.196	21.0016
16.28	20.9869
16.364	21.1464
16.448	21.1411
16.532	20.837
16.616	20.5644
16.7	20.5643
16.784	20.7072
16.868	20.8454
16.952	20.9808
17.036	21.0876
17.12	21.0613
17.204	20.8733
17.288	20.6625
17.372	20.5344
17.456	20.4059
17.54	20.1923
17.624	19.9643
17.708	19.811
17.792	19.726
17.876	19.7023
17.96	19.7628
18.044	19.877
18.128	19.9944
18.212	20.1151
18.296	20.2319
18.38	20.2586
18.464	20.1151
18.548	19.8507
18.632	19.5936
18.716	19.4184
18.8	19.3031
18.884	19.1923
18.968	19.0797
19.052	19.0222
19.136	19.0506
19.22	19.0927
19.304	19.0464
19.388	18.922
19.472	18.864
19.556	18.9932
19.64	19.246
19.724	19.4198
19.808	19.3804
19.892	19.1822
19.976	18.9834
20.06	18.8648
20.144	18.7643
20.228	18.5902
20.312	18.3625
20.396	18.2064
20.48	18.2231
20.564	18.3718
20.648	18.5056
20.732	18.507
20.816	18.3841
20.9	18.236
20.984	18.1326
21.068	18.0583
21.152	17.9664
21.236	17.8659
21.32	17.8278
21.404	17.8993
21.488	18.0283
21.572	18.0828
21.656	17.9385
21.74	17.5751
21.824	17.1043
21.908	16.7035
21.992	16.5101
22.076	16.566
22.16	16.8232
22.244	17.1992
22.328	17.6221
22.412	18.0145
22.496	18.2775
22.58	18.3058
22.664	18.033
22.748	17.5138
22.832	16.937
22.916	16.5444
23	16.5073
23.084	16.8152
23.168	17.2842
23.252	17.678
23.336	17.801
23.42	17.6384
23.504	17.3172
23.588	17.0463
23.672	17.01
23.756	17.2931
23.84	17.8638
23.924	18.588
24.008	19.2558
24.092	19.6179
24.176	19.4783
24.26	18.7547
24.344	17.5208
24.428	15.9659
24.512	14.3052
24.596	12.6381
24.68	10.9351
24.764	9.105304
24.848	7.079553
24.932	4.875767
25.016	2.634084
25.1	0.560181
25.184	-1.085791
25.268	-2.090354
25.352	-2.357999
25.436	-1.926820
25.52	-0.939864
25.604	0.453003
25.688	2.193803
25.772	4.363154
25.856	7.092169
25.94	10.3627
26.024	13.861
26.108	16.9786
26.192	18.9968
26.276	19.3196
26.36	17.7338
26.444	14.4461
26.528	10.0378
26.612	5.360511
26.696	1.284754
26.78	-1.552882
26.864	-2.848252
26.948	-2.680649
27.028	-1.538610