File: Bakgrunnsmateriale/MATLAB/FTIR/ftir_data/LPE453/Mapping_121/LPE453_t94.asc
PE IR       SPECTRUM    SPECTRUM    ASCII       PEDS        1.60
  -1
LPD7B9~1.ASC
17/05/16
22:06:40.00
17/05/16
22:07:06.00
tln
$LPE453_t0094$<tbV0>[0.0,7.8,8.0,0.0,27,1,0]
27.028
64

2002,4.07
MIRTGS : RIGHTBACK : INTERNAL 2
MIR : ON : INTERNAL 2
OPTKBR

0.200000
8
8.000000
FILLER
RATIO
SPECTRUM
UNLOCKED 256

DOUBLE
64
COMBINED
1
0
0

0.002000
RATIO

1
0
TRUE
51149
0
LEFT NOT FITTED RIGHT NOT FITTED 0
NONE
NONE
15600
12
4.427000
51148
TRUE
1 0 8 72 0 0 0 0

15798

#HDR
-1
-1
#GR
µM
%T
2.38419e-05
0.0
2.000000
0.002000
12515
8
35.4468
-18.2271
#DATA
2.000000	 0.232148
2.084000	 0.314733
2.168000	 1.290618
2.252000	 -0.374646
2.336000	 0.013247
2.420000	 0.401614
2.504000	 0.019739
2.588000	 0.218640
2.672000	 0.095213
2.756000	 -0.100200
2.840000	 -0.020323
2.924000	 0.004986
3.008000	 0.051681
3.092000	 0.048840
3.176000	 0.056514
3.260000	 0.049375
3.344000	 -0.004694
3.428000	 0.090838
3.512000	 -0.026629
3.596000	 0.084163
3.680000	 -0.043950
3.764000	 0.068675
3.848000	 0.136340
3.932000	 -0.000231
4.016000	 0.170246
4.100000	 0.007424
4.184000	 0.151126
4.268000	 0.116372
4.352000	 0.682259
4.436000	 1.715528
4.520000	 3.972614
4.604000	 7.454651
4.688000	 11.9113
4.772000	 16.7909
4.856000	 21.1204
4.940000	 24.7902
5.024000	 27.6045
5.108000	 29.524
5.192000	 31.3466
5.276000	 32.1908
5.359999	 33.4203
5.444000	 33.5876
5.528000	 34.1607
5.612000	 34.2889
5.696000	 34.6684
5.780000	 34.4712
5.864000	 35.1381
5.948000	 34.644
6.032000	 35.1678
6.116000	 34.9653
6.200000	 34.8471
6.284000	 35.3021
6.368000	 34.6226
6.452000	 35.0094
6.536000	 35.3371
6.620000	 34.7204
6.704000	 35.1891
6.788000	 35.2592
6.872000	 34.6098
6.956000	 34.9812
7.040000	 35.2489
7.124000	 34.5526
7.208000	 34.5715
7.292000	 35.168
7.376000	 34.9666
7.460000	 34.2402
7.544000	 34.4263
7.628000	 34.9328
7.712000	 34.7019
7.796000	 34.1271
7.880000	 34.2313
7.964000	 34.7699
8.048000	 34.6084
8.132000	 34.1269
8.216000	 33.9585
8.300000	 34.313
8.384000	 34.6802
8.468000	 34.4151
8.552000	 33.7665
8.635999	 33.702
8.719999	 34.1182
8.804000	 34.5181
8.888000	 34.2293
8.972000	 33.6402
9.056000	 33.3251
9.140000	 33.6082
9.224000	 34.0268
9.308000	 34.1419
9.391999	 33.8541
9.475999	 33.2715
9.560000	 33.2108
9.644000	 33.4584
9.728000	 33.6089
9.812000	 33.7006
9.896000	 33.7912
9.980000	 33.2088
10.064	32.6056
10.148	32.5737
10.232	32.868
10.316	33.1614
10.4	33.4866
10.484	33.3264
10.568	32.7234
10.652	32.3102
10.736	32.0413
10.82	32.2445
10.904	32.3483
10.988	32.6792
11.072	32.8142
11.156	32.4736
11.24	32.0178
11.324	31.6613
11.408	31.3654
11.492	31.1702
11.576	31.3107
11.66	31.7685
11.744	32.0875
11.828	32.1849
11.912	31.9947
11.996	31.661
12.08	31.2811
12.164	30.8786
12.248	30.6283
12.332	30.5479
12.416	30.6536
12.5	30.8833
12.584	31.0491
12.668	31.2091
12.752	31.2673
12.836	31.1521
12.92	30.8101
13.004	30.4403
13.088	30.2092
13.172	29.9327
13.256	29.8771
13.34	30.0374
13.424	30.2225
13.508	30.3042
13.592	30.362
13.676	30.3676
13.76	30.3331
13.844	30.1551
13.928	29.9345
14.012	29.6994
14.096	29.3377
14.18	28.9765
14.264	28.7822
14.348	28.6886
14.432	28.6707
14.516	28.786
14.6	28.9121
14.684	29.0716
14.768	29.3409
14.852	29.5318
14.936	29.4295
15.02	29.2685
15.104	29.2652
15.188	29.1085
15.272	28.6815
15.356	28.2701
15.44	28.0288
15.524	27.8949
15.608	27.7695
15.692	27.6998
15.776	27.7781
15.86	27.8597
15.944	27.7874
16.028	27.7548
16.112	27.9317
16.196	28.0783
16.28	27.9425
16.364	27.6368
16.448	27.4125
16.532	27.3815
16.616	27.4627
16.7	27.4573
16.784	27.2545
16.868	26.9365
16.952	26.6175
17.036	26.3371
17.12	26.1478
17.204	26.1173
17.288	26.1824
17.372	26.1585
17.456	25.9739
17.54	25.7959
17.624	25.8305
17.708	26.0452
17.792	26.2306
17.876	26.2931
17.96	26.3354
18.044	26.4376
18.128	26.5285
18.212	26.5188
18.296	26.4276
18.38	26.3132
18.464	26.1566
18.548	25.8986
18.632	25.5474
18.716	25.1981
18.8	24.9527
18.884	24.8589
18.968	24.9087
19.052	25.0464
19.136	25.1746
19.22	25.1943
19.304	25.0941
19.388	24.9663
19.472	24.9227
19.556	24.981
19.64	25.06
19.724	25.0778
19.808	25.043
19.892	25.0244
19.976	25.0446
20.06	25.0181
20.144	24.8155
20.228	24.3878
20.312	23.8359
20.396	23.3603
20.48	23.1447
20.564	23.2609
20.648	23.6496
20.732	24.1619
20.816	24.6231
20.9	24.8914
20.984	24.9014
21.068	24.6682
21.152	24.2541
21.236	23.7366
21.32	23.1833
21.404	22.6685
21.488	22.276
21.572	22.0814
21.656	22.1104
21.74	22.3136
21.824	22.5853
21.908	22.8113
21.992	22.9132
22.076	22.8617
22.16	22.668
22.244	22.3831
22.328	22.0855
22.412	21.8797
22.496	21.866
22.58	22.0877
22.664	22.5169
22.748	23.0508
22.832	23.5538
22.916	23.9038
23	24.0241
23.084	23.8877
23.168	23.5113
23.252	22.9522
23.336	22.3099
23.42	21.6956
23.504	21.2073
23.588	20.8905
23.672	20.7178
23.756	20.5948
23.84	20.4433
23.924	20.2438
24.008	20.0783
24.092	20.1083
24.176	20.4493
24.26	21.1002
24.344	21.8937
24.428	22.5593
24.512	22.8244
24.596	22.5651
24.68	21.8949
24.764	21.1498
24.848	20.6895
24.932	20.7664
25.016	21.3737
25.1	22.2424
25.184	22.9584
25.268	23.1529
25.352	22.6208
25.436	21.3295
25.52	19.3962
25.604	16.9908
25.688	14.2102
25.772	11.1186
25.856	7.843437
25.94	4.607922
26.024	1.740199
26.108	-0.415722
26.192	-1.654160
26.276	-2.018084
26.36	-1.855729
26.444	-1.689613
26.528	-2.033398
26.612	-3.218173
26.696	-5.331303
26.78	-8.201191
26.864	-11.521
26.948	-14.982
27.028	-18.2271