File: Bakgrunnsmateriale/MATLAB/FTIR/ftir_data/LPE453/Mapping_121/LPE453_t84.asc
PE IR       SPECTRUM    SPECTRUM    ASCII       PEDS        1.60
  -1
LPD3B9~1.ASC
17/05/16
21:14:04.00
17/05/16
21:14:31.00
tln
$LPE453_t0084$<tbV0>[-2.6,5.2,8.0,0.0,27,1,0]
27.028
64

2002,4.07
MIRTGS : RIGHTBACK : INTERNAL 2
MIR : ON : INTERNAL 2
OPTKBR

0.200000
8
8.000000
FILLER
RATIO
SPECTRUM
UNLOCKED 256

DOUBLE
64
COMBINED
1
0
0

0.002000
RATIO

1
0
TRUE
51149
0
LEFT NOT FITTED RIGHT NOT FITTED 0
NONE
NONE
15600
12
4.427000
51148
TRUE
1 0 8 72 0 0 0 0

15798

#HDR
-1
-1
#GR
µM
%T
2.38419e-05
0.0
2.000000
0.002000
12515
8
35.8134
-4.246407
#DATA
2.000000	 -0.178670
2.084000	 0.312159
2.168000	 0.326885
2.252000	 -0.997672
2.336000	 -0.022321
2.420000	 0.169829
2.504000	 0.230153
2.588000	 0.281276
2.672000	 0.086689
2.756000	 -0.022775
2.840000	 0.099969
2.924000	 0.102858
3.008000	 -0.064857
3.092000	 0.042904
3.176000	 -0.005217
3.260000	 0.063253
3.344000	 0.096575
3.428000	 0.036954
3.512000	 0.145612
3.596000	 0.053094
3.680000	 0.019586
3.764000	 -0.009486
3.848000	 0.013449
3.932000	 0.039051
4.016000	 0.133999
4.100000	 -0.007234
4.184000	 -0.114347
4.268000	 0.228552
4.352000	 0.796387
4.436000	 1.767532
4.520000	 4.040466
4.604000	 7.613966
4.688000	 12.0641
4.772000	 16.898
4.856000	 21.4995
4.940000	 25.1955
5.024000	 28.1276
5.108000	 30.3839
5.192000	 31.8847
5.276000	 33
5.359999	 33.8338
5.444000	 34.3217
5.528000	 34.8161
5.612000	 34.9779
5.696000	 35.4419
5.780000	 35.3851
5.864000	 35.6325
5.948000	 35.5672
6.032000	 35.6219
6.116000	 35.6189
6.200000	 35.4483
6.284000	 35.7623
6.368000	 35.4137
6.452000	 35.4481
6.536000	 35.6287
6.620000	 35.3405
6.704000	 35.3436
6.788000	 35.5479
6.872000	 35.0237
6.956000	 35.3557
7.040000	 35.3867
7.124000	 35.0562
7.208000	 35.0738
7.292000	 35.1062
7.376000	 34.9257
7.460000	 34.7486
7.544000	 34.9233
7.628000	 35.0173
7.712000	 34.5915
7.796000	 34.6589
7.880000	 34.792
7.964000	 34.7272
8.048000	 34.462
8.132000	 34.1944
8.216000	 34.4234
8.300000	 34.4821
8.384000	 34.4399
8.468000	 34.2247
8.552000	 34.1144
8.635999	 34.2466
8.719999	 34.0141
8.804000	 33.9243
8.888000	 33.8533
8.972000	 33.8432
9.056000	 33.9762
9.140000	 33.7902
9.224000	 33.7448
9.308000	 33.3863
9.391999	 33.3313
9.475999	 33.3509
9.560000	 33.3855
9.644000	 33.3536
9.728000	 33.1668
9.812000	 33.2095
9.896000	 32.8383
9.980000	 32.8895
10.064	33.2794
10.148	33.1836
10.232	33.1572
10.316	32.8601
10.4	32.548
10.484	32.3548
10.568	32.2433
10.652	32.5655
10.736	32.6218
10.82	32.3267
10.904	32.4029
10.988	32.2126
11.072	32.0098
11.156	31.8599
11.24	31.8715
11.324	31.8847
11.408	32.0029
11.492	31.7592
11.576	31.4367
11.66	31.363
11.744	31.0871
11.828	30.9208
11.912	31.0123
11.996	31.1565
12.08	31.1328
12.164	31.1134
12.248	31.1843
12.332	31.0044
12.416	30.6415
12.5	30.3938
12.584	30.2463
12.668	30.2314
12.752	30.0389
12.836	29.9144
12.92	29.9551
13.004	30.0484
13.088	30.101
13.172	30.0097
13.256	29.7865
13.34	29.5771
13.424	29.4089
13.508	29.2334
13.592	29.1341
13.676	29.0822
13.76	29.1174
13.844	29.0852
13.928	29.03
14.012	29.013
14.096	28.98
14.18	28.9471
14.264	28.8715
14.348	28.7386
14.432	28.5541
14.516	28.3107
14.6	28.1558
14.684	28.0635
14.768	28.0139
14.852	28.0713
14.936	28.0667
15.02	28.0062
15.104	27.9736
15.188	27.9301
15.272	27.9563
15.356	28.0082
15.44	27.9662
15.524	27.9593
15.608	27.9968
15.692	27.7768
15.776	27.2271
15.86	26.693
15.944	26.4328
16.028	26.3998
16.112	26.489
16.196	26.6043
16.28	26.5855
16.364	26.3794
16.448	26.1663
16.532	26.0958
16.616	26.1029
16.7	26.1319
16.784	26.2656
16.868	26.5113
16.952	26.7246
17.036	26.7801
17.12	26.6623
17.204	26.4041
17.288	26.0284
17.372	25.5747
17.456	25.1591
17.54	24.933
17.624	24.9307
17.708	25.0267
17.792	25.0803
17.876	25.0507
17.96	24.97
18.044	24.8892
18.128	24.8658
18.212	24.9173
18.296	24.9982
18.38	25.0722
18.464	25.1638
18.548	25.291
18.632	25.3911
18.716	25.3816
18.8	25.259
18.884	25.0861
18.968	24.8995
19.052	24.6846
19.136	24.4313
19.22	24.1612
19.304	23.8977
19.388	23.6605
19.472	23.5016
19.556	23.4965
19.64	23.6614
19.724	23.9
19.808	24.0638
19.892	24.0786
19.976	23.9966
20.06	23.9299
20.144	23.948
20.228	24.0309
20.312	24.0961
20.396	24.0557
20.48	23.8757
20.564	23.5972
20.648	23.3026
20.732	23.0599
20.816	22.8918
20.9	22.7879
20.984	22.754
21.068	22.8236
21.152	23.0309
21.236	23.3497
21.32	23.6692
21.404	23.838
21.488	23.752
21.572	23.4215
21.656	22.9689
21.74	22.5565
21.824	22.2974
21.908	22.1989
21.992	22.1779
22.076	22.1215
22.16	21.9549
22.244	21.6762
22.328	21.3417
22.412	21.0321
22.496	20.8138
22.58	20.7172
22.664	20.7308
22.748	20.8058
22.832	20.8812
22.916	20.877
23	20.7493
23.084	20.5062
23.168	20.2137
23.252	19.9765
23.336	19.9104
23.42	20.0462
23.504	20.3322
23.588	20.6423
23.672	20.8372
23.756	20.8283
23.84	20.6189
23.924	20.2725
24.008	19.8473
24.092	19.3372
24.176	18.657
24.26	17.6478
24.344	16.1687
24.428	14.2458
24.512	12.1555
24.596	10.3433
24.68	9.328938
24.764	9.523554
24.848	10.9992
24.932	13.4969
25.016	16.5109
25.1	19.4974
25.184	21.8612
25.268	23.1426
25.352	23.1478
25.436	21.937
25.52	19.8304
25.604	17.3079
25.688	15.0124
25.772	13.5178
25.856	13.1258
25.94	13.9333
26.024	15.829
26.108	18.4955
26.192	21.3308
26.276	23.4845
26.36	23.8918
26.444	21.8951
26.528	17.5826
26.612	11.886
26.696	6.211528
26.78	1.908572
26.864	-0.059021
26.948	0.864020
27.028	4.850792