File: Bakgrunnsmateriale/MATLAB/FTIR/ftir_data/LPE453/Mapping_121/LPE453_t67.asc
PE IR       SPECTRUM    SPECTRUM    ASCII       PEDS        1.60
  -1
LPDBA5~1.ASC
17/05/16
19:55:04.00
17/05/16
19:55:30.00
tln
$LPE453_t0067$<tbV0>[13.0,2.6,8.0,0.0,27,1,0]
27.028
64

2002,4.07
MIRTGS : RIGHTBACK : INTERNAL 2
MIR : ON : INTERNAL 2
OPTKBR

0.200000
8
8.000000
FILLER
RATIO
SPECTRUM
UNLOCKED 256

DOUBLE
64
COMBINED
1
0
0

0.002000
RATIO

1
0
TRUE
51149
0
LEFT NOT FITTED RIGHT NOT FITTED 0
NONE
NONE
15600
12
4.427000
51148
TRUE
1 0 8 72 0 0 0 0

15798

#HDR
-1
-1
#GR
µM
%T
2.38419e-05
0.0
2.000000
0.002000
12515
8
45.5575
-1.372530
#DATA
2.000000	 0.182485
2.084000	 0.115357
2.168000	 0.879443
2.252000	 0.074917
2.336000	 -0.243983
2.420000	 -0.119880
2.504000	 -0.075819
2.588000	 0.051888
2.672000	 -0.091412
2.756000	 0.021478
2.840000	 0.129365
2.924000	 0.049840
3.008000	 -0.003544
3.092000	 -0.104007
3.176000	 -0.012125
3.260000	 0.048443
3.344000	 0.172045
3.428000	 0.008410
3.512000	 0.170485
3.596000	 0.083939
3.680000	 -0.032983
3.764000	 0.060721
3.848000	 -0.048586
3.932000	 -0.006872
4.016000	 0.149765
4.100000	 0.051039
4.184000	 0.010651
4.268000	 0.059866
4.352000	 0.040460
4.436000	 0.134613
4.520000	 0.471661
4.604000	 1.471934
4.688000	 3.251100
4.772000	 5.609584
4.856000	 8.310808
4.940000	 10.7202
5.024000	 12.8796
5.108000	 14.6651
5.192000	 16.1934
5.276000	 17.1773
5.359999	 17.968
5.444000	 18.9342
5.528000	 19.5093
5.612000	 19.6143
5.696000	 19.9183
5.780000	 20.3773
5.864000	 20.3001
5.948000	 20.6184
6.032000	 20.8245
6.116000	 20.6829
6.200000	 21.0302
6.284000	 20.8314
6.368000	 21.1921
6.452000	 20.8458
6.536000	 21.3446
6.620000	 20.9982
6.704000	 21.0078
6.788000	 20.8903
6.872000	 21.1498
6.956000	 20.8523
7.040000	 21.1009
7.124000	 20.9484
7.208000	 20.8857
7.292000	 21.0759
7.376000	 20.7404
7.460000	 20.8925
7.544000	 21.0481
7.628000	 20.6576
7.712000	 20.9053
7.796000	 20.8998
7.880000	 20.668
7.964000	 20.9026
8.048000	 20.7671
8.132000	 20.5262
8.216000	 20.8541
8.300000	 20.628
8.384000	 20.2729
8.468000	 20.4613
8.552000	 20.8779
8.635999	 20.37
8.719999	 20.1181
8.804000	 20.4084
8.888000	 20.5062
8.972000	 20.0214
9.056000	 20.0258
9.140000	 20.361
9.224000	 20.2206
9.308000	 19.9162
9.391999	 19.7616
9.475999	 20.0117
9.560000	 19.831
9.644000	 19.6147
9.728000	 19.3633
9.812000	 19.4779
9.896000	 19.775
9.980000	 19.7046
10.064	19.4034
10.148	18.918
10.232	19.0225
10.316	19.3169
10.4	19.3341
10.484	19.0988
10.568	18.8071
10.652	19.0059
10.736	19.1981
10.82	19.1127
10.904	18.6985
10.988	18.4036
11.072	18.5498
11.156	18.6159
11.24	18.6429
11.324	18.5255
11.408	18.1754
11.492	18.0351
11.576	17.8387
11.66	17.8932
11.744	18.0287
11.828	18.157
11.912	18.1965
11.996	17.7989
12.08	17.4502
12.164	17.2735
12.248	17.3373
12.332	17.5048
12.416	17.5331
12.5	17.4151
12.584	17.3789
12.668	17.2227
12.752	16.9519
12.836	16.9083
12.92	16.9364
13.004	16.8714
13.088	16.6197
13.172	16.5125
13.256	16.6641
13.34	16.847
13.424	16.6648
13.508	16.3394
13.592	16.4131
13.676	16.5968
13.76	16.445
13.844	16.2142
13.928	16.0532
14.012	15.9342
14.096	15.7655
14.18	15.5297
14.264	15.4181
14.348	15.3845
14.432	15.3326
14.516	15.2675
14.6	15.2415
14.684	15.3035
14.768	15.3015
14.852	15.162
14.936	14.9944
15.02	14.8815
15.104	14.7685
15.188	14.5949
15.272	14.4838
15.356	14.537
15.44	14.696
15.524	14.8403
15.608	14.8618
15.692	14.7365
15.776	14.4739
15.86	14.0932
15.944	13.7491
16.028	13.5977
16.112	13.5727
16.196	13.5634
16.28	13.5767
16.364	13.6341
16.448	13.779
16.532	14.0144
16.616	14.1805
16.7	14.1555
16.784	14.0371
16.868	13.9338
16.952	13.8305
17.036	13.6946
17.12	13.5178
17.204	13.3067
17.288	13.1219
17.372	13.0397
17.456	13.0483
17.54	13.0493
17.624	12.947
17.708	12.7288
17.792	12.4988
17.876	12.4115
17.96	12.5088
18.044	12.6529
18.128	12.667
18.212	12.5196
18.296	12.315
18.38	12.15
18.464	12.047
18.548	11.9934
18.632	11.9722
18.716	11.9419
18.8	11.851
18.884	11.7119
18.968	11.6247
19.052	11.6894
19.136	11.8915
19.22	12.1048
19.304	12.2112
19.388	12.1981
19.472	12.1311
19.556	12.0673
19.64	12.0042
19.724	11.8986
19.808	11.7185
19.892	11.4723
19.976	11.2001
20.06	10.9553
20.144	10.7893
20.228	10.754
20.312	10.8965
20.396	11.2305
20.48	11.7062
20.564	12.2075
20.648	12.607
20.732	12.8296
20.816	12.8695
20.9	12.7585
20.984	12.5164
21.068	12.1519
21.152	11.6998
21.236	11.2547
21.32	10.948
21.404	10.8697
21.488	10.9955
21.572	11.1937
21.656	11.3098
21.74	11.2606
21.824	11.0795
21.908	10.8777
21.992	10.7557
22.076	10.7509
22.16	10.8326
22.244	10.9416
22.328	11.035
22.412	11.0923
22.496	11.1037
22.58	11.0652
22.664	10.9825
22.748	10.8805
22.832	10.7986
22.916	10.7697
23	10.8056
23.084	10.8845
23.168	10.9637
23.252	11.0151
23.336	11.0433
23.42	11.0851
23.504	11.2074
23.588	11.4389
23.672	11.742
23.756	12.037
23.84	12.2054
23.924	12.146
24.008	11.8244
24.092	11.2827
24.176	10.6132
24.26	9.890082
24.344	9.165470
24.428	8.465407
24.512	7.776764
24.596	7.112501
24.68	6.532336
24.764	6.137434
24.848	6.000540
24.932	6.269871
25.016	7.157319
25.1	8.847831
25.184	11.4405
25.268	14.8161
25.352	18.5991
25.436	22.2559
25.52	25.2395
25.604	27.1324
25.688	27.7095
25.772	27.0429
25.856	25.5173
25.94	23.8925
26.024	23.1806
26.108	24.2856
26.192	27.5669
26.276	32.6118
26.36	38.255
26.444	42.9663
26.528	45.3938
26.612	44.8996
26.696	41.5672
26.78	36.1204
26.864	29.5948
26.948	22.9984
27.028	17.4229