File: Bakgrunnsmateriale/MATLAB/FTIR/ftir_data/LPE453/Mapping_121/LPE453_t82_cm-1.asc
PE IR       SPECTRUM    SPECTRUM    ASCII       PEDS        1.60
  -1
LP5B50~1.ASC
17/05/16
21:04:51.00
17/05/16
21:04:51.00
tln
$LPE453_t0082$<tbV0>[2.6,5.2,8.0,0.0,27,1,0]
370
64

2002,4.07
MIRTGS : RIGHTBACK : INTERNAL 2
MIR : ON : INTERNAL 2
OPTKBR

0.200000
8
8.000000
FILLER
RATIO
SPECTRUM
UNLOCKED 256

DOUBLE
64
COMBINED
1
0
0

1.000000
RATIO

1
0
TRUE
51149
0
LEFT NOT FITTED RIGHT NOT FITTED 0
NONE
NONE
15600
12
4.427000
51148
TRUE
1 0 8 72 0 0 0 0

15798

#HDR
-1
-1
#GR
CM-1
%T
2.38419e-05
0.0
5000
-1.000000
4631
8
33.047
-1.407837
#DATA
5000	-0.358366
4984	0.470376
4968	0.316429
4952	0.361442
4936	0.285530
4920	0.026082
4904	0.035858
4888	0.200128
4872	0.293588
4856	0.407123
4840	0.213718
4824	-0.065898
4808	-0.068616
4792	0.577640
4776	0.344133
4760	0.244927
4744	0.399923
4728	0.382542
4712	-0.068306
4696	0.920915
4680	1.078939
4664	0.938725
4648	0.239038
4632	0.140976
4616	0.398349
4600	0.827002
4584	0.848388
4568	-0.413465
4552	0.059795
4536	-0.231909
4520	0.394296
4504	1.902580
4488	24.4859
4472	-0.252294
4456	-0.849413
4440	-1.273941
4424	-0.139760
4408	-0.053548
4392	0.708007
4376	0.797438
4360	0.412845
4344	0.278568
4328	0.813627
4312	0.016307
4296	-0.221228
4280	0.100612
4264	0.038695
4248	-0.036931
4232	0.279998
4216	0.157189
4200	0.141882
4184	0.449132
4168	0.392580
4152	-0.055575
4136	0.054049
4120	0.190114
4104	0.236201
4088	0.004601
4072	0.030779
4056	-0.135350
4040	-0.017070
4024	0.050091
4008	0.053286
3992	0.250840
3976	0.128221
3960	0.056409
3944	0.140810
3928	0.066208
3912	0.127863
3896	0.159549
3880	0.105667
3864	0.060415
3848	-0.051045
3832	0.111603
3816	-0.006818
3800	0.394940
3784	-0.026822
3768	0.019764
3752	0.048780
3736	-0.017118
3720	0.187730
3704	-0.003433
3688	0.038671
3672	0.109219
3656	0.015997
3640	0.112295
3624	0.136208
3608	0.003099
3592	-0.030040
3576	0.178647
3560	-0.029468
3544	0.049972
3528	0.211095
3512	0.073528
3496	0.202155
3480	0.057244
3464	-0.002861
3448	-0.145196
3432	0.038242
3416	0.053954
3400	0.256037
3384	0.057768
3368	0.096035
3352	0.002121
3336	0.106191
3320	0.082468
3304	-0.062108
3288	0.015807
3272	0.069475
3256	0.109744
3240	0.026988
3224	-0.175976
3208	0.099325
3192	0.096988
3176	0.090289
3160	0.037598
3144	0.188422
3128	0.175809
3112	0.054216
3096	0.172281
3080	-0.029730
3064	0.123119
3048	-0.077581
3032	0.060415
3016	0.184679
3000	-0.041794
2984	0.045251
2968	0.064373
2952	0.078248
2936	0.000047
2920	-0.060915
2904	0.004148
2888	0.081229
2872	0.171136
2856	0.072574
2840	-0.013065
2824	0.000739
2808	0.157952
2792	0.110197
2776	0.100302
2760	0.012016
2744	0.110292
2728	0.190472
2712	0.093078
2696	-0.112056
2680	0.067901
2664	0.092887
2648	0.047421
2632	-0.004792
2616	0.018858
2600	0.105834
2584	0.012922
2568	0.020956
2552	0.048637
2536	0.105047
2520	-0.051808
2504	-0.021982
2488	-0.035738
2472	-0.026607
2456	-0.007748
2440	0.084710
2424	0.074720
2408	0.047755
2392	0.060963
2376	0.066518
2360	0.047326
2344	0.164842
2328	0.147342
2312	0.171542
2296	0.376892
2280	0.668072
2264	0.890779
2248	1.253962
2232	1.929283
2216	2.720236
2200	3.588461
2184	4.788327
2168	6.249833
2152	7.876849
2136	9.539389
2120	11.4293
2104	13.5115
2088	15.4911
2072	17.4105
2056	19.1954
2040	20.8393
2024	22.3625
2008	23.8951
1992	25.0978
1976	26.1609
1960	27.2119
1944	28.1814
1928	28.9714
1912	29.522
1896	30.2469
1880	30.5782
1864	31.1602
1848	31.3791
1832	31.6367
1816	32.0196
1800	32.241
1784	32.2315
1768	32.4693
1752	32.6252
1736	32.5518
1720	32.7232
1704	32.8624
1688	32.7225
1672	32.8695
1656	32.9667
1640	32.7685
1624	32.9222
1608	32.7993
1592	32.7938
1576	32.8754
1560	32.9605
1544	32.7351
1528	32.7391
1512	32.8477
1496	32.5319
1480	32.5692
1464	32.5862
1448	32.59
1432	32.2366
1416	32.5159
1400	32.2954
1384	32.1283
1368	32.5182
1352	32.3498
1336	32.0197
1320	31.9864
1304	32.101
1288	31.6822
1272	31.8213
1256	31.9535
1240	31.6849
1224	31.6126
1208	31.7484
1192	31.3509
1176	31.2921
1160	31.5649
1144	31.0756
1128	30.7906
1112	31.3134
1096	30.9563
1080	30.5657
1064	30.8398
1048	30.3233
1032	30.0835
1016	30.4848
1000	30.1815
984	 29.7649
968	 29.6818
952	 29.837
936	 29.0721
920	 28.9826
904	 29.1878
888	 28.6364
872	 28.2164
856	 28.5281
840	 28.2196
824	 27.2907
808	 27.5459
792	 27.5147
776	 26.7751
760	 26.7438
744	 26.8658
728	 25.9937
712	 25.6045
696	 25.0699
680	 24.7998
664	 24.8317
648	 24.5106
632	 23.691
616	 23.1153
600	 23.304
584	 22.5588
568	 21.7961
552	 22.1903
536	 21.0853
520	 20.3503
504	 20.5663
488	 20.3053
472	 18.8802
456	 18.4912
440	 17.5288
424	 16.7471
408	 14.8775
392	 9.884667
376	 30.1073
370	 20.2991