File: Bakgrunnsmateriale/MATLAB/FTIR/ftir_data/LPE453/Mapping_121/LPE453_t103.asc
PE IR       SPECTRUM    SPECTRUM    ASCII       PEDS        1.60
  -1
LP9F76~1.ASC
17/05/16
22:48:46.00
17/05/16
22:49:12.00
tln
$LPE453_t0103$<tbV0>[5.2,10.4,8.0,0.0,27,1,0]
27.028
64

2002,4.07
MIRTGS : RIGHTBACK : INTERNAL 2
MIR : ON : INTERNAL 2
OPTKBR

0.200000
8
8.000000
FILLER
RATIO
SPECTRUM
UNLOCKED 256

DOUBLE
64
COMBINED
1
0
0

0.002000
RATIO

1
0
TRUE
51149
0
LEFT NOT FITTED RIGHT NOT FITTED 0
NONE
NONE
15600
12
4.427000
51148
TRUE
1 0 8 72 0 0 0 0

15798

#HDR
-1
-1
#GR
µM
%T
2.38419e-05
0.0
2.000000
0.002000
12515
8
40.0055
-2.489843
#DATA
2.000000	 0.216054
2.084000	 0.004745
2.168000	 0.226719
2.252000	 0.172216
2.336000	 0.328629
2.420000	 0.192297
2.504000	 0.182051
2.588000	 0.118339
2.672000	 0.105292
2.756000	 -0.053625
2.840000	 0.186167
2.924000	 -0.025197
3.008000	 0.098821
3.092000	 -0.026206
3.176000	 0.171261
3.260000	 0.047031
3.344000	 0.017939
3.428000	 0.074804
3.512000	 -0.077801
3.596000	 0.078530
3.680000	 0.166836
3.764000	 0.072661
3.848000	 0.090151
3.932000	 0.006879
4.016000	 0.057529
4.100000	 0.099418
4.184000	 0.224910
4.268000	 0.512357
4.352000	 1.450987
4.436000	 3.050148
4.520000	 5.980929
4.604000	 10.2229
4.688000	 15.3822
4.772000	 20.4754
4.856000	 25.2221
4.940000	 29.0316
5.024000	 32.0403
5.108000	 34.3409
5.192000	 35.7929
5.276000	 37.0233
5.359999	 37.8352
5.444000	 38.5414
5.528000	 38.758
5.612000	 39.2153
5.696000	 39.2365
5.780000	 39.3078
5.864000	 39.7522
5.948000	 39.5795
6.032000	 39.6909
6.116000	 39.8473
6.200000	 39.6424
6.284000	 39.7545
6.368000	 39.9087
6.452000	 39.8208
6.536000	 39.5082
6.620000	 39.8729
6.704000	 39.7414
6.788000	 39.576
6.872000	 39.5738
6.956000	 39.9628
7.040000	 39.7911
7.124000	 39.488
7.208000	 39.2872
7.292000	 39.7618
7.376000	 39.8093
7.460000	 39.4212
7.544000	 39.2821
7.628000	 39.5079
7.712000	 39.6913
7.796000	 39.4688
7.880000	 39.2844
7.964000	 38.9414
8.048000	 39.1987
8.132000	 39.4834
8.216000	 39.4437
8.300000	 39.2419
8.384000	 38.8857
8.468000	 38.766
8.552000	 39.0239
8.635999	 39.2963
8.719999	 39.1733
8.804000	 38.8934
8.888000	 38.5328
8.972000	 38.401
9.056000	 38.4659
9.140000	 39.0407
9.224000	 39.2415
9.308000	 39.0481
9.391999	 38.6897
9.475999	 38.2914
9.560000	 38.0023
9.644000	 38.2357
9.728000	 38.5016
9.812000	 38.6457
9.896000	 38.7113
9.980000	 38.5364
10.064	38.3282
10.148	37.9726
10.232	37.8226
10.316	37.7457
10.4	37.858
10.484	38.1624
10.568	38.3221
10.652	38.3903
10.736	38.2089
10.82	37.9231
10.904	37.6454
10.988	37.3182
11.072	37.1752
11.156	37.4263
11.24	37.4856
11.324	37.5667
11.408	37.8353
11.492	37.8743
11.576	37.7028
11.66	37.4108
11.744	36.9911
11.828	36.6325
11.912	36.3784
11.996	36.3762
12.08	36.407
12.164	36.6325
12.248	36.6999
12.332	36.8337
12.416	37.0943
12.5	37.2318
12.584	37.0039
12.668	36.6574
12.752	36.3437
12.836	36.1462
12.92	35.8726
13.004	35.5083
13.088	35.3466
13.172	35.3275
13.256	35.5094
13.34	35.6995
13.424	35.7436
13.508	35.7136
13.592	35.9794
13.676	36.2626
13.76	36.1919
13.844	35.957
13.928	35.6613
14.012	35.2413
14.096	34.9305
14.18	34.8216
14.264	34.7281
14.348	34.525
14.432	34.2505
14.516	34.1133
14.6	34.2655
14.684	34.549
14.768	34.8081
14.852	35.0684
14.936	35.2539
15.02	35.279
15.104	35.1548
15.188	34.9379
15.272	34.7951
15.356	34.7224
15.44	34.5887
15.524	34.4553
15.608	34.2768
15.692	33.9235
15.776	33.5376
15.86	33.2758
15.944	33.1031
16.028	32.9919
16.112	32.9437
16.196	32.9346
16.28	32.9518
16.364	33.0215
16.448	33.2431
16.532	33.6628
16.616	34.068
16.7	34.2014
16.784	34.1017
16.868	33.93
16.952	33.72
17.036	33.4847
17.12	33.2993
17.204	33.1767
17.288	33.0602
17.372	32.919
17.456	32.7584
17.54	32.5958
17.624	32.4508
17.708	32.3196
17.792	32.1742
17.876	31.9951
17.96	31.772
18.044	31.4904
18.128	31.1783
18.212	30.9447
18.296	30.9036
18.38	31.0601
18.464	31.3012
18.548	31.4944
18.632	31.5754
18.716	31.5733
18.8	31.57
18.884	31.6221
18.968	31.7112
19.052	31.7622
19.136	31.7132
19.22	31.559
19.304	31.3525
19.388	31.173
19.472	31.0918
19.556	31.1287
19.64	31.2281
19.724	31.3003
19.808	31.2925
19.892	31.2211
19.976	31.1214
20.06	30.9776
20.144	30.7235
20.228	30.3178
20.312	29.8145
20.396	29.3493
20.48	29.0484
20.564	28.9554
20.648	29.0175
20.732	29.1437
20.816	29.26
20.9	29.3371
20.984	29.3802
21.068	29.3996
21.152	29.3868
21.236	29.313
21.32	29.1513
21.404	28.9124
21.488	28.6692
21.572	28.5373
21.656	28.6136
21.74	28.9228
21.824	29.4001
21.908	29.9227
21.992	30.3671
22.076	30.646
22.16	30.7269
22.244	30.6389
22.328	30.4415
22.412	30.1974
22.496	29.9472
22.58	29.6988
22.664	29.4494
22.748	29.2122
22.832	29.0254
22.916	28.9446
23	28.9914
23.084	29.1349
23.168	29.3043
23.252	29.4194
23.336	29.4029
23.42	29.2421
23.504	28.9444
23.588	28.5325
23.672	28.0399
23.756	27.5123
23.84	27.0231
23.924	26.6638
24.008	26.5059
24.092	26.5754
24.176	26.8612
24.26	27.3463
24.344	28.0403
24.428	28.9472
24.512	29.9866
24.596	30.9362
24.68	31.425
24.764	31.0455
24.848	29.5371
24.932	26.8996
25.016	23.4714
25.1	19.8275
25.184	16.6474
25.268	14.4527
25.352	13.4682
25.436	13.5744
25.52	14.3813
25.604	15.4446
25.688	16.4272
25.772	17.225
25.856	17.9337
25.94	18.7175
26.024	19.6723
26.108	20.7156
26.192	21.6049
26.276	22.0114
26.36	21.6369
26.444	20.3729
26.528	18.3725
26.612	16.0128
26.696	13.7755
26.78	12.0854
26.864	11.2091
26.948	11.239
27.028	12.1032