File: Bakgrunnsmateriale/MATLAB/FTIR/ftir_data/LPE453/Mapping_121/LPE453_t23_cm-1.asc
PE IR       SPECTRUM    SPECTRUM    ASCII       PEDS        1.60
  -1
LP58D0~1.ASC
17/05/16
16:17:16.00
17/05/16
16:17:16.00
tln
$LPE453_t0023$<tbV0>[13.0,-7.8,8.0,0.0,27,1,0]
370
64

2002,4.07
MIRTGS : RIGHTBACK : INTERNAL 2
MIR : ON : INTERNAL 2
OPTKBR

0.200000
8
8.000000
FILLER
RATIO
SPECTRUM
UNLOCKED 256

DOUBLE
64
COMBINED
1
0
0

1.000000
RATIO

1
0
TRUE
51149
0
LEFT NOT FITTED RIGHT NOT FITTED 0
NONE
NONE
15600
12
4.427000
51148
TRUE
1 0 8 72 0 0 0 0

15798

#HDR
-1
-1
#GR
CM-1
%T
2.38419e-05
0.0
5000
-1.000000
4631
8
27.3302
-55.1029
#DATA
5000	0.240468
4984	-0.235438
4968	-0.027632
4952	0.257086
4936	-0.208520
4920	0.083160
4904	0.631403
4888	0.281214
4872	-0.296878
4856	0.468015
4840	0.396871
4824	0.327777
4808	0.214219
4792	0.176978
4776	0.181555
4760	0.026988
4744	-0.064444
4728	-0.067353
4712	0.025701
4696	0.041580
4680	-0.012803
4664	0.138044
4648	0.090050
4632	0.390458
4616	0.958490
4600	0.721240
4584	-1.062488
4568	-0.214910
4552	-2.063465
4536	-0.193333
4520	2.418828
4504	15.8684
4488	0.246524
4472	0.093412
4456	-0.383019
4440	-0.258016
4424	-0.674390
4408	0.062870
4392	0.475335
4376	0.599884
4360	0.143718
4344	0.215387
4328	0.168156
4312	0.114250
4296	0.223255
4280	0.162839
4264	0.168943
4248	-0.093388
4232	-0.098085
4216	-0.070405
4200	0.306844
4184	0.502276
4168	-0.004100
4152	0.068640
4136	0.195384
4120	0.075221
4104	0.327706
4088	-0.100255
4072	0.127649
4056	0.010943
4040	0.138330
4024	-0.090169
4008	0.190925
3992	-0.209903
3976	-0.074005
3960	-0.048136
3944	0.267696
3928	0.051808
3912	-0.070428
3896	-0.051712
3880	-0.078487
3864	0.033998
3848	0.011634
3832	0.131034
3816	0.257396
3800	0.007748
3784	-0.000214
3768	0.186562
3752	0.133728
3736	0.064730
3720	0.026559
3704	0.063037
3688	0.094270
3672	-0.033688
3656	0.015187
3640	0.087046
3624	0.068879
3608	-0.010848
3592	-0.031661
3576	-0.086593
3560	0.161552
3544	0.329828
3528	-0.055003
3512	-0.076293
3496	0.069475
3480	0.107455
3464	-0.003314
3448	-0.055360
3432	0.170207
3416	0.166535
3400	-0.048708
3384	0.036358
3368	0.169396
3352	0.301408
3336	0.003910
3320	0.139570
3304	0.029397
3288	0.114369
3272	-0.139212
3256	-0.004243
3240	0.115728
3224	0.154137
3208	0.163364
3192	-0.000357
3176	0.193691
3160	0.020599
3144	0.191688
3128	-0.057673
3112	-0.048065
3096	0.110387
3080	-0.097584
3064	0.022864
3048	0.009059
3032	0.078845
3016	0.035691
3000	0.033807
2984	-0.006699
2968	0.171542
2952	0.140237
2936	0.064015
2920	0.075292
2904	-0.048565
2888	-0.008463
2872	-0.059151
2856	0.150585
2840	0.098013
2824	0.033402
2808	-0.068283
2792	0.020217
2776	0.023603
2760	0.034093
2744	0.047397
2728	0.014400
2712	0.052809
2696	0.089168
2680	0.097489
2664	-0.037312
2648	-0.053048
2632	0.060439
2616	0.102853
2600	0.047636
2584	0.057625
2568	0.018382
2552	-0.000762
2536	0.119757
2520	-0.063109
2504	0.087165
2488	0.009965
2472	0.081515
2456	0.074124
2440	0.076341
2424	-0.315165
2408	0.092601
2392	0.113439
2376	0.047898
2360	0.123667
2344	0.004482
2328	0.061774
2312	0.106620
2296	0.233864
2280	0.174355
2264	0.257706
2248	0.543785
2232	0.827193
2216	1.199316
2200	1.828694
2184	2.416586
2168	3.250265
2152	4.275178
2136	5.562925
2120	6.806015
2104	8.285093
2088	9.749579
2072	11.4637
2056	12.6262
2040	14.0826
2024	15.4071
2008	16.7804
1992	17.9494
1976	18.997
1960	20.0217
1944	20.7649
1928	21.7083
1912	22.4537
1896	22.9723
1880	23.6385
1864	24.1184
1848	24.5647
1832	24.9638
1816	25.1798
1800	25.5707
1784	25.8036
1768	25.9934
1752	26.1782
1736	26.2358
1720	26.5319
1704	26.6452
1688	26.7221
1672	26.752
1656	26.847
1640	27.1395
1624	27.0631
1608	27.0863
1592	27.1485
1576	27.0859
1560	27.116
1544	27.2456
1528	27.236
1512	27.2159
1496	27.2289
1480	27.314
1464	27.1291
1448	27.2686
1432	27.132
1416	27.187
1400	27.0607
1384	27.0592
1368	27.0925
1352	27.1534
1336	27.014
1320	26.9211
1304	26.9952
1288	26.8814
1272	26.8074
1256	26.8257
1240	26.7167
1224	26.8072
1208	26.6981
1192	26.5363
1176	26.4428
1160	26.3695
1144	26.2254
1128	26.1133
1112	26.0279
1096	25.865
1080	26.0752
1064	25.8559
1048	25.3883
1032	25.5831
1016	25.6752
1000	25.1688
984	 25.107
968	 25.1652
952	 24.7423
936	 24.7939
920	 24.5252
904	 23.9438
888	 24.0811
872	 23.9718
856	 23.3797
840	 23.7153
824	 23.3163
808	 22.7194
792	 22.953
776	 22.4633
760	 22.1396
744	 21.9239
728	 21.681
712	 21.1675
696	 20.9641
680	 20.5232
664	 20.0328
648	 20.0878
632	 19.7384
616	 19.1292
600	 19.4438
584	 18.4047
568	 18.8951
552	 18.0492
536	 17.1687
520	 16.62
504	 16.8471
488	 15.5989
472	 15.6365
456	 15.1005
440	 14.3678
424	 13.2936
408	 6.269001
392	 4.530477
376	 -46.8906
370	 -44.9725