File: Bakgrunnsmateriale/MATLAB/FTIR/ftir_data/LPE453/Mapping_121/LPE453_e124.asc
PE IR       SPECTRUM    SPECTRUM    ASCII       PEDS        1.60
  -1
LP8383~1.ASC
17/05/16
18:00:33.00
17/05/16
18:00:59.00
tln
$LPE453_e0124$<ebV0>[-23.3,12.1,10.0,0.0,27,1,0]
27.028
64

2002,4.07
MIRTGS : RIGHTBACK : INTERNAL 2
MIR : ON : INTERNAL 2
OPTKBR

0.200000
8
8.000000
FILLER
SINGLE
SPECTRUM
UNLOCKED 256

DOUBLE

COMBINED
1
0
0

0.002000
BACKG

1
0
TRUE
51149
0
LEFT NOT FITTED RIGHT NOT FITTED 0
NONE
NONE
15600
12
4.427000
51148
TRUE
1 0 8 72 0 0 0 0

15798

#HDR
-1
-1
#GR
µM
EGY
2.38419e-05
0.0
2.000000
0.002000
12515
8
2.420958
0.008201
#DATA
2.000000	 0.763392
2.084000	 0.862189
2.168000	 0.927793
2.252000	 1.009370
2.336000	 1.132737
2.420000	 1.228542
2.504000	 1.383937
2.588000	 1.442923
2.672000	 1.538891
2.756000	 1.563863
2.840000	 1.611711
2.924000	 1.571850
3.008000	 1.667712
3.092000	 1.760952
3.176000	 1.790640
3.260000	 1.906634
3.344000	 2.010930
3.428000	 1.820158
3.512000	 1.990099
3.596000	 2.192196
3.680000	 2.233948
3.764000	 2.200937
3.848000	 2.201595
3.932000	 2.269031
4.016000	 2.297352
4.100000	 2.262058
4.184000	 2.226062
4.268000	 2.237340
4.352000	 2.312950
4.436000	 2.347080
4.520000	 2.336287
4.604000	 2.308233
4.688000	 2.300879
4.772000	 2.305397
4.856000	 2.346382
4.940000	 2.401544
5.024000	 2.416672
5.108000	 2.391114
5.192000	 2.364566
5.276000	 2.332213
5.359999	 2.342573
5.444000	 2.365041
5.528000	 2.390519
5.612000	 2.389933
5.696000	 2.360634
5.780000	 2.288708
5.864000	 2.244107
5.948000	 2.202897
6.032000	 2.156120
6.116000	 2.104677
6.200000	 1.974164
6.284000	 1.981211
6.368000	 1.944594
6.452000	 1.923504
6.536000	 2.062970
6.620000	 2.047508
6.704000	 1.661640
6.788000	 1.942156
6.872000	 1.763981
6.956000	 1.833473
7.040000	 1.827037
7.124000	 1.699250
7.208000	 1.762100
7.292000	 1.787494
7.376000	 1.788432
7.460000	 1.787582
7.544000	 1.818839
7.628000	 1.823942
7.712000	 1.826319
7.796000	 1.822775
7.880000	 1.744893
7.964000	 1.731108
8.048000	 1.805369
8.132000	 1.799489
8.216000	 1.759007
8.300000	 1.719796
8.384000	 1.716196
8.468000	 1.688318
8.552000	 1.648458
8.635999	 1.599706
8.719999	 1.578394
8.804000	 1.553269
8.888000	 1.503597
8.972000	 1.448872
9.056000	 1.412453
9.140000	 1.403915
9.224000	 1.405776
9.308000	 1.406932
9.391999	 1.417717
9.475999	 1.337378
9.560000	 1.306798
9.644000	 1.363850
9.728000	 1.347448
9.812000	 1.339977
9.896000	 1.359036
9.980000	 1.375910
10.064	1.375341
10.148	1.363326
10.232	1.347269
10.316	1.328254
10.4	1.302005
10.484	1.272773
10.568	1.250819
10.652	1.237254
10.736	1.223188
10.82	1.207460
10.904	1.188003
10.988	1.161723
11.072	1.144564
11.156	1.134005
11.24	1.113358
11.324	1.064519
11.408	1.018439
11.492	1.031043
11.576	1.067308
11.66	1.077234
11.744	1.071972
11.828	1.062782
11.912	1.042570
11.996	0.978675
12.08	0.870272
12.164	0.840963
12.248	0.902621
12.332	0.934266
12.416	0.933820
12.5	0.932431
12.584	0.939181
12.668	0.953542
12.752	0.964721
12.836	0.967011
12.92	0.964398
13.004	0.959174
13.088	0.953466
13.172	0.949861
13.256	0.945783
13.34	0.938973
13.424	0.930684
13.508	0.921083
13.592	0.910303
13.676	0.897739
13.76	0.884442
13.844	0.871773
13.928	0.859292
14.012	0.846644
14.096	0.834092
14.18	0.821190
14.264	0.805711
14.348	0.784055
14.432	0.754777
14.516	0.728733
14.6	0.719890
14.684	0.722115
14.768	0.720909
14.852	0.713916
14.936	0.705843
15.02	0.699325
15.104	0.692532
15.188	0.683406
15.272	0.673128
15.356	0.662853
15.44	0.652981
15.524	0.643546
15.608	0.634543
15.692	0.626163
15.776	0.618409
15.86	0.610338
15.944	0.601205
16.028	0.591628
16.112	0.582028
16.196	0.571582
16.28	0.558743
16.364	0.543010
16.448	0.527350
16.532	0.517206
16.616	0.514487
16.7	0.515635
16.784	0.515558
16.868	0.512405
16.952	0.507240
17.036	0.502145
17.12	0.498924
17.204	0.497640
17.288	0.496988
17.372	0.495753
17.456	0.493311
17.54	0.489715
17.624	0.485140
17.708	0.480174
17.792	0.475515
17.876	0.471160
17.96	0.466890
18.044	0.462493
18.128	0.458084
18.212	0.453764
18.296	0.449608
18.38	0.445552
18.464	0.441295
18.548	0.436546
18.632	0.431358
18.716	0.425971
18.8	0.420595
18.884	0.415223
18.968	0.409793
19.052	0.404361
19.136	0.399159
19.22	0.394435
19.304	0.389800
19.388	0.384814
19.472	0.379122
19.556	0.373035
19.64	0.366969
19.724	0.361195
19.808	0.355580
19.892	0.349880
19.976	0.343774
20.06	0.337153
20.144	0.330077
20.228	0.322800
20.312	0.315578
20.396	0.308485
20.48	0.301684
20.564	0.295037
20.648	0.288492
20.732	0.281913
20.816	0.275255
20.9	0.268562
20.984	0.262017
21.068	0.255742
21.152	0.249926
21.236	0.244495
21.32	0.239232
21.404	0.233937
21.488	0.228348
21.572	0.222354
21.656	0.215879
21.74	0.209093
21.824	0.202107
21.908	0.195219
21.992	0.188676
22.076	0.182660
22.16	0.177281
22.244	0.172478
22.328	0.168166
22.412	0.164152
22.496	0.160096
22.58	0.155816
22.664	0.151230
22.748	0.146363
22.832	0.141397
22.916	0.136457
23	0.131748
23.084	0.127322
23.168	0.123008
23.252	0.118582
23.336	0.113828
23.42	0.108548
23.504	0.102968
23.588	0.097333
23.672	0.091975
23.756	0.087169
23.84	0.082952
23.924	0.079202
24.008	0.075569
24.092	0.071887
24.176	0.068100
24.26	0.064323
24.344	0.060709
24.428	0.057405
24.512	0.054279
24.596	0.051296
24.68	0.048247
24.764	0.045125
24.848	0.041975
24.932	0.039005
25.016	0.036347
25.1	0.034177
25.184	0.032400
25.268	0.030865
25.352	0.029458
25.436	0.028075
25.52	0.026627
25.604	0.025162
25.688	0.023748
25.772	0.022382
25.856	0.021127
25.94	0.019938
26.024	0.018736
26.108	0.017476
26.192	0.016246
26.276	0.015020
26.36	0.013847
26.444	0.012789
26.528	0.011868
26.612	0.011086
26.696	0.010411
26.78	0.009813
26.864	0.009227
26.948	0.008692
27.028	0.008201