File: Bakgrunnsmateriale/MATLAB/FTIR/ftir_data/LPE453/Mapping_121/LPE453_t02.asc
PE IR       SPECTRUM    SPECTRUM    ASCII       PEDS        1.60
  -1
LPC391~1.ASC
17/05/16
14:32:38.00
17/05/16
14:33:04.00
tln
$LPE453_t0002$<tbV0>[10.4,-13.0,8.0,0.0,27,1,0]
27.028
64

2002,4.07
MIRTGS : RIGHTBACK : INTERNAL 2
MIR : ON : INTERNAL 2
OPTKBR

0.200000
8
8.000000
FILLER
RATIO
SPECTRUM
UNLOCKED 256

DOUBLE
64
COMBINED
1
0
0

0.002000
RATIO

1
0
TRUE
51149
0
LEFT NOT FITTED RIGHT NOT FITTED 0
NONE
NONE
15600
12
4.427000
51148
TRUE
1 0 8 72 0 0 0 0

15798

#HDR
-1
-1
#GR
µM
%T
2.38419e-05
0.0
2.000000
0.002000
12515
8
33.9781
-8.430671
#DATA
2.000000	 0.318956
2.084000	 -0.064952
2.168000	 0.373275
2.252000	 -0.782710
2.336000	 0.347813
2.420000	 0.236038
2.504000	 0.257587
2.588000	 0.112980
2.672000	 0.031301
2.756000	 0.132033
2.840000	 0.032211
2.924000	 0.018900
3.008000	 0.123688
3.092000	 0.088437
3.176000	 -0.084181
3.260000	 0.017081
3.344000	 0.102829
3.428000	 0.006808
3.512000	 0.017200
3.596000	 -0.023237
3.680000	 0.002910
3.764000	 -0.010278
3.848000	 0.088279
3.932000	 0.018276
4.016000	 -0.057551
4.100000	 0.063608
4.184000	 0.072610
4.268000	 -0.009200
4.352000	 0.274360
4.436000	 0.930547
4.520000	 2.379716
4.604000	 5.015905
4.688000	 8.744296
4.772000	 13.0241
4.856000	 17.1645
4.940000	 20.7994
5.024000	 23.942
5.108000	 26.3812
5.192000	 27.8609
5.276000	 29.3762
5.359999	 30.6426
5.444000	 31.1945
5.528000	 32.0568
5.612000	 32.1284
5.696000	 32.9998
5.780000	 32.7476
5.864000	 33.6095
5.948000	 33.2729
6.032000	 33.7599
6.116000	 33.4256
6.200000	 33.6521
6.284000	 33.7651
6.368000	 33.3589
6.452000	 33.6343
6.536000	 33.4226
6.620000	 33.4747
6.704000	 33.6137
6.788000	 33.1218
6.872000	 33.1663
6.956000	 33.4932
7.040000	 32.929
7.124000	 32.7434
7.208000	 33.1418
7.292000	 32.8047
7.376000	 32.5552
7.460000	 32.9352
7.544000	 32.881
7.628000	 32.1074
7.712000	 32.3067
7.796000	 32.7338
7.880000	 32.3982
7.964000	 31.9027
8.048000	 32.047
8.132000	 32.5047
8.216000	 32.2879
8.300000	 31.7306
8.384000	 31.6331
8.468000	 31.9822
8.552000	 32.2038
8.635999	 31.9041
8.719999	 31.3067
8.804000	 31.2905
8.888000	 31.6232
8.972000	 31.8997
9.056000	 31.5306
9.140000	 31.1225
9.224000	 30.9113
9.308000	 31.3872
9.391999	 31.5035
9.475999	 31.3169
9.560000	 30.6395
9.644000	 30.4572
9.728000	 30.5778
9.812000	 30.8519
9.896000	 31.0241
9.980000	 31.0469
10.064	30.5634
10.148	30.1551
10.232	30.0224
10.316	30.3371
10.4	30.7196
10.484	30.9198
10.568	30.6534
10.652	30.0005
10.736	29.573
10.82	29.5196
10.904	29.6725
10.988	29.7867
11.072	30.0691
11.156	30.0179
11.24	29.7259
11.324	29.2998
11.408	28.9642
11.492	28.788
11.576	28.9605
11.66	29.196
11.744	29.4984
11.828	29.6193
11.912	29.5711
11.996	29.1254
12.08	28.6031
12.164	28.5102
12.248	28.5129
12.332	28.2862
12.416	28.2318
12.5	28.493
12.584	28.5738
12.668	28.4547
12.752	28.2549
12.836	28.1075
12.92	27.7694
13.004	27.4424
13.088	27.3403
13.172	27.4106
13.256	27.5347
13.34	27.5939
13.424	27.9374
13.508	27.9888
13.592	27.6665
13.676	27.605
13.76	27.4735
13.844	27.1584
13.928	26.8032
14.012	26.5585
14.096	26.5714
14.18	26.5661
14.264	26.5387
14.348	26.5314
14.432	26.4535
14.516	26.592
14.6	26.8126
14.684	26.8516
14.768	26.9012
14.852	26.9717
14.936	26.8245
15.02	26.5522
15.104	26.3711
15.188	26.097
15.272	25.756
15.356	25.7538
15.44	25.9914
15.524	26.0123
15.608	25.7935
15.692	25.5846
15.776	25.5099
15.86	25.6361
15.944	25.8932
16.028	26.0514
16.112	26.005
16.196	25.7946
16.28	25.4678
16.364	25.1188
16.448	24.8525
16.532	24.6897
16.616	24.6304
16.7	24.6273
16.784	24.5529
16.868	24.3877
16.952	24.2554
17.036	24.219
17.12	24.2789
17.204	24.4609
17.288	24.6642
17.372	24.6951
17.456	24.5798
17.54	24.536
17.624	24.5993
17.708	24.576
17.792	24.3826
17.876	24.1666
17.96	24.0516
18.044	23.9879
18.128	23.8872
18.212	23.7594
18.296	23.6533
18.38	23.581
18.464	23.5333
18.548	23.506
18.632	23.4762
18.716	23.4316
18.8	23.4192
18.884	23.4995
18.968	23.6256
19.052	23.6469
19.136	23.4861
19.22	23.2626
19.304	23.1964
19.388	23.3765
19.472	23.672
19.556	23.8582
19.64	23.7979
19.724	23.5002
19.808	23.0595
19.892	22.5772
19.976	22.1323
20.06	21.7674
20.144	21.4813
20.228	21.2481
20.312	21.0711
20.396	20.9958
20.48	21.0402
20.564	21.1401
20.648	21.1892
20.732	21.1431
20.816	21.0708
20.9	21.0824
20.984	21.2212
21.068	21.4341
21.152	21.6444
21.236	21.8201
21.32	21.9776
21.404	22.1267
21.488	22.2561
21.572	22.3662
21.656	22.49
21.74	22.6621
21.824	22.8549
21.908	22.9604
21.992	22.8764
22.076	22.6019
22.16	22.249
22.244	21.945
22.328	21.7096
22.412	21.4257
22.496	20.9312
22.58	20.16
22.664	19.2002
22.748	18.275
22.832	17.5972
22.916	17.2848
23	17.2941
23.084	17.4893
23.168	17.7033
23.252	17.812
23.336	17.7482
23.42	17.5236
23.504	17.2068
23.588	16.9028
23.672	16.7326
23.756	16.8263
23.84	17.279
23.924	18.1162
24.008	19.2723
24.092	20.5946
24.176	21.8818
24.26	23.0152
24.344	23.991
24.428	24.8924
24.512	25.829
24.596	26.842
24.68	27.8184
24.764	28.5014
24.848	28.5951
24.932	27.9782
25.016	26.8511
25.1	25.6394
25.184	24.8529
25.268	24.828
25.352	25.5951
25.436	26.934
25.52	28.4578
25.604	29.7416
25.688	30.3038
25.772	29.6897
25.856	27.6066
25.94	24.1064
26.024	19.6999
26.108	15.2703
26.192	11.7666
26.276	9.844988
26.36	9.665075
26.444	10.708
26.528	11.9674
26.612	12.3593
26.696	11.0399
26.78	7.695998
26.864	2.671794
26.948	-3.164877
27.028	-8.430671