File: Bakgrunnsmateriale/MATLAB/FTIR/ftir_data/LPE453/Mapping_121/LPE453_t110_cm-1.asc
PE IR       SPECTRUM    SPECTRUM    ASCII       PEDS        1.60
  -1
LP03FC~1.ASC
17/05/16
23:21:02.00
17/05/16
23:21:02.00
tln
$LPE453_t0110$<tbV0>[-13.0,10.4,8.0,0.0,27,1,0]
370
64

2002,4.07
MIRTGS : RIGHTBACK : INTERNAL 2
MIR : ON : INTERNAL 2
OPTKBR

0.200000
8
8.000000
FILLER
RATIO
SPECTRUM
UNLOCKED 256

DOUBLE
64
COMBINED
1
0
0

1.000000
RATIO

1
0
TRUE
51149
0
LEFT NOT FITTED RIGHT NOT FITTED 0
NONE
NONE
15600
12
4.427000
51148
TRUE
1 0 8 72 0 0 0 0

15798

#HDR
-1
-1
#GR
CM-1
%T
2.38419e-05
0.0
5000
-1.000000
4631
8
33.6948
-14.6998
#DATA
5000	0.098323
4984	0.144219
4968	0.178694
4952	0.315904
4936	0.015234
4920	0.495243
4904	0.259780
4888	0.604963
4872	0.383830
4856	0.489854
4840	0.310254
4824	0.052523
4808	0.118541
4792	0.188040
4776	-0.093841
4760	0.156426
4744	0.199532
4728	0.189304
4712	0.393867
4696	0.470161
4680	-0.550031
4664	-0.266480
4648	0.081372
4632	1.161813
4616	2.089953
4600	2.442836
4584	0.922918
4568	0.823545
4552	0.380492
4536	1.058888
4520	-0.494003
4504	-11.8178
4488	22.4188
4472	0.383329
4456	0.364613
4440	0.348687
4424	0.180816
4408	0.129461
4392	0.540065
4376	0.201082
4360	0.337696
4344	0.557279
4328	-0.172066
4312	0.335502
4296	0.320601
4280	0.187540
4264	0.152516
4248	0.059199
4232	0.284290
4216	0.159502
4200	0.420212
4184	0.102996
4168	0.292205
4152	0.179862
4136	0.502514
4120	0.146532
4104	0.089430
4088	-0.113606
4072	-0.189542
4056	0.044989
4040	0.033211
4024	0.161194
4008	0.104427
3992	-0.055932
3976	-0.202322
3960	-0.009346
3944	-0.002408
3928	0.099325
3912	0.005793
3896	0.112295
3880	-0.024795
3864	0.156211
3848	-0.001120
3832	0.255036
3816	-0.092029
3800	-0.073027
3784	0.018024
3768	0.078582
3752	0.237870
3736	0.233483
3720	0.270724
3704	-0.023818
3688	0.097298
3672	0.019192
3656	0.097846
3640	0.079870
3624	-0.123405
3608	0.151324
3592	0.056648
3576	0.027871
3560	-0.035071
3544	0.073909
3528	0.038552
3512	0.233650
3496	-0.079226
3480	0.058102
3464	0.124144
3448	-0.056219
3432	0.203943
3416	-0.008273
3400	0.133442
3384	0.005674
3368	0.073528
3352	0.055670
3336	0.002312
3320	-0.057005
3304	0.177049
3288	0.166368
3272	0.161933
3256	0.031232
3240	-0.044631
3224	-0.065684
3208	0.098729
3192	0.019979
3176	0.228190
3160	0.021171
3144	0.115704
3128	0.152659
3112	-0.045514
3096	-0.008916
3080	0.021338
3064	0.161314
3048	0.085973
3032	0.152969
3016	0.075244
3000	0.108480
2984	-0.017905
2968	0.012707
2952	0.145745
2936	0.112009
2920	0.088477
2904	0.134730
2888	0.065612
2872	0.066685
2856	-0.117731
2840	0.016236
2824	0.039863
2808	-0.102496
2792	0.100755
2776	0.046801
2760	0.020384
2744	-0.019335
2728	0.066184
2712	-0.004196
2696	0.000619
2680	0.050854
2664	0.048923
2648	0.003314
2632	-0.031208
2616	0.001382
2600	0.035214
2584	0.001335
2568	0.085043
2552	-0.097322
2536	0.090932
2520	-0.036644
2504	0.057983
2488	-0.034213
2472	-0.050425
2456	0.047421
2440	-0.019645
2424	-0.142598
2408	0.151252
2392	0.005340
2376	0.116562
2360	0.141429
2344	0.048255
2328	0.203108
2312	0.305986
2296	0.444006
2280	0.657320
2264	0.988507
2248	1.400017
2232	1.985692
2216	2.657914
2200	3.523373
2184	4.610252
2168	5.809473
2152	7.210612
2136	8.637380
2120	10.5162
2104	12.2445
2088	13.9401
2072	15.4534
2056	17.3203
2040	18.9098
2024	20.2718
2008	21.6712
1992	22.8969
1976	23.9943
1960	25.0128
1944	25.7295
1928	26.6324
1912	27.2317
1896	27.8907
1880	28.3803
1864	28.8778
1848	29.2899
1832	29.702
1816	30.031
1800	30.2997
1784	30.4978
1768	30.7322
1752	30.9436
1736	31.0581
1720	31.3814
1704	31.4478
1688	31.6643
1672	31.576
1656	31.7103
1640	31.891
1624	32.0067
1608	31.9962
1592	32.2339
1576	32.2815
1560	32.3075
1544	32.3977
1528	32.5058
1512	32.5729
1496	32.3562
1480	32.5945
1464	32.5943
1448	32.5943
1432	32.5626
1416	32.6624
1400	32.6675
1384	32.492
1368	32.583
1352	32.8501
1336	32.79
1320	32.7106
1304	32.6335
1288	32.7159
1272	32.6676
1256	32.4976
1240	32.5586
1224	32.6743
1208	32.3903
1192	32.2436
1176	32.3335
1160	32.3187
1144	32.1448
1128	31.9252
1112	32.0022
1096	31.6149
1080	31.4976
1064	31.3805
1048	31.6178
1032	31.1727
1016	30.7621
1000	30.7346
984	 30.874
968	 30.5153
952	 30.4137
936	 30.0763
920	 29.9178
904	 29.3936
888	 29.1925
872	 29.1839
856	 28.9136
840	 28.6038
824	 28.0269
808	 28.3758
792	 27.6464
776	 27.45
760	 27.3821
744	 27.141
728	 26.7
712	 26.1989
696	 26.3213
680	 26.079
664	 25.4076
648	 25.3738
632	 25.4471
616	 24.9312
600	 24.1223
584	 24.1517
568	 24.0712
552	 24.3491
536	 23.1969
520	 23.3865
504	 23.2709
488	 23.0401
472	 21.699
456	 21.9155
440	 22.3642
424	 21.0775
408	 20.5917
392	 14.6788
376	 29.1374
370	 28.6866