File: Bakgrunnsmateriale/MATLAB/FTIR/ftir_data/LPE453/Mapping_121/LPE453_t11_cm-1.asc
PE IR       SPECTRUM    SPECTRUM    ASCII       PEDS        1.60
  -1
LPD7D5~1.ASC
17/05/16
15:14:09.00
17/05/16
15:14:09.00
tln
$LPE453_t0011$<tbV0>[-13.0,-13.0,8.0,0.0,27,1,0]
370
64

2002,4.07
MIRTGS : RIGHTBACK : INTERNAL 2
MIR : ON : INTERNAL 2
OPTKBR

0.200000
8
8.000000
FILLER
RATIO
SPECTRUM
UNLOCKED 256

DOUBLE
64
COMBINED
1
0
0

1.000000
RATIO

1
0
TRUE
51149
0
LEFT NOT FITTED RIGHT NOT FITTED 0
NONE
NONE
15600
12
4.427000
51148
TRUE
1 0 8 72 0 0 0 0

15798

#HDR
-1
-1
#GR
CM-1
%T
2.38419e-05
0.0
5000
-1.000000
4631
8
38.2356
-10.7531
#DATA
5000	0.407242
4984	-0.002837
4968	0.644516
4952	1.108908
4936	0.120401
4920	0.210070
4904	-0.273370
4888	-0.045061
4872	0.036430
4856	0.107884
4840	0.257492
4824	0.377154
4808	0.337553
4792	-0.107288
4776	0.111484
4760	0.352025
4744	-0.013041
4728	-0.044655
4712	0.170755
4696	-0.029826
4680	0.435686
4664	0.216722
4648	0.307059
4632	0.541043
4616	0.082564
4600	-0.264072
4584	-1.080536
4568	-0.333905
4552	-1.000022
4536	-0.076794
4520	5.631327
4504	2.327489
4488	-0.568985
4472	-0.529909
4456	-0.156211
4440	-0.564813
4424	-0.399136
4408	0.494146
4392	0.326466
4376	-0.017142
4360	0.278663
4344	0.118851
4328	0.021314
4312	0.085258
4296	0.197458
4280	-0.164628
4264	-0.014901
4248	-0.072860
4232	0.116634
4216	0.268507
4200	0.221848
4184	0.415086
4168	0.518298
4152	0.283384
4136	-0.041723
4120	0.141549
4104	-0.328111
4088	-0.095677
4072	-0.092887
4056	-0.066685
4040	0.302577
4024	0.008702
4008	-0.018954
3992	0.197148
3976	0.164890
3960	-0.019359
3944	-0.064539
3928	-0.043749
3912	0.036001
3896	-0.097751
3880	-0.152015
3864	-0.044345
3848	-0.128817
3832	0.231432
3816	0.003838
3800	-0.151515
3784	0.273323
3768	-0.050115
3752	-0.065970
3736	0.126099
3720	0.056624
3704	0.078082
3688	0.020933
3672	-0.034451
3656	-0.000905
3640	-0.084614
3624	0.122618
3608	0.075769
3592	0.070524
3576	0.178575
3560	0.316429
3544	0.149440
3528	0.072693
3512	0.115871
3496	0.021815
3480	0.074481
3464	0.090312
3448	0.167655
3432	0.268411
3416	-0.023841
3400	0.072646
3384	0.106978
3368	0.061702
3352	-0.131678
3336	0.082111
3320	0.010180
3304	0.161433
3288	-0.083899
3272	0.216841
3256	-0.057816
3240	-0.038838
3224	0.158095
3208	0.158548
3192	-0.119686
3176	0.156402
3160	0.062203
3144	0.082778
3128	0.283479
3112	0.111722
3096	0.209689
3080	0.012993
3064	0.074458
3048	0.052237
3032	0.070905
3016	0.246024
3000	0.026416
2984	0.105357
2968	-0.071096
2952	-0.021576
2936	0.036501
2920	0.058913
2904	0.081229
2888	-0.011444
2872	-0.083065
2856	0.039196
2840	-0.024938
2824	-0.016403
2808	0.003933
2792	0.064682
2776	-0.059890
2760	0.034642
2744	-0.047874
2728	0.004029
2712	0.074148
2696	0.069189
2680	0.070381
2664	-0.113105
2648	0.027704
2632	0.032496
2616	0.066041
2600	0.099682
2584	0.051617
2568	0.121760
2552	0.077629
2536	0.013494
2520	0.112843
2504	-0.169730
2488	0.163793
2472	0.086379
2456	-0.082445
2440	0.206446
2424	0.188469
2408	0.530028
2392	0.071024
2376	-0.195765
2360	-0.054192
2344	0.128006
2328	-0.021886
2312	0.229191
2296	0.251507
2280	0.344085
2264	0.548005
2248	0.756573
2232	1.123857
2216	1.549553
2200	2.047634
2184	2.723526
2168	3.279209
2152	4.272651
2136	5.122590
2120	6.221961
2104	7.355546
2088	8.637595
2072	9.574747
2056	10.548
2040	11.7561
2024	12.6276
2008	13.641
1992	14.3611
1976	14.9456
1960	15.8017
1944	16.2874
1928	16.5893
1912	17.1649
1896	17.4914
1880	17.8866
1864	18.0914
1848	18.4589
1832	18.679
1816	18.894
1800	19.1996
1784	19.3663
1768	19.5132
1752	19.7881
1736	20.0318
1720	19.9457
1704	20.1559
1688	20.2022
1672	20.2833
1656	20.3281
1640	20.3798
1624	20.4782
1608	20.4674
1592	20.735
1576	20.6802
1560	20.9252
1544	20.95
1528	21.1268
1512	21.2352
1496	21.0698
1480	21.2957
1464	21.1791
1448	20.9819
1432	21.2449
1416	21.2581
1400	21.3186
1384	21.129
1368	21.0292
1352	21.251
1336	21.5047
1320	21.876
1304	22.1584
1288	22.1673
1272	22.2345
1256	22.6257
1240	22.6032
1224	22.5385
1208	22.5879
1192	22.653
1176	22.5855
1160	22.7142
1144	22.8936
1128	22.7828
1112	22.6447
1096	22.4631
1080	22.7271
1064	22.5618
1048	22.6897
1032	22.9244
1016	22.9115
1000	22.7402
984	 23.0133
968	 22.7374
952	 22.4044
936	 22.5384
920	 22.6557
904	 22.398
888	 22.0052
872	 22.2747
856	 22.4793
840	 21.9021
824	 22.0382
808	 21.9836
792	 21.7719
776	 21.5914
760	 22.01
744	 21.4669
728	 21.5341
712	 21.2645
696	 20.8783
680	 20.9192
664	 20.4774
648	 20.5364
632	 21.1336
616	 20.2872
600	 20.1918
584	 20.1186
568	 19.4833
552	 19.2157
536	 19.3687
520	 19.1752
504	 18.722
488	 18.3471
472	 19.2194
456	 19.0535
440	 14.4987
424	 12.6537
408	 32.6154
392	 0.319194
376	 -9.809732
370	 -4.255723