File: Bakgrunnsmateriale/MATLAB/FTIR/ftir_data/LPE453/Mapping_121/LPE453_t08_cm-1.asc
PE IR       SPECTRUM    SPECTRUM    ASCII       PEDS        1.60
  -1
LP6759~1.ASC
17/05/16
15:00:19.00
17/05/16
15:00:19.00
tln
$LPE453_t0008$<tbV0>[-5.2,-13.0,8.0,0.0,27,1,0]
370
64

2002,4.07
MIRTGS : RIGHTBACK : INTERNAL 2
MIR : ON : INTERNAL 2
OPTKBR

0.200000
8
8.000000
FILLER
RATIO
SPECTRUM
UNLOCKED 256

DOUBLE
64
COMBINED
1
0
0

1.000000
RATIO

1
0
TRUE
51149
0
LEFT NOT FITTED RIGHT NOT FITTED 0
NONE
NONE
15600
12
4.427000
51148
TRUE
1 0 8 72 0 0 0 0

15798

#HDR
-1
-1
#GR
CM-1
%T
2.38419e-05
0.0
5000
-1.000000
4631
8
38.8246
-2.723741
#DATA
5000	0.135898
4984	-0.194025
4968	-0.088334
4952	0.489544
4936	0.047492
4920	-0.053071
4904	-0.170993
4888	-0.400972
4872	0.332617
4856	0.462412
4840	0.003433
4824	0.094199
4808	0.395226
4792	0.357317
4776	-0.034570
4760	0.094890
4744	0.235676
4728	-0.042963
4712	0.081562
4696	0.215411
4680	0.135827
4664	0.259971
4648	0.313019
4632	0.268840
4616	-0.386428
4600	-0.005388
4584	0.070452
4568	-2.415227
4552	-1.308917
4536	0.291132
4520	7.251048
4504	-2.081251
4488	-0.824832
4472	0.533390
4456	-0.542926
4440	-0.417590
4424	0.043034
4408	-0.347900
4392	-0.061917
4376	0.125408
4360	0.055241
4344	0.007486
4328	0.115299
4312	-0.023722
4296	0.123238
4280	-0.047373
4264	0.513458
4248	-0.063967
4232	-0.241208
4216	0.483298
4200	0.287580
4184	0.560092
4168	-0.217533
4152	-0.088453
4136	0.268006
4120	0.037431
4104	-0.033569
4088	0.165200
4072	0.059890
4056	0.089550
4040	0.003743
4024	0.245237
4008	-0.052380
3992	0.005626
3976	0.036048
3960	0.153613
3944	0.178432
3928	0.036478
3912	-0.019073
3896	0.045037
3880	0.189042
3864	-0.041317
3848	-0.039458
3832	0.104165
3816	0.162029
3800	0.055742
3784	0.102615
3768	-0.039958
3752	0.216174
3736	0.093269
3720	-0.010895
3704	0.021743
3688	-0.037598
3672	-0.002574
3656	-0.052237
3640	0.071620
3624	0.126338
3608	0.075864
3592	0.215840
3576	0.256896
3560	0.044131
3544	-0.021457
3528	-0.028896
3512	-0.119948
3496	-0.011920
3480	0.099205
3464	0.075149
3448	0.149774
3432	0.083422
3416	0.102925
3400	0.054764
3384	0.120592
3368	-0.019311
3352	0.078225
3336	0.109362
3320	0.087070
3304	0.019478
3288	0.037598
3272	0.115108
3256	-0.118541
3240	0.058245
3224	-0.114583
3208	0.061845
3192	0.126171
3176	0.124287
3160	-0.054144
3144	-0.021052
3128	-0.197911
3112	0.116539
3096	-0.015020
3080	0.093436
3064	0.189065
3048	0.064682
3032	0.191569
3016	0.109553
3000	-0.026154
2984	-0.123667
2968	0.003600
2952	0.072121
2936	0.143241
2920	0.052356
2904	0.088977
2888	0.194668
2872	0.064921
2856	0.006127
2840	-0.002574
2824	0.058865
2808	0.047230
2792	0.037717
2776	0.105929
2760	-0.028014
2744	0.186109
2728	-0.005435
2712	0.086927
2696	-0.014519
2680	0.142359
2664	-0.010609
2648	0.059175
2632	0.192332
2616	-0.078773
2600	0.030755
2584	0.206637
2568	-0.010991
2552	-0.120449
2536	0.088095
2520	0.065207
2504	0.095009
2488	0.093460
2472	0.058627
2456	0.063586
2440	0.042390
2424	0.203442
2408	0.005030
2392	0.219154
2376	0.111317
2360	0.161600
2344	0.105881
2328	0.409317
2312	0.420165
2296	0.701522
2280	0.909852
2264	1.321554
2248	1.816773
2232	2.564287
2216	3.332591
2200	4.284858
2184	5.519366
2168	6.927061
2152	8.452510
2136	10.1393
2120	11.9494
2104	13.794
2088	15.6578
2072	16.9733
2056	18.8079
2040	20.559
2024	21.9616
2008	22.9457
1992	24.3668
1976	25.7045
1960	26.1947
1944	26.8991
1928	28.1453
1912	28.6697
1896	28.7072
1880	29.4378
1864	30.2915
1848	30.2224
1832	30.2004
1816	30.8748
1800	31.2072
1784	30.9051
1768	31.013
1752	31.7055
1736	31.5417
1720	30.9843
1704	31.7379
1688	32.1405
1672	31.5376
1656	31.4568
1640	31.9447
1624	32.0243
1608	31.4219
1592	31.3198
1576	32.1605
1560	32.2101
1544	31.52
1528	31.4746
1512	32.1335
1496	31.7611
1480	31.1208
1464	31.681
1448	32.0283
1432	31.4
1416	30.9347
1400	31.551
1384	32.1401
1368	31.3359
1352	30.9354
1336	31.892
1320	31.8206
1304	31.1453
1288	31.1374
1272	31.9048
1256	31.6963
1240	31.0765
1224	31.1334
1208	31.8698
1192	31.5779
1176	30.9131
1160	31.2859
1144	32.0106
1128	31.554
1112	30.8652
1096	31.3308
1080	31.9965
1064	31.6719
1048	30.9468
1032	31.5481
1016	32.2916
1000	31.4058
984	 30.8617
968	 31.7422
952	 31.9779
936	 31.0304
920	 30.7502
904	 31.7631
888	 31.8208
872	 30.887
856	 30.9345
840	 31.7337
824	 31.7041
808	 30.7719
792	 30.7914
776	 31.2708
760	 31.049
744	 30.252
728	 30.0654
712	 30.7955
696	 30.6072
680	 29.3946
664	 29.89
648	 30.4322
632	 29.6801
616	 28.6335
600	 28.8902
584	 28.7987
568	 28.0979
552	 27.4284
536	 27.6162
520	 28.0524
504	 26.7169
488	 25.8304
472	 27.8503
456	 27.8454
440	 25.6479
424	 25.7017
408	 32.1487
392	 19.0244
376	 29.1324
370	 15.1355