File: Bakgrunnsmateriale/MATLAB/FTIR/ftir_data/LPE453/Mapping_121/LPE453_t92_cm-1.asc
PE IR       SPECTRUM    SPECTRUM    ASCII       PEDS        1.60
  -1
LPDB50~1.ASC
17/05/16
21:57:26.00
17/05/16
21:57:26.00
tln
$LPE453_t0092$<tbV0>[5.2,7.8,8.0,0.0,27,1,0]
370
64

2002,4.07
MIRTGS : RIGHTBACK : INTERNAL 2
MIR : ON : INTERNAL 2
OPTKBR

0.200000
8
8.000000
FILLER
RATIO
SPECTRUM
UNLOCKED 256

DOUBLE
64
COMBINED
1
0
0

1.000000
RATIO

1
0
TRUE
51149
0
LEFT NOT FITTED RIGHT NOT FITTED 0
NONE
NONE
15600
12
4.427000
51148
TRUE
1 0 8 72 0 0 0 0

15798

#HDR
-1
-1
#GR
CM-1
%T
2.38419e-05
0.0
5000
-1.000000
4631
8
36.239
-6.209516
#DATA
5000	-0.077843
4984	0.765895
4968	0.111556
4952	0.546789
4936	-0.140547
4920	-0.298571
4904	0.014233
4888	-0.154566
4872	-0.262379
4856	0.488734
4840	-0.111103
4824	0.010251
4808	-0.038886
4792	-0.221681
4776	0.479125
4760	0.645303
4744	0.650906
4728	-0.222992
4712	-0.519657
4696	-0.018954
4680	0.408744
4664	-0.547194
4648	1.055169
4632	0.503087
4616	0.789022
4600	1.600670
4584	0.303840
4568	1.072406
4552	0.061607
4536	-0.166392
4520	-1.046562
4504	5.414009
4488	-6.122112
4472	0.134396
4456	-0.388431
4440	0.261163
4424	0.491738
4408	-0.144267
4392	0.823211
4376	0.297284
4360	0.044584
4344	0.227665
4328	0.267648
4312	0.262117
4296	-0.215673
4280	0.245165
4264	0.192928
4248	0.071573
4232	0.072240
4216	0.122857
4200	0.257730
4184	0.001335
4168	0.017762
4152	0.138735
4136	0.039911
4120	-0.290131
4104	-0.017237
4088	-0.020384
4072	0.093221
4056	-0.017952
4040	-0.061202
4024	0.190901
4008	0.205612
3992	-0.024771
3976	0.062251
3960	0.203204
3944	0.050711
3928	0.022602
3912	0.034141
3896	-0.143265
3880	0.034904
3864	0.037145
3848	0.086212
3832	0.042629
3816	0.073027
3800	0.014376
3784	-0.045585
3768	-0.074529
3752	-0.056362
3736	-0.058436
3720	-0.015616
3704	-0.059127
3688	0.034642
3672	0.137352
3656	0.118923
3640	0.036382
3624	-0.043034
3608	0.097346
3592	0.201725
3576	-0.017356
3560	0.022363
3544	0.060582
3528	0.194382
3512	0.003790
3496	0.092887
3480	-0.073623
3464	0.063943
3448	-0.010180
3432	0.014209
3416	0.260949
3400	0.085330
3384	-0.077366
3368	0.062370
3352	-0.088024
3336	0.122332
3320	0.007104
3304	0.039100
3288	0.068545
3272	0.099730
3256	0.171160
3240	0.044560
3224	0.036811
3208	0.113582
3192	-0.042200
3176	-0.017356
3160	0.198960
3144	0.098371
3128	0.257062
3112	0.012660
3096	0.123333
3080	0.053811
3064	0.003218
3048	-0.019264
3032	-0.044083
3016	0.001645
3000	-0.045371
2984	-0.046062
2968	0.103998
2952	-0.023031
2936	0.097084
2920	0.017213
2904	0.072026
2888	0.068807
2872	0.081253
2856	0.084733
2840	0.050020
2824	0.086021
2808	0.044298
2792	-0.035166
2776	-0.052595
2760	0.058937
2744	0.159621
2728	0.105738
2712	-0.055932
2696	0.138068
2680	0.094819
2664	0.085520
2648	-0.049448
2632	-0.008368
2616	0.001645
2600	0.017094
2584	0.140357
2568	0.091934
2552	0.003075
2536	0.049591
2520	-0.010538
2504	-0.023341
2488	0.025296
2472	0.085783
2456	0.121760
2440	-0.004553
2424	0.010132
2408	-0.031685
2392	0.140643
2376	0.142502
2360	0.132226
2344	0.138139
2328	0.268983
2312	0.349879
2296	0.556159
2280	0.854921
2264	1.349210
2248	1.765942
2232	2.487325
2216	3.428792
2200	4.440331
2184	5.836105
2168	7.296442
2152	9.031772
2136	11.0637
2120	13.1066
2104	15.3355
2088	17.3473
2072	19.493
2056	21.5392
2040	23.1329
2024	24.8126
2008	26.4917
1992	27.6087
1976	28.9498
1960	30.0856
1944	30.8535
1928	31.5753
1912	32.4285
1896	32.9839
1880	33.3594
1864	33.9718
1848	34.4269
1832	34.4674
1816	34.8864
1800	35.3438
1784	35.2557
1768	35.2965
1752	35.6877
1736	35.7512
1720	35.6451
1704	35.9093
1688	36.0729
1672	35.8674
1656	35.7152
1640	36.0882
1624	36.0603
1608	35.7234
1592	35.9833
1576	36.1433
1560	35.9451
1544	35.6895
1528	36.1533
1512	36.0581
1496	35.5125
1480	35.8203
1464	35.8766
1448	35.8177
1432	35.4655
1416	35.7037
1400	35.748
1384	35.3388
1368	35.4659
1352	35.7433
1336	35.5237
1320	35.0765
1304	35.4344
1288	35.4572
1272	35.0158
1256	35.0399
1240	35.3477
1224	35.2654
1208	34.767
1192	35.0115
1176	35.1181
1160	34.6549
1144	34.4947
1128	34.9404
1112	34.6602
1096	33.9972
1080	34.387
1064	34.62
1048	34.2204
1032	33.6831
1016	33.9666
1000	34.036
984	 33.5387
968	 33.3661
952	 33.7678
936	 33.2715
920	 32.6139
904	 32.8277
888	 32.7641
872	 32.3234
856	 32.0215
840	 32.3404
824	 32.0542
808	 31.3565
792	 31.2907
776	 31.4254
760	 30.8546
744	 30.6818
728	 30.6979
712	 29.9271
696	 29.413
680	 29.125
664	 29.348
648	 28.7077
632	 27.7695
616	 27.8785
600	 27.6844
584	 27.3034
568	 26.5131
552	 26.9315
536	 25.7303
520	 25.026
504	 24.8131
488	 24.5
472	 23.2556
456	 22.4178
440	 24.189
424	 20.7079
408	 21.9614
392	 12.9227
376	 17.6781
370	 16.0095