File: Bakgrunnsmateriale/MATLAB/FTIR/ftir_data/LPE453/Mapping_121/LPE453_t87_cm-1.asc
PE IR       SPECTRUM    SPECTRUM    ASCII       PEDS        1.60
  -1
LP6BDB~1.ASC
17/05/16
21:27:55.00
17/05/16
21:27:55.00
tln
$LPE453_t0087$<tbV0>[-10.4,5.2,8.0,0.0,27,1,0]
370
64

2002,4.07
MIRTGS : RIGHTBACK : INTERNAL 2
MIR : ON : INTERNAL 2
OPTKBR

0.200000
8
8.000000
FILLER
RATIO
SPECTRUM
UNLOCKED 256

DOUBLE
64
COMBINED
1
0
0

1.000000
RATIO

1
0
TRUE
51149
0
LEFT NOT FITTED RIGHT NOT FITTED 0
NONE
NONE
15600
12
4.427000
51148
TRUE
1 0 8 72 0 0 0 0

15798

#HDR
-1
-1
#GR
CM-1
%T
2.38419e-05
0.0
5000
-1.000000
4631
8
51.8504
-7.566308
#DATA
5000	-0.188159
4984	0.013279
4968	-0.136709
4952	0.348329
4936	0.507450
4920	0.156354
4904	-0.043749
4888	0.033903
4872	0.311899
4856	0.007200
4840	-0.280666
4824	0.181603
4808	0.241065
4792	0.210642
4776	0.118422
4760	-0.509691
4744	0.232982
4728	0.188279
4712	1.106667
4696	0.168633
4680	0.073599
4664	0.430011
4648	1.111507
4632	0.053834
4616	1.520395
4600	0.812935
4584	1.658415
4568	1.462769
4552	0.394988
4536	0.620937
4520	-0.918483
4504	-1.414489
4488	6.319332
4472	-1.104617
4456	0.394773
4440	-0.483870
4424	0.206255
4408	-0.140571
4392	0.114774
4376	0.508904
4360	0.238513
4344	0.054383
4328	0.490784
4312	0.499296
4296	-0.035429
4280	0.034904
4264	-0.141668
4248	0.097084
4232	0.180506
4216	0.191807
4200	0.075435
4184	-0.154733
4168	0.270485
4152	-0.019121
4136	0.163912
4120	-0.008249
4104	0.084185
4088	0.256466
4072	0.028991
4056	-0.125694
4040	0.011634
4024	0.041341
4008	0.130558
3992	0.033593
3976	0.015783
3960	0.167989
3944	0.077795
3928	0.074028
3912	0.093317
3896	0.056862
3880	-0.097870
3864	0.170326
3848	0.023865
3832	0.165724
3816	-0.037455
3800	-0.040054
3784	0.181746
3768	0.030589
3752	0.136828
3736	0.047397
3720	0.146317
3704	0.002121
3688	-0.071525
3672	-0.019836
3656	0.160598
3640	0.147414
3624	0.100874
3608	0.053811
3592	0.142550
3576	0.030183
3560	0.112605
3544	0.254058
3528	0.134682
3512	0.117802
3496	0.060820
3480	-0.020098
3464	0.100207
3448	0.072813
3432	0.145244
3416	0.041675
3400	0.139689
3384	-0.000739
3368	-0.048279
3352	-0.082969
3336	0.114607
3320	-0.029087
3304	-0.010228
3288	0.219273
3272	0.000500
3256	0.064039
3240	0.045895
3224	0.030899
3208	0.008416
3192	0.111532
3176	0.027322
3160	0.055718
3144	0.033903
3128	0.026035
3112	0.094032
3096	0.023126
3080	0.128650
3064	0.029993
3048	0.020432
3032	-0.022792
3016	-0.025558
3000	0.118231
2984	0.188231
2968	0.027966
2952	0.058197
2936	0.156569
2920	0.090050
2904	0.053715
2888	-0.023674
2872	-0.119423
2856	-0.014519
2840	-0.086736
2824	0.012946
2808	0.022196
2792	0.037121
2776	0.183415
2760	0.091218
2744	0.041532
2728	-0.127005
2712	0.046277
2696	0.003957
2680	0.070524
2664	0.133609
2648	0.073337
2632	0.095176
2616	-0.001525
2600	0.036907
2584	-0.041222
2568	0.040984
2552	-0.026965
2536	0.034856
2520	0.053000
2504	0.127911
2488	-0.084352
2472	-0.008368
2456	0.089192
2440	0.032782
2424	0.294613
2408	0.135207
2392	-0.004863
2376	0.045037
2360	0.116229
2344	0.154829
2328	0.308966
2312	0.416374
2296	0.564432
2280	0.827288
2264	1.234912
2248	1.676297
2232	2.445650
2216	3.288078
2200	4.274106
2184	5.470705
2168	6.951069
2152	8.743453
2136	10.5885
2120	12.2015
2104	14.3557
2088	16.2658
2072	18.0844
2056	19.9743
2040	21.848
2024	23.337
2008	24.83
1992	26.1846
1976	27.2439
1960	28.2521
1944	29.2197
1928	29.9252
1912	30.5771
1896	31.2198
1880	31.626
1864	32.0702
1848	32.449
1832	32.8288
1816	32.9579
1800	33.1733
1784	33.4039
1768	33.5963
1752	33.5415
1736	33.5771
1720	33.8283
1704	33.6998
1688	33.8413
1672	33.9
1656	33.9166
1640	33.8297
1624	33.9427
1608	33.9864
1592	33.9223
1576	33.7656
1560	34.0483
1544	33.984
1528	33.7557
1512	33.7876
1496	33.7436
1480	33.5885
1464	33.5745
1448	33.5553
1432	33.6458
1416	33.6327
1400	33.3336
1384	33.7203
1368	33.5287
1352	33.253
1336	33.5082
1320	33.5574
1304	33.3176
1288	33.031
1272	33.4099
1256	33.4918
1240	33.1921
1224	33.0756
1208	33.4836
1192	33.2268
1176	32.8657
1160	33.0355
1144	33.1919
1128	32.8346
1112	32.6476
1096	33.0258
1080	33.0415
1064	32.5295
1048	32.568
1032	32.8742
1016	32.4064
1000	32.0571
984	 32.3148
968	 32.5788
952	 31.9789
936	 31.6619
920	 32.12
904	 32.1842
888	 31.2289
872	 31.2236
856	 31.5789
840	 31.375
824	 30.6459
808	 30.6359
792	 31.2384
776	 30.4666
760	 29.6833
744	 30.0111
728	 30.3877
712	 29.2114
696	 29.3638
680	 29.2713
664	 29.2812
648	 28.2881
632	 28.0888
616	 28.551
600	 27.5129
584	 27.2178
568	 27.1937
552	 27.1961
536	 25.9828
520	 25.9651
504	 25.5921
488	 25.5755
472	 23.8193
456	 24.1069
440	 25.3065
424	 23.8155
408	 25.269
392	 29.9511
376	 42.7246
370	 51.8504