File: Bakgrunnsmateriale/MATLAB/FTIR/ftir_data/LPE453/Mapping_121/LPE453_t111.asc
PE IR       SPECTRUM    SPECTRUM    ASCII       PEDS        1.60
  -1
LP9778~1.ASC
17/05/16
23:31:51.00
17/05/16
23:32:18.00
tln
$LPE453_t0111$<tbV0>[13.0,13.0,8.0,0.0,27,1,0]
27.028
64

2002,4.07
MIRTGS : RIGHTBACK : INTERNAL 2
MIR : ON : INTERNAL 2
OPTKBR

0.200000
8
8.000000
FILLER
RATIO
SPECTRUM
UNLOCKED 256

DOUBLE
64
COMBINED
1
0
0

0.002000
RATIO

1
0
TRUE
51149
0
LEFT NOT FITTED RIGHT NOT FITTED 0
NONE
NONE
15600
12
4.427000
51148
TRUE
1 0 8 72 0 0 0 0

15798

#HDR
-1
-1
#GR
µM
%T
2.38419e-05
0.0
2.000000
0.002000
12515
8
19.741
-6.063604
#DATA
2.000000	 -0.153827
2.084000	 0.418221
2.168000	 0.013509
2.252000	 -0.597435
2.336000	 0.079335
2.420000	 0.104724
2.504000	 -0.360725
2.588000	 -0.172549
2.672000	 -0.072773
2.756000	 0.069944
2.840000	 0.125398
2.924000	 0.071572
3.008000	 -0.032923
3.092000	 0.037288
3.176000	 0.035211
3.260000	 0.041353
3.344000	 0.009733
3.428000	 0.144329
3.512000	 -0.054308
3.596000	 -0.035850
3.680000	 -0.003834
3.764000	 0.028841
3.848000	 0.028223
3.932000	 -0.054950
4.016000	 0.105053
4.100000	 0.052160
4.184000	 0.041953
4.268000	 -0.032194
4.352000	 -0.018043
4.436000	 0.103701
4.520000	 0.445906
4.604000	 1.287946
4.688000	 2.730010
4.772000	 4.730860
4.856000	 7.086703
4.940000	 9.361014
5.024000	 11.2726
5.108000	 13.0036
5.192000	 14.3381
5.276000	 15.6839
5.359999	 16.5027
5.444000	 17.0993
5.528000	 17.7308
5.612000	 18.1509
5.696000	 18.4786
5.780000	 18.7426
5.864000	 18.8671
5.948000	 19.2011
6.032000	 19.2813
6.116000	 19.4445
6.200000	 19.4336
6.284000	 19.4868
6.368000	 19.6819
6.452000	 19.6419
6.536000	 19.6298
6.620000	 19.6979
6.704000	 19.4914
6.788000	 19.4245
6.872000	 19.6464
6.956000	 19.6503
7.040000	 19.5761
7.124000	 19.515
7.208000	 19.4281
7.292000	 19.4134
7.376000	 19.441
7.460000	 19.4178
7.544000	 19.353
7.628000	 19.2346
7.712000	 19.1292
7.796000	 19.0294
7.880000	 19.0323
7.964000	 18.9241
8.048000	 18.6333
8.132000	 18.5127
8.216000	 18.5426
8.300000	 18.5894
8.384000	 18.3811
8.468000	 18.335
8.552000	 18.1623
8.635999	 18.2541
8.719999	 18.1462
8.804000	 18.1232
8.888000	 17.9431
8.972000	 17.6793
9.056000	 17.7952
9.140000	 17.5664
9.224000	 17.4162
9.308000	 17.2359
9.391999	 17.3006
9.475999	 17.1244
9.560000	 17.1616
9.644000	 16.9753
9.728000	 16.8986
9.812000	 16.7408
9.896000	 16.7094
9.980000	 16.6387
10.064	16.6758
10.148	16.466
10.232	16.2881
10.316	16.174
10.4	16.2294
10.484	16.077
10.568	15.9875
10.652	16.0123
10.736	15.9175
10.82	15.8447
10.904	15.7
10.988	15.465
11.072	15.454
11.156	15.3814
11.24	15.4001
11.324	15.3937
11.408	15.1541
11.492	14.91
11.576	14.8217
11.66	14.8295
11.744	14.7977
11.828	14.8364
11.912	14.7589
11.996	14.5153
12.08	14.4164
12.164	14.4538
12.248	14.6634
12.332	14.2829
12.416	14.1365
12.5	14.1944
12.584	14.0283
12.668	14.0438
12.752	13.9776
12.836	13.8749
12.92	13.7498
13.004	13.4799
13.088	13.4406
13.172	13.563
13.256	13.494
13.34	13.375
13.424	13.2968
13.508	13.202
13.592	13.1342
13.676	13.1494
13.76	13.1266
13.844	13.0266
13.928	12.8677
14.012	12.8073
14.096	12.7823
14.18	12.6945
14.264	12.7291
14.348	12.8244
14.432	12.6995
14.516	12.44
14.6	12.3016
14.684	12.2911
14.768	12.2607
14.852	12.1033
14.936	11.8741
15.02	11.664
15.104	11.4954
15.188	11.4199
15.272	11.445
15.356	11.487
15.44	11.4609
15.524	11.3024
15.608	11.0839
15.692	11.0069
15.776	11.1026
15.86	11.2039
15.944	11.2188
16.028	11.214
16.112	11.2498
16.196	11.2779
16.28	11.2147
16.364	11.0453
16.448	10.8593
16.532	10.7701
16.616	10.7538
16.7	10.6752
16.784	10.5116
16.868	10.3807
16.952	10.3471
17.036	10.3513
17.12	10.3082
17.204	10.2037
17.288	10.1229
17.372	10.1664
17.456	10.3106
17.54	10.4217
17.624	10.4151
17.708	10.3171
17.792	10.1925
17.876	10.1094
17.96	10.1139
18.044	10.1395
18.128	10.0155
18.212	9.682671
18.296	9.312148
18.38	9.116309
18.464	9.128885
18.548	9.236320
18.632	9.336147
18.716	9.374602
18.8	9.301110
18.884	9.107180
18.968	8.881449
19.052	8.747166
19.136	8.751131
19.22	8.846135
19.304	8.967715
19.388	9.091020
19.472	9.216841
19.556	9.333272
19.64	9.407496
19.724	9.398745
19.808	9.286710
19.892	9.099409
19.976	8.897182
20.06	8.724715
20.144	8.583858
20.228	8.457124
20.312	8.346880
20.396	8.278769
20.48	8.276825
20.564	8.339611
20.648	8.444923
20.732	8.561609
20.816	8.652418
20.9	8.671528
20.984	8.589465
21.068	8.424402
21.152	8.245197
21.236	8.129746
21.32	8.106191
21.404	8.130885
21.488	8.129214
21.572	8.062381
21.656	7.966916
21.74	7.918935
21.824	7.960096
21.908	8.044748
21.992	8.074365
22.076	7.978424
22.16	7.765460
22.244	7.521600
22.328	7.337503
22.412	7.253667
22.496	7.245131
22.58	7.255128
22.664	7.235306
22.748	7.161056
22.832	7.016682
22.916	6.782395
23	6.459267
23.084	6.059176
23.168	5.613156
23.252	5.155557
23.336	4.701793
23.42	4.255080
23.504	3.840186
23.588	3.498981
23.672	3.279475
23.756	3.232157
23.84	3.364890
23.924	3.648276
24.008	4.030633
24.092	4.448761
24.176	4.836046
24.26	5.106349
24.344	5.137415
24.428	4.789390
24.512	3.902240
24.596	2.389850
24.68	0.326405
24.764	-1.999872
24.848	-4.167567
24.932	-5.656285
25.016	-6.039076
25.1	-5.147200
25.184	-3.046336
25.268	-0.032162
25.352	3.451721
25.436	6.855246
25.52	9.659209
25.604	11.4975
25.688	12.2392
25.772	12.0437
25.856	11.2763
25.94	10.4065
26.024	9.855021
26.108	9.833159
26.192	10.3701
26.276	11.334
26.36	12.5302
26.444	13.6691
26.528	14.4055
26.612	14.3658
26.696	13.2539
26.78	10.9599
26.864	7.663076
26.948	3.770601
27.028	-0.041055