File: Bakgrunnsmateriale/MATLAB/FTIR/ftir_data/LPE453/Mapping_121/LPE453_t54_cm-1.asc
PE IR       SPECTRUM    SPECTRUM    ASCII       PEDS        1.60
  -1
LPE95B~1.ASC
17/05/16
18:47:47.00
17/05/16
18:47:47.00
tln
$LPE453_t0054$<tbV0>[-10.4,-2.6,8.0,0.0,27,1,0]
370
64

2002,4.07
MIRTGS : RIGHTBACK : INTERNAL 2
MIR : ON : INTERNAL 2
OPTKBR

0.200000
8
8.000000
FILLER
RATIO
SPECTRUM
UNLOCKED 256

DOUBLE
64
COMBINED
1
0
0

1.000000
RATIO

1
0
TRUE
51149
0
LEFT NOT FITTED RIGHT NOT FITTED 0
NONE
NONE
15600
12
4.427000
51148
TRUE
1 0 8 72 0 0 0 0

15798

#HDR
-1
-1
#GR
CM-1
%T
2.38419e-05
0.0
5000
-1.000000
4631
8
32.3924
-39.9492
#DATA
5000	0.153374
4984	0.129485
4968	-0.136947
4952	0.239157
4936	0.066947
4920	0.183486
4904	0.049233
4888	0.063681
4872	0.478601
4856	-0.075912
4840	-0.094532
4824	-0.450372
4808	-0.143694
4792	-0.082159
4776	-0.361990
4760	0.225472
4744	0.340676
4728	0.078964
4712	-0.033903
4696	0.510787
4680	-0.598597
4664	0.378489
4648	1.161384
4632	0.988030
4616	1.057147
4600	1.539516
4584	0.306153
4568	-0.732421
4552	-0.616979
4536	-0.654101
4520	-2.727794
4504	7.457733
4488	20.3019
4472	-0.774788
4456	-0.439739
4440	-0.435757
4424	-0.628352
4408	-0.106549
4392	0.228333
4376	0.719594
4360	-0.163674
4344	0.733447
4328	0.169157
4312	0.149345
4296	0.089669
4280	0.303649
4264	0.291609
4248	0.062799
4232	0.242519
4216	0.140094
4200	0.016117
4184	0.354003
4168	0.472521
4152	0.113677
4136	0.240254
4120	-0.062465
4104	-0.062775
4088	-0.090050
4072	0.114393
4056	-0.039649
4040	0.151610
4024	-0.082445
4008	0.272655
3992	0.058722
3976	0.037860
3960	0.023221
3944	0.204324
3928	0.115680
3912	-0.074887
3896	0.124716
3880	0.009107
3864	0.090265
3848	0.192022
3832	0.097227
3816	-0.037813
3800	0.107336
3784	0.029206
3768	0.050759
3752	-0.118279
3736	-0.067734
3720	-0.025939
3704	-0.129866
3688	0.063204
3672	0.030660
3656	0.140881
3640	0.033783
3624	0.217247
3608	0.084757
3592	-0.122928
3576	-0.053024
3560	0.007987
3544	0.000071
3528	-0.056910
3512	0.115656
3496	0.270509
3480	-0.116968
3464	0.044894
3448	-0.076794
3432	0.102376
3416	0.118708
3400	0.191569
3384	-0.001502
3368	0.143718
3352	-0.022053
3336	0.051236
3320	0.171041
3304	0.125288
3288	0.031471
3272	-0.036454
3256	-0.004673
3240	0.014734
3224	0.098872
3208	0.182461
3192	0.015187
3176	-0.037670
3160	0.071430
3144	0.108432
3128	0.021481
3112	0.148344
3096	0.039672
3080	-0.038743
3064	-0.012087
3048	-0.057053
3032	0.012493
3016	0.124812
3000	-0.068855
2984	-0.022411
2968	-0.068473
2952	0.054907
2936	0.201082
2920	0.083613
2904	0.150823
2888	-0.034785
2872	0.076341
2856	0.022387
2840	0.044083
2824	0.064349
2808	-0.008440
2792	0.007390
2776	-0.058507
2760	0.058412
2744	0.006818
2728	0.022983
2712	0.092625
2696	0.041580
2680	0.042247
2664	-0.033259
2648	0.005650
2632	0.082039
2616	-0.081777
2600	0.037813
2584	0.029063
2568	0.023007
2552	0.096797
2536	0.083994
2520	0.109863
2504	0.148391
2488	0.163865
2472	0.101566
2456	-0.037884
2440	-0.014805
2424	0.129818
2408	-0.148510
2392	-0.030541
2376	0.029706
2360	0.055456
2344	0.088572
2328	0.142240
2312	0.192451
2296	0.409746
2280	0.491738
2264	0.536727
2248	0.981903
2232	1.468658
2216	2.217817
2200	2.908778
2184	3.930330
2168	5.275034
2152	6.553983
2136	8.246922
2120	9.966874
2104	11.8946
2088	13.6804
2072	15.5251
2056	17.2512
2040	19.3118
2024	20.8029
2008	22.5507
1992	23.6655
1976	24.8494
1960	26.1314
1944	26.9175
1928	27.7408
1912	28.6159
1896	29.046
1880	29.6092
1864	30.2358
1848	30.3583
1832	30.7382
1816	31.2584
1800	31.1861
1784	31.4779
1768	31.7773
1752	31.6962
1736	31.8171
1720	32.187
1704	32.0864
1688	32.0566
1672	32.3124
1656	32.0732
1640	32.0109
1624	32.3159
1608	32.1771
1592	32.0288
1576	32.3699
1560	32.1487
1544	31.9751
1528	32.1881
1512	32.2056
1496	31.8684
1480	31.9468
1464	32.1798
1448	31.6776
1432	31.8038
1416	31.9368
1400	31.6762
1384	31.5011
1368	31.766
1352	31.5125
1336	31.4436
1320	31.7298
1304	31.4499
1288	31.0079
1272	31.6962
1256	31.4762
1240	30.9349
1224	31.3221
1208	31.2366
1192	30.7882
1176	30.9715
1160	31.1161
1144	30.5429
1128	30.786
1112	30.8392
1096	30.4922
1080	30.4171
1064	30.602
1048	30.0089
1032	30.0214
1016	29.7822
1000	30.008
984	 29.6305
968	 29.7412
952	 29.5635
936	 29.0775
920	 29.0742
904	 29.38
888	 28.5887
872	 28.441
856	 28.6241
840	 28.039
824	 27.6387
808	 28.174
792	 27.6677
776	 27.1067
760	 27.3322
744	 26.4997
728	 26.0797
712	 26.3535
696	 26.6829
680	 25.567
664	 25.2847
648	 25.4978
632	 24.5785
616	 23.9293
600	 24.1888
584	 23.6078
568	 22.9051
552	 22.6094
536	 22.2437
520	 22.1426
504	 21.7524
488	 22.037
472	 20.4053
456	 19.3759
440	 19.056
424	 18.9726
408	 18.5811
392	 13.876
376	 4.505181
370	 -39.9492