File: Bakgrunnsmateriale/MATLAB/FTIR/ftir_data/LPE453/Mapping_121/LPE453_t90.asc
PE IR       SPECTRUM    SPECTRUM    ASCII       PEDS        1.60
  -1
LPC7B9~1.ASC
17/05/16
21:48:13.00
17/05/16
21:48:39.00
tln
$LPE453_t0090$<tbV0>[10.4,7.8,8.0,0.0,27,1,0]
27.028
64

2002,4.07
MIRTGS : RIGHTBACK : INTERNAL 2
MIR : ON : INTERNAL 2
OPTKBR

0.200000
8
8.000000
FILLER
RATIO
SPECTRUM
UNLOCKED 256

DOUBLE
64
COMBINED
1
0
0

0.002000
RATIO

1
0
TRUE
51149
0
LEFT NOT FITTED RIGHT NOT FITTED 0
NONE
NONE
15600
12
4.427000
51148
TRUE
1 0 8 72 0 0 0 0

15798

#HDR
-1
-1
#GR
µM
%T
2.38419e-05
0.0
2.000000
0.002000
12515
8
33.5304
-5.198629
#DATA
2.000000	 0.354862
2.084000	 0.203784
2.168000	 -0.141619
2.252000	 0.358559
2.336000	 -0.153251
2.420000	 0.229005
2.504000	 -0.068733
2.588000	 0.027621
2.672000	 0.036582
2.756000	 0.082850
2.840000	 0.111661
2.924000	 0.114886
3.008000	 0.018101
3.092000	 0.124729
3.176000	 0.090006
3.260000	 0.074374
3.344000	 0.030207
3.428000	 -0.075405
3.512000	 0.028843
3.596000	 -0.013801
3.680000	 0.081371
3.764000	 0.088933
3.848000	 -0.030961
3.932000	 -0.065034
4.016000	 -0.030366
4.100000	 0.007232
4.184000	 -0.017367
4.268000	 0.019147
4.352000	 0.307845
4.436000	 0.491266
4.520000	 1.521183
4.604000	 3.137165
4.688000	 5.742463
4.772000	 8.574046
4.856000	 11.7731
4.940000	 14.3007
5.024000	 16.28
5.108000	 18.3034
5.192000	 19.5896
5.276000	 20.7292
5.359999	 21.658
5.444000	 22.3249
5.528000	 22.8588
5.612000	 23.1494
5.696000	 23.5922
5.780000	 23.915
5.864000	 24.11
5.948000	 24.3228
6.032000	 24.4653
6.116000	 24.7131
6.200000	 24.7172
6.284000	 25.0829
6.368000	 25.1366
6.452000	 25.3038
6.536000	 25.3163
6.620000	 25.471
6.704000	 25.535
6.788000	 25.704
6.872000	 25.7435
6.956000	 26.153
7.040000	 25.9357
7.124000	 26.192
7.208000	 26.2634
7.292000	 26.3832
7.376000	 26.3401
7.460000	 26.3996
7.544000	 26.5103
7.628000	 26.49
7.712000	 26.6161
7.796000	 26.7364
7.880000	 26.7323
7.964000	 26.7554
8.048000	 26.883
8.132000	 27.0785
8.216000	 26.9751
8.300000	 26.9994
8.384000	 27.0642
8.468000	 27.1764
8.552000	 27.2616
8.635999	 27.0748
8.719999	 27.2943
8.804000	 27.4598
8.888000	 27.4554
8.972000	 27.4075
9.056000	 27.3843
9.140000	 27.4317
9.224000	 27.6906
9.308000	 27.5846
9.391999	 27.4617
9.475999	 27.4881
9.560000	 27.3918
9.644000	 27.4403
9.728000	 27.552
9.812000	 27.574
9.896000	 27.5056
9.980000	 27.4555
10.064	27.5073
10.148	27.5632
10.232	27.6862
10.316	27.5382
10.4	27.4038
10.484	27.3493
10.568	27.2043
10.652	27.4662
10.736	27.2878
10.82	27.2058
10.904	27.244
10.988	27.2566
11.072	27.0702
11.156	26.8766
11.24	27.0341
11.324	27.0712
11.408	27.2232
11.492	27.0596
11.576	27.0358
11.66	26.9396
11.744	26.7531
11.828	26.6647
11.912	26.7239
11.996	26.643
12.08	26.6055
12.164	26.8254
12.248	26.9964
12.332	26.6767
12.416	26.4665
12.5	26.542
12.584	26.4231
12.668	26.2315
12.752	26.3282
12.836	26.4931
12.92	26.3868
13.004	26.2587
13.088	26.2352
13.172	26.2072
13.256	26.0693
13.34	25.689
13.424	25.4542
13.508	25.3655
13.592	25.4068
13.676	25.6598
13.76	25.8324
13.844	25.7064
13.928	25.5742
14.012	25.5764
14.096	25.3703
14.18	24.9997
14.264	24.8021
14.348	24.876
14.432	25.0375
14.516	25.0375
14.6	24.8833
14.684	24.8268
14.768	24.8834
14.852	24.8922
14.936	24.9374
15.02	25.0542
15.104	25.0576
15.188	24.8605
15.272	24.6005
15.356	24.4595
15.44	24.4015
15.524	24.3235
15.608	24.2561
15.692	24.1998
15.776	24.1237
15.86	24.0304
15.944	23.8932
16.028	23.7541
16.112	23.725
16.196	23.7799
16.28	23.7754
16.364	23.7049
16.448	23.735
16.532	23.8768
16.616	23.9077
16.7	23.7054
16.784	23.3686
16.868	23.0151
16.952	22.7207
17.036	22.581
17.12	22.6231
17.204	22.7355
17.288	22.7789
17.372	22.7016
17.456	22.5495
17.54	22.4336
17.624	22.4524
17.708	22.5761
17.792	22.6592
17.876	22.6017
17.96	22.4555
18.044	22.3336
18.128	22.2866
18.212	22.2879
18.296	22.2969
18.38	22.2869
18.464	22.2127
18.548	22.0205
18.632	21.7254
18.716	21.4437
18.8	21.2965
18.884	21.2807
18.968	21.2833
19.052	21.2311
19.136	21.1656
19.22	21.1734
19.304	21.2742
19.388	21.3879
19.472	21.3925
19.556	21.2263
19.64	20.9423
19.724	20.6592
19.808	20.464
19.892	20.359
19.976	20.2973
20.06	20.2531
20.144	20.2486
20.228	20.3174
20.312	20.4471
20.396	20.5677
20.48	20.588
20.564	20.4562
20.648	20.2001
20.732	19.9136
20.816	19.697
20.9	19.5935
20.984	19.5682
21.068	19.5517
21.152	19.5035
21.236	19.4488
21.32	19.4616
21.404	19.5968
21.488	19.8368
21.572	20.0931
21.656	20.2695
21.74	20.3198
21.824	20.2659
21.908	20.1696
21.992	20.0804
22.076	20.0137
22.16	19.9615
22.244	19.9158
22.328	19.8722
22.412	19.817
22.496	19.7174
22.58	19.5488
22.664	19.3137
22.748	19.04
22.832	18.7536
22.916	18.4582
23	18.1437
23.084	17.8206
23.168	17.5399
23.252	17.3677
23.336	17.3455
23.42	17.4536
23.504	17.599
23.588	17.6596
23.672	17.5533
23.756	17.2753
23.84	16.8737
23.924	16.4303
24.008	16.0041
24.092	15.6028
24.176	15.2194
24.26	14.8547
24.344	14.5421
24.428	14.3498
24.512	14.3698
24.596	14.6659
24.68	15.1952
24.764	15.7698
24.848	16.1384
24.932	16.0437
25.016	15.3593
25.1	14.1663
25.184	12.7305
25.268	11.4231
25.352	10.6158
25.436	10.6235
25.52	11.6108
25.604	13.5673
25.688	16.2604
25.772	19.2299
25.856	21.9017
25.94	23.7916
26.024	24.6007
26.108	24.2958
26.192	23.1274
26.276	21.5614
26.36	20.1837
26.444	19.5026
26.528	19.808
26.612	21.1217
26.696	23.2474
26.78	25.8596
26.864	28.6287
26.948	31.2995
27.028	33.5304