File: Bakgrunnsmateriale/MATLAB/FTIR/ftir_data/LPE453/Mapping_121/LPE453_t06_cm-1.asc
PE IR       SPECTRUM    SPECTRUM    ASCII       PEDS        1.60
  -1
LP675A~1.ASC
17/05/16
14:51:05.00
17/05/16
14:51:05.00
tln
$LPE453_t0006$<tbV0>[0.0,-13.0,8.0,0.0,27,1,0]
370
64

2002,4.07
MIRTGS : RIGHTBACK : INTERNAL 2
MIR : ON : INTERNAL 2
OPTKBR

0.200000
8
8.000000
FILLER
RATIO
SPECTRUM
UNLOCKED 256

DOUBLE
64
COMBINED
1
0
0

1.000000
RATIO

1
0
TRUE
51149
0
LEFT NOT FITTED RIGHT NOT FITTED 0
NONE
NONE
15600
12
4.427000
51148
TRUE
1 0 8 72 0 0 0 0

15798

#HDR
-1
-1
#GR
CM-1
%T
2.38419e-05
0.0
5000
-1.000000
4631
8
46.8937
-2.580738
#DATA
5000	0.217509
4984	0.431132
4968	0.166916
4952	-0.388431
4936	0.472640
4920	0.061058
4904	0.115537
4888	0.582289
4872	0.604128
4856	0.390553
4840	0.185322
4824	0.458312
4808	0.600147
4792	0.433135
4776	0.192236
4760	0.300860
4744	0.005054
4728	-0.164341
4712	0.027704
4696	0.566411
4680	0.322341
4664	0.672125
4648	0.584435
4632	0.782942
4616	1.492762
4600	0.161242
4584	-0.513768
4568	-0.079560
4552	-2.580738
4536	-0.910115
4520	10.6464
4504	5.429530
4488	-0.036096
4472	-0.218439
4456	-0.126886
4440	-0.523161
4424	-0.236463
4408	0.265598
4392	1.032638
4376	0.598692
4360	0.256347
4344	0.546145
4328	0.152611
4312	0.239801
4296	-0.067901
4280	-0.117540
4264	0.168871
4248	0.073742
4232	0.435209
4216	0.229620
4200	0.026702
4184	-0.023174
4168	-0.108718
4152	0.171136
4136	-0.062036
4120	0.053501
4104	-0.036120
4088	0.126743
4072	0.132417
4056	0.135231
4040	0.184440
4024	0.098800
4008	0.326800
3992	-0.003218
3976	0.428843
3960	0.293493
3944	0.138020
3928	0.364422
3912	0.202298
3896	0.164341
3880	-0.053358
3864	-0.179576
3848	-0.055909
3832	0.178313
3816	0.150942
3800	0.165009
3784	0.074982
3768	0.111365
3752	0.094652
3736	-0.005984
3720	0.169324
3704	0.151062
3688	0.065922
3672	-0.114774
3656	0.075721
3640	0.126171
3624	-0.068211
3608	0.026607
3592	0.009012
3576	0.030422
3560	-0.195813
3544	0.033688
3528	0.152182
3512	0.056815
3496	-0.030565
3480	0.134897
3464	-0.146245
3448	0.088596
3432	-0.009369
3416	0.280356
3400	0.067782
3384	0.088667
3368	0.038456
3352	0.095510
3336	0.040721
3320	-0.078845
3304	0.107264
3288	-0.048804
3272	-0.019931
3256	0.074100
3240	0.153064
3224	0.070977
3208	0.030183
3192	0.029134
3176	0.143051
3160	-0.134253
3144	0.120043
3128	-0.219202
3112	0.108933
3096	0.008845
3080	0.028610
3064	0.000286
3048	0.318074
3032	-0.017380
3016	-0.008296
3000	-0.122380
2984	0.040721
2968	-0.079560
2952	0.160980
2936	-0.030517
2920	0.095534
2904	0.149798
2888	0.051665
2872	0.195622
2856	0.215458
2840	0.129008
2824	0.051522
2808	0.173902
2792	-0.006556
2776	0.072646
2760	0.041866
2744	0.016617
2728	0.081706
2712	0.041151
2696	0.071573
2680	0.045108
2664	0.000739
2648	0.106072
2632	-0.057268
2616	0.066781
2600	-0.002741
2584	0.022363
2568	-0.022172
2552	0.008845
2536	0.080585
2520	-0.002288
2504	0.160169
2488	0.072169
2472	0.056552
2456	0.068068
2440	0.023841
2424	-0.102877
2408	0.221395
2392	-0.074958
2376	0.058674
2360	0.044131
2344	0.046443
2328	0.115704
2312	0.418066
2296	0.428342
2280	0.630831
2264	0.888252
2248	1.408982
2232	1.953935
2216	2.840542
2200	3.642344
2184	4.839658
2168	6.634044
2152	8.076095
2136	9.907555
2120	11.8355
2104	13.9055
2088	15.9061
2072	17.8103
2056	19.9136
2040	21.7098
2024	23.4994
2008	25.16
1992	26.5011
1976	27.6509
1960	28.8007
1944	29.8449
1928	30.7431
1912	31.4006
1896	32.0632
1880	32.6256
1864	33.1374
1848	33.5979
1832	33.8618
1816	34.0738
1800	34.5148
1784	34.6249
1768	34.8084
1752	34.7664
1736	35.0313
1720	35.051
1704	35.1576
1688	35.181
1672	35.3127
1656	35.438
1640	35.2401
1624	35.2595
1608	35.3044
1592	35.1324
1576	35.272
1560	35.6265
1544	35.3097
1528	35.1038
1512	35.1349
1496	34.9795
1480	34.9124
1464	34.9846
1448	34.8584
1432	34.8881
1416	34.8964
1400	34.7353
1384	34.7689
1368	34.4321
1352	34.5035
1336	34.6734
1320	34.3966
1304	34.1284
1288	34.3627
1272	34.2502
1256	34.0506
1240	34.0469
1224	34.197
1208	34.0668
1192	33.845
1176	33.8194
1160	33.9033
1144	33.7254
1128	33.599
1112	33.5702
1096	33.3123
1080	33.2146
1064	33.4683
1048	33.2615
1032	33.0933
1016	32.8276
1000	32.97
984	 32.7822
968	 32.5715
952	 32.4804
936	 32.4377
920	 32.2737
904	 31.9859
888	 31.6381
872	 31.7692
856	 31.3887
840	 31.2204
824	 31.4079
808	 30.8805
792	 30.5684
776	 30.5346
760	 30.4795
744	 30.3068
728	 29.5583
712	 29.7161
696	 29.4035
680	 28.9497
664	 28.5854
648	 28.8954
632	 28.2595
616	 27.5898
600	 27.371
584	 27.0138
568	 26.5529
552	 26.0805
536	 25.8253
520	 25.2795
504	 24.6191
488	 24.6378
472	 24.387
456	 23.8145
440	 21.3165
424	 20.5507
408	 23.2571
392	 17.0981
376	 34.1381
370	 18.9743