File: Bakgrunnsmateriale/MATLAB/FTIR/ftir_data/LPE453/Mapping_121/LPE453_t03_cm-1.asc
PE IR       SPECTRUM    SPECTRUM    ASCII       PEDS        1.60
  -1
LP57D0~1.ASC
17/05/16
14:37:15.00
17/05/16
14:37:15.00
tln
$LPE453_t0003$<tbV0>[7.8,-13.0,8.0,0.0,27,1,0]
370
64

2002,4.07
MIRTGS : RIGHTBACK : INTERNAL 2
MIR : ON : INTERNAL 2
OPTKBR

0.200000
8
8.000000
FILLER
RATIO
SPECTRUM
UNLOCKED 256

DOUBLE
64
COMBINED
1
0
0

1.000000
RATIO

1
0
TRUE
51149
0
LEFT NOT FITTED RIGHT NOT FITTED 0
NONE
NONE
15600
12
4.427000
51148
TRUE
1 0 8 72 0 0 0 0

15798

#HDR
-1
-1
#GR
CM-1
%T
2.38419e-05
0.0
5000
-1.000000
4631
8
34.7463
-4.759025
#DATA
5000	0.348305
4984	0.305342
4968	-0.111317
4952	0.090122
4936	0.112438
4920	0.230836
4904	-0.214838
4888	0.092649
4872	-0.393819
4856	0.558090
4840	0.642061
4824	-0.018167
4808	0.754785
4792	0.336766
4776	0.111508
4760	0.347876
4744	-0.195264
4728	-0.241994
4712	0.219821
4696	-0.547695
4680	0.161075
4664	-1.127910
4648	1.367568
4632	0.404334
4616	-0.485634
4600	0.017833
4584	-0.137519
4568	-0.165653
4552	-1.341938
4536	-0.872683
4520	-0.593185
4504	0.782179
4488	32.1627
4472	-1.030182
4456	-0.169634
4440	-0.521564
4424	-0.035548
4408	-0.086212
4392	0.270915
4376	0.835347
4360	0.416064
4344	0.481152
4328	-0.059723
4312	0.148773
4296	0.079846
4280	-0.132870
4264	0.076436
4248	0.057363
4232	0.253868
4216	0.219964
4200	0.213766
4184	0.189423
4168	0.156116
4152	0.120425
4136	0.149083
4120	0.124502
4104	0.035262
4088	0.062942
4072	0.213956
4056	0.094199
4040	-0.048875
4024	0.042343
4008	0.091695
3992	0.124359
3976	0.198888
3960	-0.002384
3944	0.294089
3928	0.252604
3912	0.157070
3896	0.199604
3880	0.311851
3864	-0.033402
3848	0.119662
3832	0.178313
3816	0.247120
3800	0.098180
3784	0.103425
3768	0.012993
3752	0.135493
3736	0.119018
3720	0.075507
3704	0.029921
3688	0.000572
3672	-0.136899
3656	-0.029253
3640	0.017213
3624	0.076723
3608	0.021243
3592	0.259041
3576	0.117707
3560	0.219798
3544	0.097870
3528	0.200200
3512	0.010895
3496	0.088572
3480	-0.026726
3464	0.079274
3448	0.040197
3432	0.150251
3416	0.004673
3400	0.294446
3384	-0.051856
3368	0.262975
3352	0.001382
3336	0.106954
3320	0.218892
3304	0.219583
3288	0.157070
3272	-0.004267
3256	0.169515
3240	0.239229
3224	-0.013852
3208	0.063347
3192	0.197863
3176	-0.025701
3160	0.141835
3144	0.190138
3128	-0.114107
3112	0.072431
3096	0.094723
3080	0.244879
3064	0.093603
3048	0.022864
3032	0.028634
3016	0.035023
3000	0.050592
2984	0.055146
2968	0.022959
2952	-0.056266
2936	-0.040173
2920	-0.035119
2904	0.048971
2888	0.195932
2872	0.057482
2856	0.106239
2840	0.078415
2824	0.061941
2808	0.043106
2792	0.033354
2776	0.026774
2760	-0.081968
2744	-0.022125
2728	0.019216
2712	0.097775
2696	0.037860
2680	0.024771
2664	0.144982
2648	0.014138
2632	0.025582
2616	0.038313
2600	-0.024580
2584	0.104928
2568	0.073337
2552	0.025796
2536	0.064539
2520	0.150513
2504	0.141882
2488	0.112175
2472	0.045561
2456	0.000238
2440	0.046610
2424	0.018215
2408	-0.059032
2392	0.034737
2376	0.032567
2360	0.051426
2344	0.172638
2328	0.209259
2312	0.253987
2296	0.382423
2280	0.467610
2264	0.723767
2248	1.139307
2232	1.708102
2216	2.308082
2200	3.233528
2184	4.214596
2168	5.647611
2152	7.324743
2136	8.986401
2120	10.7548
2104	12.7235
2088	14.9248
2072	16.5548
2056	18.4659
2040	20.3102
2024	22.1249
2008	23.6621
1992	25.0324
1976	26.3054
1960	27.6653
1944	28.6009
1928	29.5016
1912	30.3814
1896	30.9535
1880	31.5665
1864	32.2749
1848	32.569
1832	32.921
1816	33.3576
1800	33.5668
1784	33.6571
1768	33.9043
1752	34.0451
1736	33.9997
1720	34.3473
1704	34.5613
1688	34.2445
1672	34.2259
1656	34.6498
1640	34.4286
1624	34.3112
1608	34.5102
1592	34.3251
1576	34.2882
1560	34.5608
1544	34.4171
1528	34.0982
1512	34.167
1496	34.3414
1480	33.9449
1464	33.6939
1448	33.9209
1432	33.7946
1416	33.506
1400	33.6879
1384	33.8347
1368	33.5066
1352	33.3866
1336	33.6547
1320	33.374
1304	33.0184
1288	33.4353
1272	33.2166
1256	32.7204
1240	33.0512
1224	33.1549
1208	32.7425
1192	32.4287
1176	32.9834
1160	32.5967
1144	32.2729
1128	32.4802
1112	32.5425
1096	31.7681
1080	32.2401
1064	32.4229
1048	31.859
1032	31.606
1016	31.9839
1000	31.8013
984	 31.0634
968	 31.3214
952	 31.5346
936	 30.8995
920	 30.5904
904	 31.009
888	 30.6996
872	 29.7705
856	 30.1739
840	 30.1007
824	 29.2623
808	 29.4662
792	 29.6209
776	 29.2423
760	 28.5275
744	 28.9131
728	 28.1998
712	 27.6273
696	 27.4057
680	 27.665
664	 27.2585
648	 26.6831
632	 27.0036
616	 26.8414
600	 25.5144
584	 25.5177
568	 25.5564
552	 24.3621
536	 24.2594
520	 24.2934
504	 23.579
488	 22.6568
472	 23.1483
456	 23.7413
440	 20.0947
424	 21.3571
408	 25.4356
392	 21.2915
376	 -2.194833
370	 25.8569