File: Bakgrunnsmateriale/MATLAB/FTIR/ftir_data/LPE453/Mapping_121/LPE453_t55_cm-1.asc
PE IR       SPECTRUM    SPECTRUM    ASCII       PEDS        1.60
  -1
LPE9DB~1.ASC
17/05/16
18:52:24.00
17/05/16
18:52:24.00
tln
$LPE453_t0055$<tbV0>[-13.0,-2.6,8.0,0.0,27,1,0]
370
64

2002,4.07
MIRTGS : RIGHTBACK : INTERNAL 2
MIR : ON : INTERNAL 2
OPTKBR

0.200000
8
8.000000
FILLER
RATIO
SPECTRUM
UNLOCKED 256

DOUBLE
64
COMBINED
1
0
0

1.000000
RATIO

1
0
TRUE
51149
0
LEFT NOT FITTED RIGHT NOT FITTED 0
NONE
NONE
15600
12
4.427000
51148
TRUE
1 0 8 72 0 0 0 0

15798

#HDR
-1
-1
#GR
CM-1
%T
2.38419e-05
0.0
5000
-1.000000
4631
8
30.6828
-2.322936
#DATA
5000	-0.160932
4984	0.289201
4968	0.046706
4952	0.311064
4936	-0.331425
4920	0.123047
4904	0.340938
4888	0.145697
4872	-0.111603
4856	0.622820
4840	-0.063872
4824	-0.015449
4808	-0.187969
4792	0.173258
4776	0.301456
4760	0.231432
4744	-0.357079
4728	0.230193
4712	0.721049
4696	-0.806212
4680	0.054812
4664	0.362324
4648	0.089406
4632	0.376486
4616	0.437045
4600	0.853610
4584	-0.338149
4568	0.541234
4552	-0.184488
4536	-0.385332
4520	0.201702
4504	0.274705
4488	5.158591
4472	-0.376820
4456	-1.170992
4440	-0.540065
4424	0.142955
4408	-0.111532
4392	0.408935
4376	0.245738
4360	-0.141000
4344	-0.081110
4328	0.438475
4312	0.080728
4296	-0.261855
4280	0.168514
4264	-0.020790
4248	0.216627
4232	0.030231
4216	-0.022983
4200	0.165486
4184	-0.180149
4168	0.345754
4152	0.221204
4136	-0.259041
4120	0.174379
4104	0.216460
4088	0.142312
4072	0.177741
4056	-0.012445
4040	-0.089740
4024	0.038480
4008	0.026488
3992	0.168108
3976	0.129890
3960	0.076746
3944	0.142121
3928	0.088357
3912	0.098729
3896	0.159001
3880	-0.039577
3864	0.067377
3848	0.173950
3832	0.164508
3816	0.183606
3800	-0.078725
3784	0.089812
3768	-0.021696
3752	0.170302
3736	0.044679
3720	0.093293
3704	0.112605
3688	-0.085997
3672	0.095105
3656	-0.014042
3640	-0.057673
3624	-0.058317
3608	0.038099
3592	-0.098395
3576	0.117325
3560	0.112104
3544	0.023937
3528	0.009822
3512	0.031757
3496	0.048136
3480	0.188779
3464	0.008368
3448	0.183391
3432	-0.059437
3416	-0.061368
3400	-0.023937
3384	0.055766
3368	0.038671
3352	0.011610
3336	0.119972
3320	-0.058579
3304	-0.041842
3288	0.261712
3272	0.154542
3256	-0.032448
3240	0.100255
3224	0.038385
3208	0.088429
3192	-0.030612
3176	0.110316
3160	-0.037121
3144	0.060606
3128	0.158596
3112	0.146365
3096	-0.144863
3080	0.027942
3064	-0.048351
3048	0.080132
3032	0.041627
3016	-0.014233
3000	0.034546
2984	0.027751
2968	0.005555
2952	-0.065684
2936	0.015282
2920	0.176239
2904	-0.028133
2888	-0.062847
2872	0.003433
2856	-0.022816
2840	0.131440
2824	-0.106024
2808	0.130581
2792	-0.028324
2776	-0.004458
2760	0.055980
2744	0.012373
2728	-0.035619
2712	0.056862
2696	-0.021767
2680	0.055336
2664	0.015282
2648	0.013780
2632	-0.003719
2616	0.062036
2600	-0.051593
2584	-0.020313
2568	0.133824
2552	0.115299
2536	0.103521
2520	0.081276
2504	-0.142693
2488	0.064039
2472	0.067067
2456	-0.061702
2440	0.059461
2424	0.041985
2408	-0.006532
2392	0.087499
2376	0.049734
2360	0.106406
2344	-0.129556
2328	0.000572
2312	0.131011
2296	0.184488
2280	0.357055
2264	0.393390
2248	0.598502
2232	1.139163
2216	1.551556
2200	2.101850
2184	2.804207
2168	3.901958
2152	4.990696
2136	6.435370
2120	7.897400
2104	9.419155
2088	10.9896
2072	12.672
2056	14.3768
2040	15.8183
2024	17.411
2008	18.7397
1992	19.9384
1976	21.1558
1960	22.2145
1944	23.1462
1928	24.0736
1912	24.723
1896	25.4217
1880	25.9943
1864	26.5662
1848	27.0897
1832	27.4526
1816	27.8797
1800	28.1764
1784	28.4195
1768	28.7801
1752	28.8928
1736	29.2139
1720	29.1992
1704	29.4875
1688	29.6674
1672	29.8597
1656	29.8711
1640	29.928
1624	30.0629
1608	30.2077
1592	30.2675
1576	30.3012
1560	30.3059
1544	30.4811
1528	30.5287
1512	30.4542
1496	30.591
1480	30.3155
1464	30.3792
1448	30.3357
1432	30.4445
1416	30.4519
1400	30.516
1384	30.3184
1368	30.3039
1352	30.1996
1336	30.2589
1320	30.1739
1304	30.155
1288	30.0757
1272	30.0609
1256	29.9975
1240	29.778
1224	29.6705
1208	29.7544
1192	29.6994
1176	29.4442
1160	29.4117
1144	29.1631
1128	29.1492
1112	29.0044
1096	28.8343
1080	28.5738
1064	28.4817
1048	28.1923
1032	28.0289
1016	27.8702
1000	27.7607
984	 27.4833
968	 27.3596
952	 26.9797
936	 26.7841
920	 26.8042
904	 26.2447
888	 26.2525
872	 25.8719
856	 25.6966
840	 25.2635
824	 25.1069
808	 24.8523
792	 24.4957
776	 24.3502
760	 24.1009
744	 23.7094
728	 23.5564
712	 23.2528
696	 22.5407
680	 22.7608
664	 22.3409
648	 21.9392
632	 21.2891
616	 21.4603
600	 20.6081
584	 21.0932
568	 19.9508
552	 19.7499
536	 19.5702
520	 19.1195
504	 18.8554
488	 17.6588
472	 18.0619
456	 17.1613
440	 17.0642
424	 15.9214
408	 13.6163
392	 19.3938
376	 19.2912
370	 5.262541