File: Bakgrunnsmateriale/MATLAB/FTIR/ftir_data/LPE453/Mapping_121/LPE453_t56.asc
PE IR       SPECTRUM    SPECTRUM    ASCII       PEDS        1.60
  -1
LPD7A1~1.ASC
17/05/16
18:57:37.00
17/05/16
18:58:03.00
tln
$LPE453_t0056$<tbV0>[13.0,0.0,8.0,0.0,27,1,0]
27.028
64

2002,4.07
MIRTGS : RIGHTBACK : INTERNAL 2
MIR : ON : INTERNAL 2
OPTKBR

0.200000
8
8.000000
FILLER
RATIO
SPECTRUM
UNLOCKED 256

DOUBLE
64
COMBINED
1
0
0

0.002000
RATIO

1
0
TRUE
51149
0
LEFT NOT FITTED RIGHT NOT FITTED 0
NONE
NONE
15600
12
4.427000
51148
TRUE
1 0 8 72 0 0 0 0

15798

#HDR
-1
-1
#GR
µM
%T
2.38419e-05
0.0
2.000000
0.002000
12515
8
25.044
-12.0075
#DATA
2.000000	 0.447511
2.084000	 0.438187
2.168000	 -0.056931
2.252000	 -1.009287
2.336000	 0.389821
2.420000	 0.281247
2.504000	 -0.042813
2.588000	 0.204994
2.672000	 0.204130
2.756000	 0.014500
2.840000	 0.034955
2.924000	 -0.015033
3.008000	 0.070161
3.092000	 -0.025364
3.176000	 0.133185
3.260000	 -0.058691
3.344000	 0.041860
3.428000	 0.010905
3.512000	 -0.079767
3.596000	 0.115740
3.680000	 0.072619
3.764000	 0.013682
3.848000	 0.072676
3.932000	 0.109285
4.016000	 0.123285
4.100000	 -0.009691
4.184000	 0.141306
4.268000	 -0.011805
4.352000	 0.065893
4.436000	 0.196243
4.520000	 0.701995
4.604000	 1.875583
4.688000	 3.883903
4.772000	 6.677145
4.856000	 9.588951
4.940000	 12.4935
5.024000	 15.0538
5.108000	 17.0982
5.192000	 18.7146
5.276000	 19.9343
5.359999	 20.8582
5.444000	 21.5917
5.528000	 22.2447
5.612000	 22.6761
5.696000	 23.0345
5.780000	 23.3496
5.864000	 23.5156
5.948000	 23.6795
6.032000	 23.6961
6.116000	 23.8568
6.200000	 23.9129
6.284000	 24.0462
6.368000	 24.126
6.452000	 23.9485
6.536000	 24.092
6.620000	 24.048
6.704000	 24.123
6.788000	 23.9968
6.872000	 23.9581
6.956000	 24.1713
7.040000	 24.0009
7.124000	 24.072
7.208000	 23.8398
7.292000	 23.9407
7.376000	 23.8408
7.460000	 23.6719
7.544000	 23.7674
7.628000	 23.6714
7.712000	 23.5481
7.796000	 23.6808
7.880000	 23.4355
7.964000	 23.4478
8.048000	 23.6559
8.132000	 23.3378
8.216000	 23.2666
8.300000	 23.4225
8.384000	 23.2495
8.468000	 23.1088
8.552000	 23.1954
8.635999	 23.3006
8.719999	 22.9683
8.804000	 22.8843
8.888000	 22.9875
8.972000	 22.9422
9.056000	 22.5812
9.140000	 22.4057
9.224000	 22.5394
9.308000	 22.5878
9.391999	 22.5427
9.475999	 22.3909
9.560000	 22.3245
9.644000	 22.2041
9.728000	 22.1947
9.812000	 21.9443
9.896000	 21.9344
9.980000	 21.9267
10.064	22.0253
10.148	21.9178
10.232	21.562
10.316	21.3532
10.4	21.3344
10.484	21.5775
10.568	21.6097
10.652	21.1605
10.736	21.0029
10.82	20.6455
10.904	20.7437
10.988	20.845
11.072	20.7547
11.156	20.6914
11.24	20.2463
11.324	20.0077
11.408	20.1573
11.492	20.4083
11.576	20.3227
11.66	19.9646
11.744	19.7883
11.828	19.679
11.912	19.5978
11.996	19.5267
12.08	19.5871
12.164	19.6647
12.248	19.6135
12.332	19.356
12.416	19.0755
12.5	19.0567
12.584	19.0923
12.668	18.9354
12.752	18.8061
12.836	18.8518
12.92	18.7871
13.004	18.519
13.088	18.2395
13.172	18.1947
13.256	18.2797
13.34	18.2656
13.424	18.3154
13.508	18.1425
13.592	18.1737
13.676	18.2088
13.76	17.813
13.844	17.5358
13.928	17.5051
14.012	17.4576
14.096	17.4671
14.18	17.5436
14.264	17.5543
14.348	17.4194
14.432	17.0779
14.516	16.738
14.6	16.6306
14.684	16.6872
14.768	16.6871
14.852	16.5552
14.936	16.4152
15.02	16.3778
15.104	16.4152
15.188	16.4097
15.272	16.4233
15.356	16.5563
15.44	16.6724
15.524	16.6627
15.608	16.5143
15.692	16.1893
15.776	15.7677
15.86	15.4706
15.944	15.4014
16.028	15.4521
16.112	15.4866
16.196	15.524
16.28	15.6231
16.364	15.6647
16.448	15.5179
16.532	15.2949
16.616	15.1451
16.7	15.046
16.784	14.9682
16.868	14.9368
16.952	14.9334
17.036	14.9203
17.12	14.9071
17.204	14.9058
17.288	14.8827
17.372	14.8031
17.456	14.6854
17.54	14.5733
17.624	14.4515
17.708	14.258
17.792	13.9845
17.876	13.7033
17.96	13.5242
18.044	13.537
18.128	13.7446
18.212	14.0261
18.296	14.2078
18.38	14.2075
18.464	14.0836
18.548	13.9524
18.632	13.8678
18.716	13.7853
18.8	13.6347
18.884	13.4311
18.968	13.2827
19.052	13.271
19.136	13.3562
19.22	13.422
19.304	13.4076
19.388	13.3577
19.472	13.3436
19.556	13.3634
19.64	13.348
19.724	13.2492
19.808	13.103
19.892	12.9947
19.976	12.9676
20.06	12.9807
20.144	12.9625
20.228	12.8898
20.312	12.7908
20.396	12.6876
20.48	12.5678
20.564	12.4163
20.648	12.2575
20.732	12.1455
20.816	12.1081
20.9	12.106
20.984	12.0695
21.068	11.9633
21.152	11.8243
21.236	11.7346
21.32	11.7603
21.404	11.903
21.488	12.0945
21.572	12.2458
21.656	12.3104
21.74	12.3061
21.824	12.2779
21.908	12.2402
21.992	12.1529
22.076	11.9524
22.16	11.6112
22.244	11.18
22.328	10.7644
22.412	10.4643
22.496	10.3247
22.58	10.3334
22.664	10.4441
22.748	10.5916
22.832	10.7081
22.916	10.722
23	10.6051
23.084	10.3903
23.168	10.1673
23.252	10.0281
23.336	10.0217
23.42	10.1097
23.504	10.2193
23.588	10.2877
23.672	10.3022
23.756	10.3169
23.84	10.4001
23.924	10.5623
24.008	10.7189
24.092	10.7118
24.176	10.3907
24.26	9.694690
24.344	8.689649
24.428	7.545132
24.512	6.498882
24.596	5.699136
24.68	5.221122
24.764	5.118115
24.848	5.434009
24.932	6.224512
25.016	7.518384
25.1	9.279520
25.184	11.3482
25.268	13.419
25.352	15.0888
25.436	15.9445
25.52	15.7587
25.604	14.5958
25.688	12.847
25.772	11.13
25.856	10.0208
25.94	9.906597
26.024	10.7161
26.108	11.8261
26.192	12.2938
26.276	11.2382
26.36	8.178424
26.444	3.339614
26.528	-2.363237
26.612	-7.607721
26.696	-11.0822
26.78	-11.9592
26.864	-10.1938
26.948	-6.578335
27.028	-2.791261