File: Bakgrunnsmateriale/MATLAB/FTIR/ftir_data/LPE453/Mapping_121/LPE453_t51_cm-1.asc
PE IR       SPECTRUM    SPECTRUM    ASCII       PEDS        1.60
  -1
LPD9D5~1.ASC
17/05/16
18:33:56.00
17/05/16
18:33:56.00
tln
$LPE453_t0051$<tbV0>[-2.6,-2.6,8.0,0.0,27,1,0]
370
64

2002,4.07
MIRTGS : RIGHTBACK : INTERNAL 2
MIR : ON : INTERNAL 2
OPTKBR

0.200000
8
8.000000
FILLER
RATIO
SPECTRUM
UNLOCKED 256

DOUBLE
64
COMBINED
1
0
0

1.000000
RATIO

1
0
TRUE
51149
0
LEFT NOT FITTED RIGHT NOT FITTED 0
NONE
NONE
15600
12
4.427000
51148
TRUE
1 0 8 72 0 0 0 0

15798

#HDR
-1
-1
#GR
CM-1
%T
2.38419e-05
0.0
5000
-1.000000
4631
8
57.8731
-11.6214
#DATA
5000	-0.253653
4984	0.034189
4968	-0.182485
4952	0.462770
4936	-0.202989
4920	0.328850
4904	0.028014
4888	0.285100
4872	0.155186
4856	0.191617
4840	0.617575
4824	-0.109577
4808	0.032186
4792	0.462245
4776	0.519371
4760	-0.018167
4744	0.008654
4728	0.567269
4712	0.363445
4696	-0.041842
4680	0.297164
4664	0.598621
4648	0.381422
4632	0.348591
4616	1.061296
4600	0.429010
4584	0.381445
4568	0.451135
4552	2.193212
4536	-0.923943
4520	1.738190
4504	10.4072
4488	-1.371121
4472	-1.117420
4456	-0.464653
4440	-0.570750
4424	-0.484180
4408	0.444531
4392	0.196194
4376	-0.034403
4360	-0.055527
4344	0.020337
4328	0.143837
4312	0.012564
4296	-0.013256
4280	0.260353
4264	-0.127053
4248	0.186157
4232	-0.094389
4216	-0.024080
4200	0.152730
4184	0.042986
4168	0.365614
4152	0.138044
4136	0.309014
4120	-0.003457
4104	0.209641
4088	0.119280
4072	0.094771
4056	-0.014758
4040	0.161337
4024	0.106978
4008	-0.026464
3992	0.205087
3976	0.068354
3960	0.221991
3944	0.013709
3928	0.027060
3912	0.226449
3896	-0.118780
3880	0.066971
3864	0.068712
3848	0.148534
3832	0.022101
3816	-0.003290
3800	0.155568
3784	0.051665
3768	0.041031
3752	0.169515
3736	-0.034546
3720	-0.020956
3704	-0.018167
3688	0.168251
3672	0.225400
3656	-0.014162
3640	0.095868
3624	0.052094
3608	0.015115
3592	-0.066995
3576	-0.003266
3560	0.119614
3544	0.092411
3528	0.104141
3512	-0.100755
3496	0.129604
3480	0.142335
3464	0.310516
3448	0.099706
3432	-0.099182
3416	0.143122
3400	-0.122451
3384	0.080609
3368	-0.125360
3352	-0.027370
3336	-0.019431
3320	-0.054764
3304	0.090146
3288	0.160360
3272	-0.024223
3256	0.039839
3240	0.135612
3224	0.141859
3208	-0.103807
3192	0.090432
3176	0.066137
3160	0.039887
3144	0.064039
3128	0.197315
3112	-0.173902
3096	-0.090551
3080	0.032806
3064	0.098943
3048	0.014114
3032	0.025558
3016	0.042605
3000	-0.001311
2984	-0.000333
2968	0.027036
2952	0.043559
2936	-0.043559
2920	0.166320
2904	-0.053691
2888	0.114107
2872	0.059175
2856	0.056815
2840	0.001955
2824	0.117516
2808	0.089359
2792	-0.029921
2776	0.004673
2760	0.038814
2744	-0.043725
2728	-0.007653
2712	0.056099
2696	0.136351
2680	0.029969
2664	0.112175
2648	0.058722
2632	-0.102472
2616	0.112462
2600	-0.006198
2584	0.057744
2568	0.044298
2552	0.112748
2536	-0.039720
2520	0.047421
2504	-0.062561
2488	0.106859
2472	0.103282
2456	0.053930
2440	-0.018548
2424	0.130987
2408	0.047516
2392	0.060939
2376	-0.002694
2360	-0.061941
2344	0.125288
2328	0.168991
2312	0.250005
2296	0.216078
2280	0.296759
2264	0.436592
2248	0.706577
2232	1.149606
2216	1.714873
2200	2.548718
2184	3.434133
2168	4.547953
2152	5.709147
2136	7.582497
2120	9.218549
2104	10.8838
2088	12.6711
2072	14.6425
2056	16.17
2040	18.1311
2024	19.7902
2008	21.2129
1992	22.6447
1976	23.6923
1960	24.8389
1944	25.7775
1928	26.5481
1912	27.3988
1896	28.0921
1880	28.4594
1864	29.0929
1848	29.3965
1832	29.6745
1816	30.2024
1800	30.3125
1784	30.529
1768	30.8504
1752	30.8127
1736	30.8007
1720	31.0748
1704	31.05
1688	31.1937
1672	31.262
1656	31.1309
1640	31.2075
1624	31.4075
1608	31.1774
1592	31.3031
1576	31.3249
1560	31.0317
1544	31.2395
1528	31.2562
1512	30.9854
1496	31.0946
1480	31.0504
1464	30.9493
1448	30.8535
1432	31.0636
1416	30.8049
1400	30.9172
1384	30.8615
1368	30.6375
1352	30.5812
1336	30.603
1320	30.4244
1304	30.4514
1288	30.4939
1272	30.2495
1256	30.2307
1240	30.2152
1224	29.9765
1208	30.0226
1192	29.9675
1176	29.7272
1160	29.7072
1144	29.8118
1128	29.4615
1112	29.4267
1096	29.5422
1080	29.086
1064	29.0719
1048	29.0157
1032	28.7929
1016	28.6939
1000	28.6872
984	 28.2225
968	 28.1804
952	 28.2214
936	 27.7348
920	 27.5257
904	 27.6273
888	 27.1236
872	 27.0367
856	 27.0647
840	 26.2333
824	 26.0129
808	 26.3712
792	 25.5693
776	 25.0838
760	 25.3957
744	 24.8585
728	 24.3029
712	 24.4011
696	 23.5631
680	 23.222
664	 23.3547
648	 22.5781
632	 21.8658
616	 21.7916
600	 21.8655
584	 20.8351
568	 20.3115
552	 20.3796
536	 19.7089
520	 18.9052
504	 18.8613
488	 18.3596
472	 17.7518
456	 18.0658
440	 16.0415
424	 14.5879
408	 13.6336
392	 6.986284
376	 50.3073
370	 45.7673