File: Bakgrunnsmateriale/MATLAB/FTIR/ftir_data/LPE453/Mapping_121/LPE453_t91.asc
PE IR       SPECTRUM    SPECTRUM    ASCII       PEDS        1.60
  -1
LPC7BD~1.ASC
17/05/16
21:52:49.00
17/05/16
21:53:16.00
tln
$LPE453_t0091$<tbV0>[7.8,7.8,8.0,0.0,27,1,0]
27.028
64

2002,4.07
MIRTGS : RIGHTBACK : INTERNAL 2
MIR : ON : INTERNAL 2
OPTKBR

0.200000
8
8.000000
FILLER
RATIO
SPECTRUM
UNLOCKED 256

DOUBLE
64
COMBINED
1
0
0

0.002000
RATIO

1
0
TRUE
51149
0
LEFT NOT FITTED RIGHT NOT FITTED 0
NONE
NONE
15600
12
4.427000
51148
TRUE
1 0 8 72 0 0 0 0

15798

#HDR
-1
-1
#GR
µM
%T
2.38419e-05
0.0
2.000000
0.002000
12515
8
35.9927
-8.822702
#DATA
2.000000	 -0.374388
2.084000	 0.191616
2.168000	 0.566913
2.252000	 0.037939
2.336000	 -0.034691
2.420000	 -0.230588
2.504000	 0.401063
2.588000	 0.158880
2.672000	 -0.015004
2.756000	 0.062321
2.840000	 0.155618
2.924000	 0.068711
3.008000	 -0.059064
3.092000	 0.056723
3.176000	 0.115549
3.260000	 -0.041273
3.344000	 0.000570
3.428000	 0.017642
3.512000	 -0.007376
3.596000	 0.003797
3.680000	 0.029538
3.764000	 0.160252
3.848000	 0.056585
3.932000	 0.068805
4.016000	 0.032217
4.100000	 0.127418
4.184000	 0.039356
4.268000	 0.231396
4.352000	 0.560984
4.436000	 1.501294
4.520000	 3.343027
4.604000	 6.463580
4.688000	 10.8538
4.772000	 15.6503
4.856000	 20.1635
4.940000	 24.0748
5.024000	 27.1077
5.108000	 29.5778
5.192000	 31.3029
5.276000	 32.5705
5.359999	 33.3955
5.444000	 34.2058
5.528000	 34.6341
5.612000	 34.9578
5.696000	 35.1938
5.780000	 35.4239
5.864000	 35.5014
5.948000	 35.6625
6.032000	 35.7445
6.116000	 35.7955
6.200000	 35.7998
6.284000	 35.8432
6.368000	 35.876
6.452000	 35.7395
6.536000	 35.8293
6.620000	 35.7974
6.704000	 35.707
6.788000	 35.8133
6.872000	 35.7096
6.956000	 35.5383
7.040000	 35.5493
7.124000	 35.5736
7.208000	 35.6251
7.292000	 35.3814
7.376000	 35.5137
7.460000	 35.4203
7.544000	 35.5041
7.628000	 35.4662
7.712000	 35.3126
7.796000	 35.2805
7.880000	 35.2539
7.964000	 35.2588
8.048000	 35.1871
8.132000	 35.1185
8.216000	 35.077
8.300000	 34.9602
8.384000	 34.9829
8.468000	 34.8361
8.552000	 35.0163
8.635999	 34.9499
8.719999	 34.8054
8.804000	 34.582
8.888000	 34.7537
8.972000	 34.8063
9.056000	 34.8665
9.140000	 34.6307
9.224000	 34.644
9.308000	 34.531
9.391999	 34.4006
9.475999	 34.23
9.560000	 34.1907
9.644000	 34.2269
9.728000	 33.9989
9.812000	 34.0821
9.896000	 33.8351
9.980000	 33.9094
10.064	33.9897
10.148	33.9362
10.232	33.8541
10.316	33.5576
10.4	33.656
10.484	33.692
10.568	33.4716
10.652	33.232
10.736	33.1509
10.82	33.161
10.904	33.0491
10.988	32.8534
11.072	32.8634
11.156	32.8209
11.24	32.7143
11.324	32.699
11.408	32.6452
11.492	32.5139
11.576	32.5027
11.66	32.425
11.744	32.3302
11.828	32.1646
11.912	32.0573
11.996	31.8524
12.08	31.7546
12.164	31.5274
12.248	31.5728
12.332	31.8342
12.416	31.8747
12.5	31.8584
12.584	31.8068
12.668	31.5602
12.752	31.5139
12.836	31.5195
12.92	31.4079
13.004	31.3473
13.088	31.0674
13.172	30.8692
13.256	30.9711
13.34	30.8821
13.424	30.7137
13.508	30.6635
13.592	30.8245
13.676	30.9882
13.76	30.8235
13.844	30.4966
13.928	30.4049
14.012	30.3937
14.096	30.052
14.18	29.724
14.264	29.6615
14.348	29.5908
14.432	29.6054
14.516	29.6705
14.6	29.6479
14.684	29.7437
14.768	29.9075
14.852	29.9305
14.936	29.7533
15.02	29.4295
15.104	29.1289
15.188	28.9011
15.272	28.7187
15.356	28.649
15.44	28.6603
15.524	28.6459
15.608	28.6726
15.692	28.8487
15.776	29.0003
15.86	28.9145
15.944	28.718
16.028	28.5882
16.112	28.4994
16.196	28.4485
16.28	28.4487
16.364	28.3682
16.448	28.1191
16.532	27.8266
16.616	27.6806
16.7	27.7181
16.784	27.7975
16.868	27.7811
16.952	27.661
17.036	27.5071
17.12	27.3979
17.204	27.4007
17.288	27.5013
17.372	27.5647
17.456	27.4625
17.54	27.2213
17.624	26.9889
17.708	26.8549
17.792	26.788
17.876	26.7372
17.96	26.6989
18.044	26.6774
18.128	26.67
18.212	26.6838
18.296	26.7089
18.38	26.6774
18.464	26.5135
18.548	26.2332
18.632	25.9521
18.716	25.7678
18.8	25.6679
18.884	25.5601
18.968	25.3858
19.052	25.1822
19.136	25.0276
19.22	24.9596
19.304	24.9497
19.388	24.9345
19.472	24.8603
19.556	24.7338
19.64	24.6349
19.724	24.6523
19.808	24.7974
19.892	24.9937
19.976	25.1454
20.06	25.2181
20.144	25.2464
20.228	25.2752
20.312	25.31
20.396	25.3226
20.48	25.2853
20.564	25.2005
20.648	25.098
20.732	24.997
20.816	24.869
20.9	24.6561
20.984	24.3387
21.068	23.9778
21.152	23.6717
21.236	23.4744
21.32	23.3545
21.404	23.2356
21.488	23.0853
21.572	22.9484
21.656	22.901
21.74	22.9708
21.824	23.1089
21.908	23.2291
21.992	23.2685
22.076	23.2218
22.16	23.1396
22.244	23.0984
22.328	23.1597
22.412	23.3407
22.496	23.6051
22.58	23.8785
22.664	24.0819
22.748	24.1641
22.832	24.1078
22.916	23.908
23	23.5802
23.084	23.1324
23.168	22.5989
23.252	22.0564
23.336	21.6055
23.42	21.3621
23.504	21.3672
23.588	21.5777
23.672	21.8965
23.756	22.1976
23.84	22.4207
23.924	22.5957
24.008	22.8062
24.092	23.1103
24.176	23.4579
24.26	23.6593
24.344	23.4187
24.428	22.488
24.512	20.7666
24.596	18.3941
24.68	15.6704
24.764	12.9101
24.848	10.3038
24.932	7.862270
25.016	5.447926
25.1	2.895510
25.184	0.140966
25.268	-2.693942
25.352	-5.355594
25.436	-7.449064
25.52	-8.624144
25.604	-8.745895
25.688	-7.931489
25.772	-6.567447
25.856	-5.166507
25.94	-4.189257
26.024	-3.877710
26.108	-4.149670
26.192	-4.684635
26.276	-5.061220
26.36	-4.914028
26.444	-4.070333
26.528	-2.618452
26.612	-0.764704
26.696	1.106371
26.78	2.505525
26.864	3.006609
26.948	2.344433
27.028	0.586509