File: Bakgrunnsmateriale/MATLAB/FTIR/ftir_data/LPE453/Mapping_121/LPE453_t109_cm-1.asc
PE IR       SPECTRUM    SPECTRUM    ASCII       PEDS        1.60
  -1
LP0C78~1.ASC
17/05/16
23:16:25.00
17/05/16
23:16:25.00
tln
$LPE453_t0109$<tbV0>[-10.4,10.4,8.0,0.0,27,1,0]
370
64

2002,4.07
MIRTGS : RIGHTBACK : INTERNAL 2
MIR : ON : INTERNAL 2
OPTKBR

0.200000
8
8.000000
FILLER
RATIO
SPECTRUM
UNLOCKED 256

DOUBLE
64
COMBINED
1
0
0

1.000000
RATIO

1
0
TRUE
51149
0
LEFT NOT FITTED RIGHT NOT FITTED 0
NONE
NONE
15600
12
4.427000
51148
TRUE
1 0 8 72 0 0 0 0

15798

#HDR
-1
-1
#GR
CM-1
%T
2.38419e-05
0.0
5000
-1.000000
4631
8
29.0646
-5.376911
#DATA
5000	0.004339
4984	0.025200
4968	-0.094199
4952	0.231242
4936	0.246214
4920	-0.019526
4904	0.006961
4888	0.386118
4872	0.310993
4856	0.391149
4840	0.355195
4824	0.056242
4808	0.072145
4792	0.543212
4776	0.125217
4760	-0.156402
4744	-0.008964
4728	0.050687
4712	-0.265264
4696	0.581002
4680	-1.167154
4664	0.868034
4648	0.098228
4632	-1.005434
4616	1.376175
4600	1.018953
4584	0.652766
4568	0.347948
4552	-0.846052
4536	-0.974178
4520	0.247812
4504	0.624299
4488	6.428456
4472	0.654387
4456	-0.826191
4440	-1.194334
4424	-1.392006
4408	0.545048
4392	0.798463
4376	0.145769
4360	-0.035429
4344	0.478172
4328	0.654554
4312	0.208067
4296	0.044250
4280	0.025773
4264	0.439286
4248	0.052285
4232	-0.305223
4216	0.080657
4200	-0.116348
4184	0.307893
4168	0.249505
4152	0.312376
4136	0.366139
4120	0.209712
4104	0.255823
4088	-0.016927
4072	-0.142335
4056	0.161767
4040	0.129795
4024	-0.114297
4008	0.291728
3992	-0.040626
3976	0.050640
3960	0.029206
3944	0.178956
3928	0.025200
3912	-0.056457
3896	0.186729
3880	-0.052928
3864	0.131678
3848	0.139570
3832	-0.038576
3816	0.095224
3800	-0.000405
3784	-0.008106
3768	0.015687
3752	-0.150513
3736	0.052404
3720	0.009179
3704	0.181913
3688	-0.015616
3672	-0.043511
3656	0.110149
3640	-0.096726
3624	-0.001668
3608	-0.006771
3592	-0.013351
3576	-0.053739
3560	0.125384
3544	0.014328
3528	0.071740
3512	0.246262
3496	0.152564
3480	0.014448
3464	0.021123
3448	-0.084972
3432	0.006580
3416	0.089216
3400	-0.041341
3384	0.266623
3368	0.027942
3352	0.062465
3336	0.171494
3320	0.084280
3304	0.092148
3288	0.101113
3272	0.112175
3256	0.018835
3240	-0.041031
3224	0.077891
3208	0.029516
3192	-0.021743
3176	0.071573
3160	0.001120
3144	-0.015473
3128	0.028467
3112	0.026726
3096	0.024199
3080	-0.065898
3064	0.129938
3048	0.095224
3032	0.141906
3016	0.077819
3000	0.141334
2984	0.149106
2968	-0.101041
2952	0.013566
2936	0.107097
2920	-0.034976
2904	0.072717
2888	0.046491
2872	0.051283
2856	-0.016212
2840	0.008106
2824	-0.013828
2808	-0.046253
2792	0.025391
2776	-0.018358
2760	0.033617
2744	-0.003314
2728	0.046586
2712	0.043487
2696	0.045347
2680	-0.042438
2664	-0.002646
2648	0.072336
2632	0.019407
2616	0.095796
2600	-0.004935
2584	-0.007486
2568	0.106477
2552	-0.006079
2536	-0.014281
2520	0.070142
2504	0.033068
2488	0.151729
2472	-0.044083
2456	0.096225
2440	0.057220
2424	0.053119
2408	0.167369
2392	-0.082683
2376	0.013494
2360	0.084686
2344	0.276827
2328	0.218605
2312	0.407099
2296	0.524759
2280	0.717496
2264	0.988578
2248	1.396417
2232	1.727485
2216	2.477836
2200	3.175044
2184	3.967905
2168	5.059576
2152	6.231117
2136	7.533931
2120	8.738660
2104	10.1883
2088	11.5179
2072	12.8293
2056	13.9266
2040	15.2118
2024	16.1431
2008	17.1888
1992	18.3222
1976	18.9557
1960	19.4932
1944	20.2974
1928	20.9186
1912	21.1507
1896	21.5147
1880	22.2035
1864	22.4064
1848	22.3489
1832	22.7716
1816	23.2088
1800	23.1
1784	22.9743
1768	23.412
1752	23.661
1736	23.3021
1720	23.31
1704	23.7386
1688	23.6689
1672	23.2532
1656	23.4743
1640	23.8794
1624	23.5932
1608	23.2572
1592	23.7
1576	23.85
1560	23.5471
1544	23.2929
1528	23.728
1512	23.945
1496	23.2966
1480	23.4464
1464	23.8168
1448	23.8548
1432	23.1302
1416	23.2638
1400	23.7808
1384	23.6412
1368	23.1031
1352	23.4166
1336	23.8747
1320	23.626
1304	23.0955
1288	23.4254
1272	23.8559
1256	23.3581
1240	23.1191
1224	23.6492
1208	23.9939
1192	23.3453
1176	23.1522
1160	23.6486
1144	23.936
1128	23.3219
1112	23.1028
1096	23.9221
1080	23.9941
1064	23.3498
1048	23.4614
1032	24.1902
1016	24.0682
1000	23.5456
984	 23.4948
968	 24.2206
952	 23.9669
936	 23.3997
920	 23.4787
904	 24.3077
888	 23.8735
872	 23.1872
856	 23.5202
840	 24.1914
824	 23.8163
808	 23.1747
792	 23.7162
776	 24.0693
760	 23.7333
744	 23.0588
728	 23.623
712	 23.929
696	 23.1049
680	 22.8907
664	 23.408
648	 23.6501
632	 22.9701
616	 22.5478
600	 23.3369
584	 23.4107
568	 22.4308
552	 22.2824
536	 22.815
520	 22.6611
504	 22.061
488	 21.6845
472	 23.7251
456	 22.129
440	 19.6445
424	 22.1777
408	 21.4068
392	 14.5095
376	 19.917
370	 -0.828671