File: Bakgrunnsmateriale/MATLAB/FTIR/ftir_data/LPE453/Mapping_121/LPE453_t116.asc
PE IR       SPECTRUM    SPECTRUM    ASCII       PEDS        1.60
  -1
LP9B88~1.ASC
17/05/17
00:09:23.00
17/05/17
00:09:49.00
tln
$LPE453_t0116$<tbV0>[0.0,13.0,8.0,0.0,27,1,0]
27.028
64

2002,4.07
MIRTGS : RIGHTBACK : INTERNAL 2
MIR : ON : INTERNAL 2
OPTKBR

0.200000
8
8.000000
FILLER
RATIO
SPECTRUM
UNLOCKED 256

DOUBLE
64
COMBINED
1
0
0

0.002000
RATIO

1
0
TRUE
51149
0
LEFT NOT FITTED RIGHT NOT FITTED 0
NONE
NONE
15600
12
4.427000
51148
TRUE
1 0 8 72 0 0 0 0

15798

#HDR
-1
-1
#GR
µM
%T
2.38419e-05
0.0
2.000000
0.002000
12515
8
36.1501
-2.260681
#DATA
2.000000	 0.855875
2.084000	 0.040866
2.168000	 0.908863
2.252000	 -1.378040
2.336000	 0.026390
2.420000	 0.087400
2.504000	 0.174660
2.588000	 -0.022001
2.672000	 0.160358
2.756000	 0.049247
2.840000	 -0.009399
2.924000	 0.096650
3.008000	 0.070782
3.092000	 0.046132
3.176000	 0.114303
3.260000	 0.058951
3.344000	 -0.004561
3.428000	 0.055423
3.512000	 0.199956
3.596000	 0.072202
3.680000	 0.047985
3.764000	 0.037242
3.848000	 -0.029021
3.932000	 -0.076517
4.016000	 0.118666
4.100000	 0.078930
4.184000	 0.167969
4.268000	 0.388688
4.352000	 0.828818
4.436000	 2.093880
4.520000	 4.416519
4.604000	 7.853403
4.688000	 12.2503
4.772000	 16.6978
4.856000	 20.781
4.940000	 24.2296
5.024000	 26.9587
5.108000	 29.0247
5.192000	 30.6074
5.276000	 31.9577
5.359999	 32.7399
5.444000	 33.5438
5.528000	 34.1019
5.612000	 34.4707
5.696000	 34.9179
5.780000	 35.0627
5.864000	 35.3917
5.948000	 35.5376
6.032000	 35.5894
6.116000	 35.7917
6.200000	 35.6315
6.284000	 35.8383
6.368000	 35.9954
6.452000	 35.8285
6.536000	 35.9519
6.620000	 36.1391
6.704000	 35.7569
6.788000	 35.7371
6.872000	 35.9883
6.956000	 35.922
7.040000	 35.7501
7.124000	 35.6861
7.208000	 35.916
7.292000	 35.8285
7.376000	 35.5134
7.460000	 35.5775
7.544000	 35.7134
7.628000	 35.7123
7.712000	 35.4975
7.796000	 35.2809
7.880000	 35.3838
7.964000	 35.4691
8.048000	 35.2983
8.132000	 35.0665
8.216000	 34.9119
8.300000	 34.979
8.384000	 35.2368
8.468000	 35.0386
8.552000	 34.6411
8.635999	 34.4898
8.719999	 34.723
8.804000	 34.9106
8.888000	 34.8145
8.972000	 34.4965
9.056000	 34.2589
9.140000	 34.2009
9.224000	 34.2597
9.308000	 34.1621
9.391999	 34.5639
9.475999	 34.5347
9.560000	 34.116
9.644000	 33.8554
9.728000	 33.7283
9.812000	 33.828
9.896000	 33.9563
9.980000	 33.9699
10.064	34.0088
10.148	33.7842
10.232	33.6307
10.316	33.4994
10.4	33.1983
10.484	33.2775
10.568	33.357
10.652	33.5948
10.736	33.6398
10.82	33.5532
10.904	33.1485
10.988	33.0023
11.072	32.8046
11.156	32.5385
11.24	32.6662
11.324	32.9585
11.408	33.1343
11.492	33.16
11.576	33.055
11.66	32.7908
11.744	32.4335
11.828	32.1891
11.912	32.0019
11.996	31.9366
12.08	31.8812
12.164	31.8945
12.248	32.0259
12.332	32.0933
12.416	32.1852
12.5	32.089
12.584	32.0913
12.668	31.9396
12.752	31.6536
12.836	31.5301
12.92	31.3697
13.004	31.2077
13.088	31.1586
13.172	31.1656
13.256	31.302
13.34	31.3613
13.424	31.4113
13.508	31.5642
13.592	31.4069
13.676	31.1744
13.76	31.1232
13.844	31.0411
13.928	30.8906
14.012	30.7398
14.096	30.6056
14.18	30.4586
14.264	30.2321
14.348	30.0197
14.432	29.9906
14.516	30.1661
14.6	30.3387
14.684	30.411
14.768	30.4408
14.852	30.4058
14.936	30.3211
15.02	30.2052
15.104	30.0846
15.188	29.9899
15.272	29.883
15.356	29.7097
15.44	29.438
15.524	29.1374
15.608	28.9644
15.692	28.9575
15.776	28.9599
15.86	28.8787
15.944	28.8468
16.028	28.9722
16.112	29.1694
16.196	29.3061
16.28	29.3107
16.364	29.1916
16.448	29.0704
16.532	29.0721
16.616	29.148
16.7	29.1259
16.784	28.9605
16.868	28.793
16.952	28.7074
17.036	28.6058
17.12	28.4176
17.204	28.2322
17.288	28.1214
17.372	28.0535
17.456	28.0172
17.54	28.0183
17.624	27.9725
17.708	27.798
17.792	27.5785
17.876	27.475
17.96	27.5232
18.044	27.6371
18.128	27.753
18.212	27.8667
18.296	27.9699
18.38	28.0372
18.464	28.0765
18.548	28.1265
18.632	28.1794
18.716	28.1528
18.8	27.9595
18.884	27.6034
18.968	27.205
19.052	26.9232
19.136	26.8292
19.22	26.8602
19.304	26.9107
19.388	26.9455
19.472	26.9973
19.556	27.0689
19.64	27.0873
19.724	26.9854
19.808	26.7863
19.892	26.584
19.976	26.4451
20.06	26.3626
20.144	26.2989
20.228	26.2492
20.312	26.2478
20.396	26.3244
20.48	26.4709
20.564	26.6368
20.648	26.7439
20.732	26.7071
20.816	26.4761
20.9	26.0751
20.984	25.6187
21.068	25.2607
21.152	25.1098
21.236	25.1728
21.32	25.3588
21.404	25.5471
21.488	25.6537
21.572	25.6587
21.656	25.5875
21.74	25.4778
21.824	25.352
21.908	25.2059
21.992	25.0148
22.076	24.7526
22.16	24.4122
22.244	24.0366
22.328	23.7091
22.412	23.523
22.496	23.5416
22.58	23.7677
22.664	24.1487
22.748	24.5944
22.832	25.0154
22.916	25.3354
23	25.5147
23.084	25.5464
23.168	25.4388
23.252	25.2007
23.336	24.8407
23.42	24.3742
23.504	23.8347
23.588	23.2836
23.672	22.8014
23.756	22.4711
23.84	22.3377
23.924	22.3876
24.008	22.5507
24.092	22.7153
24.176	22.7609
24.26	22.6078
24.344	22.2435
24.428	21.732
24.512	21.1961
24.596	20.7838
24.68	20.5973
24.764	20.6297
24.848	20.7837
24.932	20.9178
25.016	20.926
25.1	20.7721
25.184	20.5314
25.268	20.3558
25.352	20.3899
25.436	20.7098
25.52	21.2489
25.604	21.8152
25.688	22.1824
25.772	22.1815
25.856	21.7668
25.94	21.009
26.024	20.1032
26.108	19.324
26.192	19.0622
26.276	19.7178
26.36	21.6147
26.444	24.6935
26.528	28.4424
26.612	32.0158
26.696	34.4996
26.78	35.2228
26.864	34.0799
26.948	31.4936
27.028	28.3298