File: Bakgrunnsmateriale/MATLAB/FTIR/ftir_data/LPE453/Mapping_121/LPE453_t46_cm-1.asc
PE IR       SPECTRUM    SPECTRUM    ASCII       PEDS        1.60
  -1
LP695A~1.ASC
17/05/16
18:10:53.00
17/05/16
18:10:53.00
tln
$LPE453_t0046$<tbV0>[10.4,-2.6,8.0,0.0,27,1,0]
370
64

2002,4.07
MIRTGS : RIGHTBACK : INTERNAL 2
MIR : ON : INTERNAL 2
OPTKBR

0.200000
8
8.000000
FILLER
RATIO
SPECTRUM
UNLOCKED 256

DOUBLE
64
COMBINED
1
0
0

1.000000
RATIO

1
0
TRUE
51149
0
LEFT NOT FITTED RIGHT NOT FITTED 0
NONE
NONE
15600
12
4.427000
51148
TRUE
1 0 8 72 0 0 0 0

15798

#HDR
-1
-1
#GR
CM-1
%T
2.38419e-05
0.0
5000
-1.000000
4631
8
23.1143
-7.714176
#DATA
5000	-0.082921
4984	0.124597
4968	0.072622
4952	-0.090861
4936	0.172114
4920	-0.030183
4904	0.074100
4888	-0.067210
4872	0.003433
4856	0.411820
4840	0.122261
4824	0.449872
4808	-0.029754
4792	0.453591
4776	0.458979
4760	-0.041294
4744	-0.092792
4728	-0.042891
4712	0.209808
4696	0.504899
4680	-0.126433
4664	0.095748
4648	0.095272
4632	-0.547623
4616	-0.235819
4600	-0.147223
4584	0.436115
4568	-0.528001
4552	-0.662755
4536	0.682377
4520	14.4115
4504	-1.155328
4488	-0.348210
4472	-0.882387
4456	-0.230813
4440	-0.365877
4424	-0.297331
4408	0.113177
4392	0.106000
4376	0.120925
4360	0.463581
4344	0.015401
4328	-0.013661
4312	0.186204
4296	0.178980
4280	0.043678
4264	0.204992
4248	0.193476
4232	0.102663
4216	0.200700
4200	-0.037169
4184	0.459432
4168	-0.048851
4152	0.182533
4136	-0.057411
4120	0.067734
4104	0.258517
4088	-0.082802
4072	0.105452
4056	0.046825
4040	0.072193
4024	0.043511
4008	0.244927
3992	0.079798
3976	0.116324
3960	-0.030350
3944	0.000905
3928	0.097727
3912	-0.015950
3896	0.046205
3880	0.215411
3864	0.001382
3848	-0.065875
3832	0.143218
3816	0.185656
3800	0.077152
3784	0.010156
3768	-0.061106
3752	0.260186
3736	0.030064
3720	0.182461
3704	0.082182
3688	0.191259
3672	0.022840
3656	0.072169
3640	0.196981
3624	0.114703
3608	0.068926
3592	0.093102
3576	0.062942
3560	0.115704
3544	0.099372
3528	-0.016570
3512	0.118422
3496	0.057363
3480	0.083851
3464	0.032067
3448	0.113606
3432	0.136184
3416	0.076913
3400	-0.033664
3384	0.108957
3368	-0.007510
3352	-0.025582
3336	0.141096
3320	0.195121
3304	0.001859
3288	0.081491
3272	-0.073027
3256	0.084066
3240	0.051736
3224	-0.019097
3208	0.109839
3192	0.071430
3176	0.109028
3160	-0.071382
3144	0.111675
3128	0.025629
3112	0.090575
3096	0.124979
3080	-0.024151
3064	0.011253
3048	0.023555
3032	-0.083184
3016	0.027990
3000	0.095796
2984	0.084972
2968	-0.017833
2952	0.026559
2936	0.033640
2920	0.111007
2904	0.129961
2888	0.061297
2872	0.029826
2856	0.039267
2840	-0.021052
2824	0.039124
2808	0.105953
2792	0.015354
2776	-0.087237
2760	0.040483
2744	0.058746
2728	0.022673
2712	0.137495
2696	0.039482
2680	0.010275
2664	-0.020766
2648	-0.068902
2632	-0.004744
2616	0.086760
2600	0.010752
2584	-0.035500
2568	0.010180
2552	0.094962
2536	0.021767
2520	0.071477
2504	-0.059199
2488	-0.053334
2472	0.016546
2456	-0.079655
2440	0.117802
2424	-0.028085
2408	0.049781
2392	-0.060343
2376	0.041794
2360	-0.039696
2344	0.125122
2328	-0.032567
2312	0.011372
2296	-0.024557
2280	0.058269
2264	0.003123
2248	0.153708
2232	0.293183
2216	0.454425
2200	0.671577
2184	1.092362
2168	1.616716
2152	2.255058
2136	2.993297
2120	4.077577
2104	5.197620
2088	6.447052
2072	7.746529
2056	9.078407
2040	10.4445
2024	11.691
2008	12.9383
1992	14.2133
1976	15.2161
1960	16.3062
1944	17.1967
1928	18.0919
1912	18.6783
1896	19.444
1880	19.9667
1864	20.4468
1848	20.974
1832	21.2842
1816	21.5429
1800	21.8819
1784	22.1374
1768	22.3177
1752	22.3877
1736	22.4771
1720	22.6215
1704	22.7589
1688	22.8235
1672	22.9518
1656	22.9149
1640	23.0466
1624	23.0075
1608	22.9305
1592	22.9955
1576	22.9544
1560	23.0008
1544	22.9936
1528	22.8784
1512	22.999
1496	22.8992
1480	22.8557
1464	22.6693
1448	22.5235
1432	22.7272
1416	22.6959
1400	22.7432
1384	22.399
1368	22.5909
1352	22.4988
1336	22.3645
1320	22.386
1304	22.212
1288	22.279
1272	22.1975
1256	22.1056
1240	22.127
1224	21.9931
1208	22.0209
1192	21.9005
1176	21.8411
1160	21.7845
1144	21.7144
1128	21.5946
1112	21.2658
1096	21.2248
1080	21.0942
1064	21.1195
1048	20.8373
1032	20.8105
1016	20.5787
1000	20.466
984	 20.2444
968	 20.1555
952	 19.9167
936	 19.8305
920	 19.4585
904	 19.1679
888	 19.1963
872	 18.8592
856	 18.5412
840	 18.2408
824	 18.0861
808	 17.7321
792	 17.7721
776	 17.2658
760	 16.8618
744	 16.6662
728	 16.7734
712	 15.9716
696	 15.8784
680	 15.318
664	 14.8818
648	 14.6351
632	 14.0818
616	 13.772
600	 13.0955
584	 13.1937
568	 12.4756
552	 12.289
536	 12.5529
520	 11.4823
504	 11.2467
488	 10.4127
472	 11.6343
456	 9.268498
440	 8.414745
424	 5.712461
408	 11.4377
392	 -5.945634
376	 5.524659
370	 11.6733