File: Bakgrunnsmateriale/MATLAB/FTIR/ftir_data/CMT801/Mapping_1/CMT801_t01-um.asc
PE IR       SPECTRUM    SPECTRUM    ASCII       PEDS        1.60
  -1
CMT801~2.ASC
17/06/01
09:36:16.00
17/06/01
09:36:57.00
tln
$CMT801_t0001$<tbV0>[0.0,-7.7,9.0,0.0,22,1,0]
27.028
64

2002,4.07
MIRTGS : RIGHTBACK : INTERNAL 2
MIR : ON : INTERNAL 2
OPTKBR

0.200000
8
8.000000
FILLER
RATIO
SPECTRUM
UNLOCKED 256

DOUBLE
64
COMBINED
1
0
0

0.002000
RATIO

1
0
TRUE
51149
0
LEFT NOT FITTED RIGHT NOT FITTED 0
NONE
NONE
15600
12
4.427000
51148
TRUE
1 0 8 72 0 0 0 0

15798

#HDR
-1
-1
#GR
µM
%T
2.38419e-05
0.0
1.282000
0.002000
12874
8
63.3337
-7.139003
#DATA
1.282000	 1.126790
1.368000	 -0.975131
1.454000	 -0.109407
1.540000	 -0.524810
1.626000	 0.793976
1.712000	 0.912836
1.798000	 -0.450199
1.884000	 -0.231319
1.970000	 -0.178965
2.056000	 0.273867
2.142000	 -2.091621
2.228000	 0.088290
2.314000	 0.176021
2.400000	 0.419791
2.486000	 0.024213
2.572000	 -0.099633
2.658000	 0.022312
2.744000	 0.150430
2.830000	 0.471312
2.916000	 0.156601
3.002000	 -0.072845
3.088000	 0.121693
3.174000	 0.136783
3.260000	 0.042912
3.346000	 0.036557
3.432000	 -0.012904
3.518000	 0.094815
3.604000	 0.060983
3.690000	 0.037381
3.776000	 0.039517
3.862000	 -0.099671
3.948000	 0.061941
4.034000	 0.006951
4.120000	 -0.081593
4.206000	 0.083916
4.292000	 -0.010449
4.378000	 0.189933
4.464000	 0.086841
4.550000	 0.092416
4.636000	 0.228232
4.722000	 0.324990
4.808000	 0.146697
4.894000	 0.461203
4.980000	 0.587074
5.066000	 0.750266
5.152000	 0.802118
5.238000	 1.175174
5.324000	 1.413957
5.410000	 1.855703
5.496000	 2.392546
5.582000	 2.994618
5.668000	 3.997803
5.754000	 5.102410
5.840000	 6.803730
5.926000	 8.590369
6.012000	 10.7839
6.098000	 13.8626
6.184000	 18.1669
6.270000	 23.2029
6.356000	 27.0106
6.442000	 29.5021
6.528000	 32.7559
6.614000	 38.89
6.700000	 46.2696
6.786000	 50.1361
6.872000	 48.8808
6.958000	 45.9477
7.044000	 45.4648
7.130000	 48.2896
7.216000	 53.7232
7.302000	 58.9641
7.388000	 60.253
7.474000	 57.0216
7.560000	 52.582
7.646000	 49.5145
7.732000	 48.9022
7.818000	 50.4814
7.904000	 54.4462
7.990000	 58.836
8.076000	 61.953
8.161999	 62.205
8.248000	 59.5615
8.334000	 55.884
8.420000	 51.9954
8.506000	 50.0134
8.592000	 49.666
8.678000	 50.5086
8.763999	 53.3026
8.850000	 56.459
8.936000	 59.916
9.022000	 62.0808
9.108000	 62.5538
9.193999	 61.5685
9.280000	 58.6924
9.366000	 55.6323
9.452000	 52.8736
9.538000	 50.832
9.624000	 49.835
9.710000	 49.718
9.795999	 51.1578
9.882000	 52.7502
9.968000	 55.1553
10.054	57.7353
10.14	60.3104
10.226	62.2846
10.312	63.0165
10.398	62.7514
10.484	61.5816
10.57	59.6136
10.656	56.8504
10.742	54.7417
10.828	52.9267
10.914	51.4442
11	50.6578
11.086	50.2949
11.172	50.3292
11.258	51.0287
11.344	52.2741
11.43	53.8216
11.516	55.7613
11.602	57.7059
11.688	59.31
11.774	61.1297
11.86	62.6293
11.946	63.2292
12.032	63.2768
12.118	62.8515
12.204	61.7926
12.29	60.2533
12.376	58.3222
12.462	56.6925
12.548	55.357
12.634	54.0278
12.72	52.7792
12.806	51.7209
12.892	50.9317
12.978	50.5734
13.064	50.6036
13.15	50.7313
13.236	51.2606
13.322	52.0418
13.408	53.0046
13.494	54.0224
13.58	55.1254
13.666	56.6018
13.752	57.922
13.838	59.0519
13.924	60.3974
14.01	61.5866
14.096	62.4073
14.182	63.0223
14.268	63.3198
14.354	63.2389
14.44	62.7414
14.526	61.879
14.612	61.0748
14.698	60.2868
14.784	59.2776
14.87	58.0518
14.956	56.7896
15.042	55.8313
15.128	54.8778
15.214	53.6917
15.3	52.7662
15.386	52.1966
15.472	51.7195
15.558	51.2802
15.644	50.7809
15.73	50.2224
15.816	49.8894
15.902	49.9798
15.988	50.3895
16.074	50.9088
16.16	51.366
16.246	51.6611
16.332	51.8737
16.418	52.3914
16.504	53.412
16.59	54.5183
16.676	55.3648
16.762	56.1755
16.848	57.1993
16.934	58.3164
17.02	59.298
17.106	60.0148
17.192	60.4766
17.278	60.8693
17.364	61.4152
17.45	62.1174
17.536	62.7416
17.622	63.0707
17.708	63.0671
17.794	62.8426
17.88	62.5552
17.966	62.2748
18.052	61.9469
18.138	61.532
18.224	61.1153
18.31	60.7767
18.396	60.4253
18.482	59.8729
18.568	59.0468
18.654	58.0581
18.74	57.0782
18.826	56.2059
18.912	55.4356
18.998	54.6928
19.084	53.9314
19.17	53.2385
19.256	52.789
19.342	52.6504
19.428	52.6694
19.514	52.6053
19.6	52.3294
19.686	51.9061
19.772	51.4783
19.858	51.1194
19.944	50.822
20.03	50.5775
20.116	50.4231
20.202	50.3528
20.288	50.3038
20.374	50.2304
20.46	50.1864
20.546	50.2931
20.632	50.6197
20.718	51.1155
20.804	51.6479
20.89	52.1033
20.976	52.4484
21.062	52.753
21.148	53.1534
21.234	53.7663
21.32	54.5459
21.406	55.249
21.492	55.5784
21.578	55.4295
21.664	55.0084
21.75	54.7167
21.836	54.8936
21.922	55.5983
22.008	56.5988
22.094	57.5684
22.18	58.3
22.266	58.7944
22.352	59.1822
22.438	59.5844
22.524	60.0225
22.61	60.4402
22.696	60.7791
22.782	61.0468
22.868	61.2897
22.954	61.5473
23.04	61.817
23.126	62.0215
23.212	62.0848
23.298	61.9561
23.384	61.6331
23.47	61.1498
23.556	60.5498
23.642	59.8882
23.728	59.2063
23.814	58.5816
23.9	58.1161
23.986	57.8911
24.072	57.9363
24.158	58.1388
24.244	58.2664
24.33	58.0147
24.416	57.1161
24.502	55.4195
24.588	52.9707
24.674	50.0437
24.76	47.1149
24.846	44.6562
24.932	42.9838
25.018	42.1074
25.104	41.751
25.19	41.4646
25.276	40.8613
25.362	39.7439
25.448	38.1021
25.534	36.014
25.62	33.5602
25.706	30.8775
25.792	28.1186
25.878	25.4957
25.964	23.3759
26.05	22.1568
26.136	22.1093
26.222	23.2747
26.308	25.376
26.394	27.8703
26.48	30.047
26.566	31.2708
26.652	31.2339
26.738	30.0859
26.824	28.3833
26.91	26.9105
26.996	26.4936
27.028	26.5685