File: Bakgrunnsmateriale/MATLAB/FTIR/ftir_data/CMT801/Mapping_1/CMT801_t01_cm-1.asc
PE IR       SPECTRUM    SPECTRUM    ASCII       PEDS        1.60
  -1
CMT801~1.ASC
17/06/01
09:36:16.00
17/06/01
09:36:16.00
tln
$CMT801_t0001$<tbV0>[0.0,-7.7,9.0,0.0,22,1,0]
370
64

2002,4.07
MIRTGS : RIGHTBACK : INTERNAL 2
MIR : ON : INTERNAL 2
OPTKBR

0.200000
8
8.000000
FILLER
RATIO
SPECTRUM
UNLOCKED 256

DOUBLE
64
COMBINED
1
0
0

1.000000
RATIO

1
0
TRUE
51149
0
LEFT NOT FITTED RIGHT NOT FITTED 0
NONE
NONE
15600
12
4.427000
51148
TRUE
1 0 8 72 0 0 0 0

15798

#HDR
-1
-1
#GR
CM-1
%T
2.38419e-05
0.0
7800
-1.000000
7431
8
63.333
-11.3376
#DATA
7800	1.126790
7775	10.897
7750	1.005315
7725	5.549669
7700	3.308248
7675	4.614949
7650	3.348684
7625	-0.396132
7600	1.544189
7575	1.932072
7550	3.774046
7525	0.345897
7500	2.103996
7475	-1.198959
7450	1.311492
7425	2.003931
7400	0.309467
7375	-0.001955
7350	2.271580
7325	0.402045
7300	-1.070737
7275	-1.310634
7250	1.850152
7225	2.310824
7200	-0.811052
7175	0.910186
7150	-0.624299
7125	0.263118
7100	1.878857
7075	-0.075101
7050	-1.511216
7025	0.050401
7000	2.918958
6975	-0.639128
6950	1.020359
6925	0.424480
6900	-0.882458
6875	-0.131869
6850	-0.212931
6825	0.499963
6800	1.110744
6775	0.692248
6750	-0.554847
6725	0.671625
6700	0.914812
6675	-0.483012
6650	1.324272
6625	1.253342
6600	1.572489
6575	-1.761746
6550	-0.058531
6525	0.214433
6500	-1.015067
6475	0.241494
6450	0.196790
6425	0.636029
6400	-0.677108
6375	-0.956463
6350	-0.461721
6325	0.343751
6300	1.105237
6275	-0.370287
6250	1.578593
6225	0.260996
6200	0.393533
6175	-0.052809
6150	0.787997
6125	0.987339
6100	0.205397
6075	-0.229859
6050	0.304317
6025	0.193238
6000	-0.519108
5975	0.589299
5950	0.011920
5925	-0.500631
5900	-0.075173
5875	0.392174
5850	0.408816
5825	0.119304
5800	-0.133848
5775	0.181841
5750	0.150680
5725	0.427889
5700	0.266098
5675	0.094652
5650	-0.116729
5625	0.837159
5600	-0.452733
5575	1.024889
5550	0.133013
5525	0.428748
5500	0.140690
5475	0.441551
5450	0.060033
5425	0.616574
5400	0.007390
5375	-0.149583
5350	-0.002050
5325	0.689220
5300	-0.279378
5275	0.094866
5250	-0.454211
5225	-0.967049
5200	0.241160
5175	0.268912
5150	0.330305
5125	-0.085449
5100	0.118589
5075	-0.130105
5050	0.339031
5025	0.062632
5000	0.279903
4975	0.039339
4950	0.425362
4925	0.261330
4900	0.013852
4875	-0.047063
4850	0.273132
4825	0.418853
4800	0.465917
4775	0.037312
4750	0.059819
4725	-0.169754
4700	-0.064039
4675	-0.922656
4650	-1.329755
4625	0.200867
4600	0.576496
4575	0.045347
4550	-0.034093
4525	-0.095081
4500	0.198101
4475	-0.094985
4450	-0.109958
4425	-0.272059
4400	0.001883
4375	0.030326
4350	-0.092816
4325	0.174164
4300	0.339603
4275	0.256967
4250	-0.166511
4225	0.076556
4200	0.261878
4175	0.616264
4150	-0.044107
4125	0.145626
4100	0.176262
4075	0.000214
4050	0.253939
4025	0.026988
4000	-0.002455
3975	0.085186
3950	0.187349
3925	0.187373
3900	-0.024056
3875	0.141835
3850	0.101590
3825	0.262856
3800	0.052952
3775	0.155735
3750	-0.014066
3725	0.081920
3700	-0.069856
3675	0.078320
3650	0.246524
3625	0.029730
3600	-0.170683
3575	0.418353
3550	-0.310134
3525	0.261592
3500	0.417995
3475	0.478219
3450	-0.224089
3425	0.042796
3400	0.105714
3375	0.052642
3350	-0.077795
3325	-0.121951
3300	-0.055313
3275	0.188136
3250	0.129532
3225	0.096559
3200	0.097274
3175	0.055098
3150	0.149631
3125	0.002241
3100	-0.098252
3075	-0.082063
3050	0.003433
3025	0.067925
3000	0.014424
2975	0.130105
2950	-0.052547
2925	0.065231
2900	0.008964
2875	0.056624
2850	-0.066041
2825	0.062441
2800	0.018906
2775	0.061607
2750	0.015473
2725	0.110650
2700	0.132441
2675	-0.008893
2650	0.043654
2625	-0.042366
2600	0.197815
2575	0.051760
2550	0.116086
2525	0.147557
2500	0.162100
2475	0.068974
2450	0.120472
2425	-0.094127
2400	0.069642
2375	0.069284
2350	0.057625
2325	0.025916
2300	0.127410
2275	0.241875
2250	0.213885
2225	0.260090
2200	0.117635
2175	0.212740
2150	0.130796
2125	0.306916
2100	0.277543
2075	0.020051
2050	0.400638
2025	0.427675
2000	0.639557
1975	0.756454
1950	0.827574
1925	0.944185
1900	1.182699
1875	1.458024
1850	1.837706
1825	2.301025
1800	2.745604
1775	3.486824
1750	4.672884
1725	5.992317
1700	7.603287
1675	9.585952
1650	12.4298
1625	16.501
1600	22.1172
1575	26.7898
1550	29.7348
1525	34.6566
1500	43.3558
1475	50.0473
1450	47.9551
1425	45.2154
1400	48.9633
1375	57.5045
1350	59.8905
1325	53.2448
1300	48.9381
1275	51.5239
1250	59.2622
1225	62.1898
1200	55.9182
1175	49.9116
1150	51.028
1125	57.8844
1100	62.59
1075	57.8564
1050	51.1102
1025	50.3158
1000	56.0003
975	 62.6475
950	 60.7508
925	 53.286
900	 50.1965
875	 53.7956
850	 60.9319
825	 62.8208
800	 56.0834
775	 50.8557
750	 52.156
725	 58.4466
700	 63.333
675	 58.861
650	 52.2047
625	 50.4601
600	 55.2816
575	 61.6288
550	 61.3124
525	 54.2537
500	 50.6544
475	 52.7175
450	 58.566
425	 60.7443
400	 42.2363
375	 31.1112
370	 26.5685