File: Bakgrunnsmateriale/MATLAB/FTIR/ftir_data/subBb/Mapping_121/C-4040-8_t61_cm-1.asc
PE IR       SPECTRUM    SPECTRUM    ASCII       PEDS        1.60
  -1
C-9CE4~1.ASC
17/03/27
19:28:22.00
17/03/27
19:28:22.00
tln
$C-4040-8_t0061$<tbV0>[0.0,0.0,8.0,0.0,27,1,0]
370
64

2002,4.07
MIRTGS : RIGHTBACK : INTERNAL 2
MIR : ON : INTERNAL 2
OPTKBR

0.200000
8
8.000000
FILLER
RATIO
SPECTRUM
UNLOCKED 256

DOUBLE
64
COMBINED
1
0
0

1.000000
RATIO

1
0
TRUE
51149
0
LEFT NOT FITTED RIGHT NOT FITTED 0
NONE
NONE
15600
12
4.427000
51148
TRUE
1 0 8 72 0 0 0 0

15798

#HDR
-1
-1
#GR
CM-1
%T
2.38419e-05
0.0
5000
-1.000000
4631
8
122.199
38.6222
#DATA
5000	64.952
4984	65.7723
4968	65.7294
4952	64.6852
4936	65.0363
4920	65.1817
4904	65.387
4888	64.9324
4872	65.169
4856	64.7465
4840	64.9551
4824	65.0796
4808	64.8273
4792	65.0154
4776	65.0597
4760	65.1204
4744	64.3755
4728	64.4175
4712	64.779
4696	64.5375
4680	64.7601
4664	64.3115
4648	64.5163
4632	64.6137
4616	64.3141
4600	64.4684
4584	64.9949
4568	65.0403
4552	64.66
4536	65.1099
4520	65.4514
4504	65.7612
4488	65.7243
4472	65.7349
4456	65.9956
4440	66.1978
4424	66.4073
4408	67.1139
4392	65.8769
4376	63.7249
4360	39.9808
4344	66.9038
4328	66.2838
4312	65.8137
4296	66.4136
4280	66.6177
4264	65.7278
4248	65.5149
4232	65.8442
4216	65.5977
4200	65.3997
4184	65.9535
4168	64.8059
4152	65.2933
4136	64.939
4120	64.6959
4104	64.9988
4088	64.796
4072	64.8483
4056	64.9384
4040	64.7595
4024	64.8336
4008	64.9419
3992	64.7952
3976	64.9267
3960	64.9078
3944	64.9392
3928	64.8576
3912	65.0946
3896	65.1934
3880	65.2612
3864	64.9327
3848	65.5619
3832	64.9988
3816	65.3272
3800	65.3579
3784	65.2555
3768	65.3584
3752	65.4737
3736	65.1067
3720	65.119
3704	65.0564
3688	65.293
3672	65.0283
3656	65.1624
3640	65.1475
3624	65.0725
3608	64.9931
3592	64.9355
3576	65.2559
3560	65.0138
3544	65.1125
3528	65.2493
3512	64.998
3496	65.0896
3480	65.0907
3464	65.1088
3448	65.0878
3432	65.5999
3416	65.2307
3400	65.151
3384	65.379
3368	65.4045
3352	65.112
3336	65.2491
3320	65.1344
3304	65.2383
3288	65.1367
3272	65.1273
3256	65.4508
3240	65.034
3224	64.9306
3208	64.9461
3192	64.8194
3176	65.3331
3160	65.1589
3144	64.9042
3128	65.5536
3112	65.019
3096	65.5267
3080	65.1478
3064	65.2672
3048	65.3129
3032	65.1005
3016	65.2678
3000	65.1935
2984	65.2769
2968	65.1527
2952	65.2112
2936	65.123
2920	64.8743
2904	65.2084
2888	65.0561
2872	65.3458
2856	65.1095
2840	65.1552
2824	65.204
2808	65.2389
2792	65.1301
2776	65.2172
2760	65.1988
2744	65.3396
2728	65.3383
2712	65.2622
2696	65.3315
2680	65.1533
2664	65.1751
2648	65.2197
2632	65.2987
2616	65.2493
2600	65.25
2584	65.319
2568	65.3095
2552	65.5099
2536	65.2184
2520	65.2389
2504	65.4758
2488	65.258
2472	65.2499
2456	65.2325
2440	65.4219
2424	65.6668
2408	65.1441
2392	65.2882
2376	65.2597
2360	65.2787
2344	65.3262
2328	65.2497
2312	65.2436
2296	65.3367
2280	65.2287
2264	65.2803
2248	65.3872
2232	65.4033
2216	65.3684
2200	65.1513
2184	65.2887
2168	65.3185
2152	65.5065
2136	65.5116
2120	65.2835
2104	65.3346
2088	65.3436
2072	64.9638
2056	65.4723
2040	65.2777
2024	65.3355
2008	65.3218
1992	65.371
1976	65.3649
1960	65.3176
1944	65.4294
1928	65.4231
1912	65.379
1896	65.3973
1880	65.3078
1864	65.4245
1848	65.251
1832	65.4577
1816	65.4272
1800	65.3836
1784	65.2673
1768	65.3779
1752	65.2369
1736	65.0318
1720	64.963
1704	65.3279
1688	65.3252
1672	65.1337
1656	65.1837
1640	65.3393
1624	65.2565
1608	65.0954
1592	65.0691
1576	65.3309
1560	65.0798
1544	65.0376
1528	65.075
1512	65.14
1496	64.9284
1480	65.2041
1464	65.248
1448	65.071
1432	65.1749
1416	65.1485
1400	65.1711
1384	65.2536
1368	65.185
1352	65.1134
1336	65.0626
1320	64.9757
1304	64.9595
1288	64.9775
1272	65.0202
1256	65.0543
1240	65.0751
1224	65.1302
1208	65.0515
1192	65.1332
1176	64.9122
1160	64.8592
1144	65.0649
1128	64.7187
1112	64.6044
1096	65.2705
1080	64.6781
1064	64.3698
1048	64.488
1032	64.5344
1016	64.3887
1000	65.1758
984	 65.0056
968	 64.4426
952	 64.6872
936	 64.5885
920	 64.6684
904	 64.3909
888	 64.4715
872	 64.2882
856	 64.5731
840	 64.7086
824	 64.4244
808	 64.5966
792	 64.1221
776	 64.4127
760	 63.8905
744	 63.3436
728	 63.4658
712	 63.6389
696	 63.9917
680	 63.1791
664	 63.0214
648	 62.8641
632	 62.6127
616	 62.9645
600	 61.8294
584	 62.3233
568	 62.4116
552	 62.1112
536	 61.6588
520	 60.415
504	 60.7295
488	 60.2749
472	 59.4887
456	 59.7484
440	 58.7819
424	 58.0174
408	 68.2814
392	 118.276
376	 98.6499
370	 63.2499