File: Bakgrunnsmateriale/MATLAB/FTIR/ftir_data/subBb/Mapping_121/C-4040-8_t12.asc
PE IR       SPECTRUM    SPECTRUM    ASCII       PEDS        1.60
  -1
C-A922~1.ASC
17/03/27
15:26:56.00
17/03/27
15:27:23.00
tln
$C-4040-8_t0012$<tbV0>[13.0,-10.4,8.0,0.0,27,1,0]
27.028
64

2002,4.07
MIRTGS : RIGHTBACK : INTERNAL 2
MIR : ON : INTERNAL 2
OPTKBR

0.200000
8
8.000000
FILLER
RATIO
SPECTRUM
UNLOCKED 256

DOUBLE
64
COMBINED
1
0
0

0.002000
RATIO

1
0
TRUE
51149
0
LEFT NOT FITTED RIGHT NOT FITTED 0
NONE
NONE
15600
12
4.427000
51148
TRUE
1 0 8 72 0 0 0 0

15798

#HDR
-1
-1
#GR
µM
%T
2.38419e-05
0.0
2.000000
0.002000
12515
8
125.763
43.4785
#DATA
2.000000	 64.4721
2.084000	 64.9421
2.168000	 64.827
2.252000	 67.676
2.336000	 64.5703
2.420000	 65.0651
2.504000	 65.1881
2.588000	 65.1266
2.672000	 65.4117
2.756000	 65.3908
2.840000	 65.1152
2.924000	 65.0023
3.008000	 65.0835
3.092000	 65.1106
3.176000	 65.1959
3.260000	 65.3254
3.344000	 65.2803
3.428000	 65.1042
3.512000	 65.2034
3.596000	 65.1876
3.680000	 65.2178
3.764000	 65.2425
3.848000	 65.2998
3.932000	 65.3357
4.016000	 65.2915
4.100000	 65.4718
4.184000	 65.2593
4.268000	 65.2995
4.352000	 65.3214
4.436000	 65.2551
4.520000	 65.2952
4.604000	 65.2052
4.688000	 65.3877
4.772000	 65.3642
4.856000	 65.2291
4.940000	 65.1696
5.024000	 65.3535
5.108000	 65.3067
5.192000	 65.3286
5.276000	 65.4442
5.359999	 65.3527
5.444000	 65.2541
5.528000	 65.52
5.612000	 65.4685
5.696000	 65.4222
5.780000	 65.3304
5.864000	 65.61
5.948000	 65.6373
6.032000	 65.5454
6.116000	 65.4363
6.200000	 65.3246
6.284000	 65.2634
6.368000	 65.3695
6.452000	 65.3497
6.536000	 65.4396
6.620000	 65.6422
6.704000	 65.2582
6.788000	 65.4913
6.872000	 65.6347
6.956000	 65.1348
7.040000	 65.4291
7.124000	 65.2554
7.208000	 65.2017
7.292000	 65.0963
7.376000	 65.0065
7.460000	 65.2714
7.544000	 65.2058
7.628000	 64.9948
7.712000	 65.159
7.796000	 65.0816
7.880000	 65.01
7.964000	 65.057
8.048000	 64.9983
8.132000	 65.1372
8.216000	 65.075
8.300000	 64.9774
8.384000	 64.9916
8.468000	 64.9458
8.552000	 64.9802
8.635999	 64.9588
8.719999	 64.9592
8.804000	 64.964
8.888000	 64.9561
8.972000	 64.937
9.056000	 64.9912
9.140000	 64.8573
9.224000	 64.8811
9.308000	 64.7211
9.391999	 64.8162
9.475999	 64.9363
9.560000	 65.0282
9.644000	 64.9338
9.728000	 64.9449
9.812000	 64.5321
9.896000	 64.5411
9.980000	 64.6512
10.064	64.7537
10.148	65.0944
10.232	65.0554
10.316	64.5919
10.4	64.6061
10.484	64.5275
10.568	64.5511
10.652	64.546
10.736	64.6296
10.82	64.5482
10.904	64.8781
10.988	64.707
11.072	64.4846
11.156	64.0052
11.24	64.3122
11.324	64.4473
11.408	64.3001
11.492	64.3999
11.576	64.3187
11.66	64.493
11.744	64.5844
11.828	64.4309
11.912	64.2876
11.996	64.2201
12.08	64.2473
12.164	64.3403
12.248	64.5028
12.332	64.3241
12.416	64.2766
12.5	64.2137
12.584	64.0306
12.668	64.1175
12.752	64.2748
12.836	64.2271
12.92	64.1128
13.004	63.9354
13.088	63.8229
13.172	64.0165
13.256	64.3727
13.34	64.3955
13.424	64.3419
13.508	64.0504
13.592	63.6049
13.676	63.4813
13.76	63.4314
13.844	63.3005
13.928	63.2478
14.012	63.232
14.096	63.113
14.18	62.9178
14.264	62.9395
14.348	63.2527
14.432	63.3735
14.516	63.2708
14.6	63.2586
14.684	63.1813
14.768	62.966
14.852	62.8939
14.936	62.9567
15.02	62.9365
15.104	62.9276
15.188	63.0569
15.272	63.1949
15.356	63.2804
15.44	63.3838
15.524	63.4303
15.608	63.3307
15.692	63.2317
15.776	63.251
15.86	63.2444
15.944	63.1135
16.028	62.9541
16.112	62.8603
16.196	62.86
16.28	62.8913
16.364	62.8278
16.448	62.6717
16.532	62.5054
16.616	62.3334
16.7	62.2081
16.784	62.2738
16.868	62.5158
16.952	62.7133
17.036	62.7194
17.12	62.6277
17.204	62.6367
17.288	62.7971
17.372	63.0137
17.456	63.1893
17.54	63.2445
17.624	63.1543
17.708	62.9782
17.792	62.7687
17.876	62.5148
17.96	62.2228
18.044	61.9784
18.128	61.8731
18.212	61.8989
18.296	61.958
18.38	61.9548
18.464	61.8616
18.548	61.7175
18.632	61.5889
18.716	61.5405
18.8	61.6038
18.884	61.7222
18.968	61.7533
19.052	61.5697
19.136	61.2099
19.22	60.8691
19.304	60.7242
19.388	60.7912
19.472	60.961
19.556	61.1039
19.64	61.1356
19.724	61.0495
19.808	60.9465
19.892	60.9969
19.976	61.2813
20.06	61.6491
20.144	61.8105
20.228	61.6095
20.312	61.1657
20.396	60.7533
20.48	60.5649
20.564	60.6045
20.648	60.7583
20.732	60.9283
20.816	61.0886
20.9	61.2248
20.984	61.2643
21.068	61.1013
21.152	60.6828
21.236	60.0877
21.32	59.5084
21.404	59.138
21.488	59.0648
21.572	59.2388
21.656	59.5451
21.74	59.8722
21.824	60.1407
21.908	60.2947
21.992	60.2969
22.076	60.1614
22.16	59.9834
22.244	59.9048
22.328	60.0345
22.412	60.3648
22.496	60.7418
22.58	60.9664
22.664	60.8887
22.748	60.4834
22.832	59.842
22.916	59.0718
23	58.238
23.084	57.3546
23.168	56.4349
23.252	55.5596
23.336	54.9061
23.42	54.6877
23.504	55.0741
23.588	56.0542
23.672	57.4252
23.756	58.8594
23.84	59.9509
23.924	60.4032
24.008	60.0403
24.092	58.7667
24.176	56.6606
24.26	53.9318
24.344	50.8774
24.428	47.8426
24.512	45.3342
24.596	43.8123
24.68	43.5218
24.764	44.3638
24.848	45.8887
24.932	47.6447
25.016	49.4766
25.1	51.5589
25.184	54.1862
25.268	57.5656
25.352	61.7184
25.436	66.9524
25.52	73.8449
25.604	82.909
25.688	94.0447
25.772	106.063
25.856	116.845
25.94	123.99
26.024	125.597
26.108	121.158
26.192	111.702
26.276	99.3286
26.36	86.6719
26.444	75.8281
26.528	67.8369
26.612	62.7651
26.696	60.0747
26.78	59.1167
26.864	59.4373
26.948	60.7135
27.028	62.2865