File: Bakgrunnsmateriale/MATLAB/FTIR/ftir_data/subBb/Mapping_121/C-4040-8_t66_cm-1.asc
PE IR       SPECTRUM    SPECTRUM    ASCII       PEDS        1.60
  -1
C-9C6E~1.ASC
17/03/27
19:51:26.00
17/03/27
19:51:26.00
tln
$C-4040-8_t0066$<tbV0>[-13.0,0.0,8.0,0.0,27,1,0]
370
64

2002,4.07
MIRTGS : RIGHTBACK : INTERNAL 2
MIR : ON : INTERNAL 2
OPTKBR

0.200000
8
8.000000
FILLER
RATIO
SPECTRUM
UNLOCKED 256

DOUBLE
64
COMBINED
1
0
0

1.000000
RATIO

1
0
TRUE
51149
0
LEFT NOT FITTED RIGHT NOT FITTED 0
NONE
NONE
15600
12
4.427000
51148
TRUE
1 0 8 72 0 0 0 0

15798

#HDR
-1
-1
#GR
CM-1
%T
2.38419e-05
0.0
5000
-1.000000
4631
8
91.7939
43.4314
#DATA
5000	64.4802
4984	65.0952
4968	64.4176
4952	64.9456
4936	65.1033
4920	64.6276
4904	65.4623
4888	64.6817
4872	64.951
4856	64.4672
4840	64.9488
4824	64.6419
4808	64.7738
4792	65.0703
4776	65.0822
4760	64.279
4744	64.215
4728	64.4963
4712	64.7595
4696	64.6646
4680	64.2869
4664	64.4272
4648	64.6481
4632	64.59
4616	64.4057
4600	64.8704
4584	64.8907
4568	65.0661
4552	64.7879
4536	65.4752
4520	64.8733
4504	65.6512
4488	65.3234
4472	66.066
4456	65.6028
4440	66.5944
4424	66.1921
4408	66.4177
4392	63.8576
4376	43.9944
4360	61.276
4344	66.5569
4328	66.1322
4312	66.0547
4296	65.9465
4280	66.0173
4264	65.5689
4248	65.2144
4232	65.5927
4216	65.373
4200	64.7211
4184	65.4038
4168	64.5333
4152	64.8025
4136	65.0076
4120	64.6741
4104	64.5757
4088	64.9118
4072	64.8848
4056	64.623
4040	64.9134
4024	64.6506
4008	64.791
3992	64.865
3976	65.0079
3960	64.7609
3944	65.1726
3928	65.0951
3912	65.1817
3896	64.9798
3880	65.047
3864	65.1765
3848	65.1944
3832	65.0111
3816	65.2727
3800	65.0263
3784	65.1921
3768	65.1055
3752	65.0017
3736	65.2618
3720	65.0839
3704	65.1499
3688	65.1175
3672	65.0296
3656	64.9951
3640	65.0992
3624	64.7611
3608	65.1606
3592	64.9553
3576	65.1568
3560	64.9817
3544	64.7906
3528	64.9535
3512	64.9458
3496	65.0182
3480	65.3557
3464	64.9698
3448	65.0394
3432	65.3287
3416	65.2244
3400	65.3959
3384	65.141
3368	65.0007
3352	65.1144
3336	65.2556
3320	65.1335
3304	65.0582
3288	64.972
3272	65.1058
3256	65.1648
3240	64.8397
3224	64.9951
3208	64.9871
3192	65.0102
3176	65.139
3160	65.2586
3144	64.8871
3128	64.9916
3112	65.1222
3096	64.9155
3080	65.0733
3064	65.2479
3048	65.2789
3032	65.0429
3016	65.2832
3000	65.1137
2984	65.1751
2968	65.1311
2952	65.0407
2936	65.0291
2920	64.8696
2904	65.0688
2888	65.0839
2872	65.2768
2856	64.9385
2840	65.172
2824	64.9457
2808	65.0451
2792	65.0172
2776	65.1647
2760	65.1412
2744	65.178
2728	65.1232
2712	65.1572
2696	65.0307
2680	65.1843
2664	65.2257
2648	65.2511
2632	65.2085
2616	65.2791
2600	65.1827
2584	65.2611
2568	65.1814
2552	65.373
2536	65.2289
2520	65.1622
2504	65.0965
2488	65.1834
2472	65.2341
2456	65.3663
2440	65.3752
2424	65.3711
2408	65.341
2392	65.3754
2376	65.2014
2360	65.2292
2344	65.2457
2328	65.2718
2312	65.1488
2296	65.2432
2280	65.0358
2264	65.1956
2248	65.4658
2232	65.3591
2216	65.1339
2200	65.2176
2184	65.1716
2168	65.3538
2152	65.3149
2136	65.1961
2120	65.2269
2104	65.2999
2088	65.1392
2072	65.1114
2056	65.61
2040	65.1485
2024	65.2346
2008	65.2247
1992	65.1772
1976	65.2846
1960	65.2505
1944	65.2292
1928	65.2647
1912	65.2421
1896	65.2974
1880	65.2791
1864	65.1587
1848	65.2199
1832	65.29
1816	65.1685
1800	65.236
1784	65.1922
1768	65.1768
1752	65.2093
1736	65.0285
1720	65.0862
1704	65.2909
1688	65.2557
1672	65.0474
1656	65.0753
1640	65.0581
1624	65.1515
1608	65.0734
1592	64.9972
1576	65.0242
1560	64.834
1544	65.0407
1528	65.0485
1512	64.9773
1496	65.1683
1480	65.0952
1464	64.8946
1448	64.8027
1432	64.9612
1416	65.0379
1400	65.0599
1384	64.8989
1368	64.9697
1352	64.9641
1336	64.828
1320	64.963
1304	64.9275
1288	65.1195
1272	64.8853
1256	65.0728
1240	65.0283
1224	64.8969
1208	64.9693
1192	64.9257
1176	64.8823
1160	64.9649
1144	65.0212
1128	64.9081
1112	64.8083
1096	64.5204
1080	65.1291
1064	65.0457
1048	64.7117
1032	64.8328
1016	64.7357
1000	64.4122
984	 64.7973
968	 64.5016
952	 64.9458
936	 64.4832
920	 64.7343
904	 64.649
888	 64.6952
872	 64.328
856	 64.4285
840	 64.2984
824	 64.6622
808	 64.6333
792	 64.0317
776	 64.0283
760	 63.9113
744	 64.5005
728	 63.7796
712	 63.9945
696	 64.1713
680	 63.2173
664	 63.4987
648	 63.1755
632	 63.38
616	 63.5572
600	 63.5842
584	 62.4833
568	 62.7065
552	 62.9229
536	 62.1084
520	 62.1454
504	 62.4286
488	 62.0783
472	 60.8982
456	 60.7874
440	 60.9335
424	 63.3076
408	 61.1864
392	 87.1901
376	 91.2765
370	 68.8189