File: Bakgrunnsmateriale/MATLAB/FTIR/ftir_data/subBb/Mapping_121/C-4040-8_e125.asc
PE IR       SPECTRUM    SPECTRUM    ASCII       PEDS        1.60
  -1
C-70D3~1.ASC
17/03/27
19:57:10.00
17/03/27
19:57:37.00
tln
$C-4040-8_e0125$<ebV0>[-23.3,12.1,10.0,0.0,27,1,0]
27.028
64

2002,4.07
MIRTGS : RIGHTBACK : INTERNAL 2
MIR : ON : INTERNAL 2
OPTKBR

0.200000
8
8.000000
FILLER
SINGLE
SPECTRUM
UNLOCKED 256

DOUBLE

COMBINED
1
0
0

0.002000
BACKG

1
0
TRUE
51149
0
LEFT NOT FITTED RIGHT NOT FITTED 0
NONE
NONE
15600
12
4.427000
51148
TRUE
1 0 8 72 0 0 0 0

15798

#HDR
-1
-1
#GR
µM
EGY
2.38419e-05
0.0
2.000000
0.002000
12515
8
2.460194
0.008773
#DATA
2.000000	 0.764894
2.084000	 0.864051
2.168000	 0.926296
2.252000	 1.012540
2.336000	 1.140642
2.420000	 1.229226
2.504000	 1.386578
2.588000	 1.443763
2.672000	 1.547845
2.756000	 1.572173
2.840000	 1.623305
2.924000	 1.584388
3.008000	 1.686627
3.092000	 1.781092
3.176000	 1.810770
3.260000	 1.930234
3.344000	 2.030859
3.428000	 1.839696
3.512000	 2.010360
3.596000	 2.213159
3.680000	 2.248631
3.764000	 2.217393
3.848000	 2.226605
3.932000	 2.295841
4.016000	 2.326608
4.100000	 2.283584
4.184000	 2.247536
4.268000	 2.263372
4.352000	 2.341065
4.436000	 2.379554
4.520000	 2.368153
4.604000	 2.338440
4.688000	 2.333689
4.772000	 2.337296
4.856000	 2.387604
4.940000	 2.441221
5.024000	 2.456251
5.108000	 2.429044
5.192000	 2.400525
5.276000	 2.371438
5.359999	 2.381831
5.444000	 2.405222
5.528000	 2.428248
5.612000	 2.428346
5.696000	 2.395261
5.780000	 2.323760
5.864000	 2.285711
5.948000	 2.237941
6.032000	 2.190835
6.116000	 2.141456
6.200000	 2.009704
6.284000	 2.018432
6.368000	 1.981995
6.452000	 1.960616
6.536000	 2.099399
6.620000	 2.085926
6.704000	 1.691340
6.788000	 1.973248
6.872000	 1.792347
6.956000	 1.861181
7.040000	 1.856047
7.124000	 1.727069
7.208000	 1.786337
7.292000	 1.813387
7.376000	 1.816105
7.460000	 1.814494
7.544000	 1.847686
7.628000	 1.857350
7.712000	 1.854477
7.796000	 1.848328
7.880000	 1.773360
7.964000	 1.760206
8.048000	 1.834634
8.132000	 1.824459
8.216000	 1.785515
8.300000	 1.741721
8.384000	 1.741695
8.468000	 1.712260
8.552000	 1.675681
8.635999	 1.622757
8.719999	 1.604902
8.804000	 1.573543
8.888000	 1.525625
8.972000	 1.470937
9.056000	 1.432822
9.140000	 1.426901
9.224000	 1.430556
9.308000	 1.428969
9.391999	 1.438881
9.475999	 1.359568
9.560000	 1.327412
9.644000	 1.385101
9.728000	 1.370991
9.812000	 1.366324
9.896000	 1.381753
9.980000	 1.398486
10.064	1.396399
10.148	1.385542
10.232	1.369860
10.316	1.345515
10.4	1.320369
10.484	1.286887
10.568	1.265545
10.652	1.252868
10.736	1.240004
10.82	1.221227
10.904	1.201802
10.988	1.174567
11.072	1.155696
11.156	1.144351
11.24	1.125157
11.324	1.074710
11.408	1.028927
11.492	1.045308
11.576	1.081937
11.66	1.093949
11.744	1.086966
11.828	1.073901
11.912	1.052365
11.996	0.988054
12.08	0.879671
12.164	0.851689
12.248	0.913800
12.332	0.945717
12.416	0.946317
12.5	0.944876
12.584	0.954941
12.668	0.968599
12.752	0.976729
12.836	0.977206
12.92	0.974484
13.004	0.970716
13.088	0.966056
13.172	0.961856
13.256	0.957580
13.34	0.951818
13.424	0.942921
13.508	0.933871
13.592	0.926496
13.676	0.914219
13.76	0.899257
13.844	0.884680
13.928	0.871622
14.012	0.860732
14.096	0.850023
14.18	0.837013
14.264	0.819122
14.348	0.796577
14.432	0.767714
14.516	0.740458
14.6	0.731392
14.684	0.734083
14.768	0.733319
14.852	0.727924
14.936	0.720391
15.02	0.712957
15.104	0.705947
15.188	0.697073
15.272	0.686476
15.356	0.675754
15.44	0.665542
15.524	0.656142
15.608	0.647685
15.692	0.639463
15.776	0.630529
15.86	0.620969
15.944	0.611949
16.028	0.604054
16.112	0.595951
16.196	0.585824
16.28	0.572020
16.364	0.554399
16.448	0.536778
16.532	0.525128
16.616	0.521760
16.7	0.522929
16.784	0.523470
16.868	0.521045
16.952	0.516333
17.036	0.511228
17.12	0.507091
17.204	0.504014
17.288	0.501840
17.372	0.500359
17.456	0.498718
17.54	0.495952
17.624	0.491940
17.708	0.487373
17.792	0.483043
17.876	0.478976
17.96	0.474952
18.044	0.470526
18.128	0.465746
18.212	0.460840
18.296	0.456223
18.38	0.452058
18.464	0.448071
18.548	0.443944
18.632	0.439534
18.716	0.434829
18.8	0.429674
18.884	0.424011
18.968	0.418143
19.052	0.412533
19.136	0.407050
19.22	0.401389
19.304	0.395395
19.388	0.389472
19.472	0.384025
19.556	0.379023
19.64	0.374058
19.724	0.368872
19.808	0.363271
19.892	0.357337
19.976	0.351062
20.06	0.344365
20.144	0.337206
20.228	0.329622
20.312	0.321894
20.396	0.314161
20.48	0.306421
20.564	0.298767
20.648	0.291126
20.732	0.283662
20.816	0.276510
20.9	0.269885
20.984	0.263925
21.068	0.258591
21.152	0.253883
21.236	0.249429
21.32	0.244803
21.404	0.239593
21.488	0.233608
21.572	0.226800
21.656	0.219345
21.74	0.211538
21.824	0.203679
21.908	0.196127
21.992	0.189092
22.076	0.182921
22.16	0.177602
22.244	0.173160
22.328	0.169353
22.412	0.165921
22.496	0.162385
22.58	0.158482
22.664	0.154033
22.748	0.149104
22.832	0.143898
22.916	0.138730
23	0.133746
23.084	0.128976
23.168	0.124424
23.252	0.120003
23.336	0.115725
23.42	0.111564
23.504	0.107471
23.588	0.103266
23.672	0.098814
23.756	0.094095
23.84	0.089151
23.924	0.084249
24.008	0.079554
24.092	0.075244
24.176	0.071295
24.26	0.067656
24.344	0.064247
24.428	0.060849
24.512	0.057391
24.596	0.053895
24.68	0.050373
24.764	0.046939
24.848	0.043749
24.932	0.040942
25.016	0.038566
25.1	0.036680
25.184	0.035174
25.268	0.033961
25.352	0.032897
25.436	0.031772
25.52	0.030444
25.604	0.028842
25.688	0.026915
25.772	0.024732
25.856	0.022413
25.94	0.020106
26.024	0.017983
26.108	0.016149
26.192	0.014707
26.276	0.013617
26.36	0.012852
26.444	0.012273
26.528	0.011811
26.612	0.011406
26.696	0.010964
26.78	0.010509
26.864	0.009947
26.948	0.009366
27.028	0.008773