File: Bakgrunnsmateriale/MATLAB/FTIR/ftir_data/subBb/Mapping_121/C-4040-8_e127_cm-1.asc
PE IR       SPECTRUM    SPECTRUM    ASCII       PEDS        1.60
  -1
C-3CCF~1.ASC
17/03/27
23:34:24.00
17/03/27
23:34:24.00
tln
$C-4040-8_e0127$<ebV0>[-23.3,12.1,10.0,0.0,27,1,0]
370
64

2002,4.07
MIRTGS : RIGHTBACK : INTERNAL 2
MIR : ON : INTERNAL 2
OPTKBR

0.200000
8
8.000000
FILLER
SINGLE
SPECTRUM
UNLOCKED 256

DOUBLE

COMBINED
1
0
0

1.000000
BACKG

1
0
TRUE
51149
0
LEFT NOT FITTED RIGHT NOT FITTED 0
NONE
NONE
15600
12
4.427000
51148
TRUE
1 0 8 72 0 0 0 0

15798

#HDR
-1
-1
#GR
CM-1
EGY
2.38419e-05
0.0
5000
-1.000000
4631
8
2.459764
0.008606
#DATA
5000	0.766658
4984	0.769519
4968	0.779771
4952	0.787901
4936	0.789499
4920	0.795507
4904	0.802588
4888	0.810098
4872	0.822806
4856	0.825667
4840	0.836920
4824	0.849843
4808	0.857543
4792	0.868701
4776	0.878238
4760	0.889110
4744	0.891256
4728	0.900149
4712	0.900506
4696	0.904560
4680	0.908422
4664	0.907993
4648	0.913023
4632	0.919580
4616	0.928544
4600	0.933289
4584	0.942230
4568	0.952863
4552	0.959968
4536	0.977468
4520	0.985670
4504	0.990462
4488	0.992560
4472	0.996565
4456	0.990200
4440	0.991940
4424	0.980091
4408	0.971674
4392	1.212453
4376	1.022458
4360	1.041078
4344	1.058769
4328	1.076221
4312	1.094198
4296	1.114201
4280	1.129508
4264	1.149058
4248	1.159858
4232	1.172780
4216	1.176857
4200	1.187348
4184	1.205778
4168	1.212906
4152	1.217770
4136	1.229047
4120	1.239371
4104	1.260900
4088	1.275110
4072	1.296138
4056	1.321411
4040	1.345109
4024	1.364827
4008	1.380515
3992	1.391601
3976	1.397895
3960	1.408147
3944	1.412558
3928	1.417636
3912	1.424765
3896	1.430225
3880	1.435351
3864	1.444792
3848	1.457452
3832	1.479554
3816	1.491594
3800	1.510190
3784	1.531314
3768	1.547908
3752	1.544952
3736	1.554608
3720	1.570296
3704	1.572012
3688	1.565098
3672	1.561760
3656	1.571536
3640	1.577782
3624	1.577234
3608	1.584744
3592	1.594686
3576	1.605892
3560	1.612997
3544	1.623344
3528	1.622986
3512	1.626944
3496	1.619768
3480	1.613640
3464	1.601052
3448	1.594161
3432	1.583337
3416	1.588988
3400	1.595997
3384	1.606774
3368	1.620125
3352	1.646280
3336	1.669979
3320	1.692485
3304	1.718759
3288	1.735162
3272	1.757812
3256	1.764869
3240	1.784491
3224	1.786708
3208	1.789045
3192	1.792502
3176	1.794505
3160	1.803398
3144	1.817274
3128	1.833939
3112	1.851177
3096	1.884150
3080	1.912689
3064	1.934623
3048	1.963233
3032	1.972198
3016	1.962327
3000	2.020645
2984	2.022337
2968	1.957750
2952	1.917719
2936	1.813912
2920	1.802110
2904	1.944375
2888	1.996064
2872	1.982712
2856	1.929545
2840	2.070307
2824	2.129268
2808	2.164697
2792	2.194881
2776	2.227210
2760	2.242112
2744	2.255535
2728	2.256345
2712	2.250623
2696	2.240252
2680	2.232360
2664	2.223825
2648	2.216362
2632	2.218246
2616	2.219724
2600	2.224516
2584	2.240324
2568	2.263331
2552	2.279806
2536	2.301025
2520	2.315664
2504	2.325034
2488	2.325010
2472	2.317214
2456	2.302098
2440	2.287387
2424	2.278852
2408	2.250337
2392	2.248644
2376	2.240657
2360	2.236080
2344	2.261161
2328	2.282381
2312	2.318525
2296	2.343010
2280	2.364110
2264	2.373266
2248	2.379798
2232	2.382540
2216	2.371788
2200	2.355718
2184	2.345824
2168	2.334809
2152	2.333688
2136	2.335143
2120	2.336192
2104	2.337479
2088	2.339935
2072	2.354073
2056	2.392411
2040	2.425336
2024	2.441787
2008	2.454137
1992	2.457928
1976	2.444481
1960	2.432417
1944	2.420377
1928	2.406263
1912	2.385020
1896	2.374362
1880	2.375555
1864	2.388215
1848	2.393722
1832	2.408385
1816	2.426981
1800	2.431750
1784	2.433133
1768	2.414822
1752	2.388119
1736	2.333807
1720	2.309441
1704	2.276897
1688	2.252864
1672	2.228045
1656	2.183079
1640	2.156400
1624	2.107119
1608	1.974725
1592	2.016067
1576	1.989078
1560	1.933836
1544	1.959276
1528	2.105641
1512	2.092814
1496	1.701116
1480	1.957273
1464	1.934862
1448	1.783943
1432	1.868438
1416	1.843690
1400	1.731514
1384	1.785492
1368	1.817083
1352	1.814866
1336	1.827192
1320	1.851415
1304	1.855516
1288	1.858353
1272	1.805019
1256	1.757073
1240	1.835298
1224	1.812505
1208	1.747083
1192	1.737499
1176	1.698255
1160	1.628398
1144	1.595091
1128	1.538848
1112	1.453399
1096	1.422929
1080	1.427006
1064	1.436448
1048	1.305818
1032	1.378917
1016	1.365900
1000	1.401352
984	 1.380443
968	 1.343441
952	 1.286458
936	 1.252293
920	 1.213455
904	 1.157426
888	 1.124143
872	 1.038384
856	 1.099705
840	 1.054978
824	 0.844001
808	 0.949001
792	 0.959610
776	 0.977015
760	 0.965118
744	 0.934815
728	 0.904965
712	 0.859951
696	 0.790071
680	 0.737571
664	 0.706505
648	 0.665831
632	 0.621700
616	 0.577211
600	 0.524282
584	 0.509119
568	 0.491166
552	 0.464606
536	 0.436162
520	 0.398325
504	 0.363683
488	 0.305461
472	 0.250720
456	 0.193524
440	 0.150752
424	 0.098252
408	 0.050711
392	 0.030517
376	 0.010800
370	 0.008606