File: Bakgrunnsmateriale/MATLAB/FTIR/ftir_data/subBb/Mapping_121/C-4040-8_t17_cm-1.asc
PE IR       SPECTRUM    SPECTRUM    ASCII       PEDS        1.60
  -1
C-1AEF~1.ASC
17/03/27
15:50:00.00
17/03/27
15:50:00.00
tln
$C-4040-8_t0017$<tbV0>[0.0,-10.4,8.0,0.0,27,1,0]
370
64

2002,4.07
MIRTGS : RIGHTBACK : INTERNAL 2
MIR : ON : INTERNAL 2
OPTKBR

0.200000
8
8.000000
FILLER
RATIO
SPECTRUM
UNLOCKED 256

DOUBLE
64
COMBINED
1
0
0

1.000000
RATIO

1
0
TRUE
51149
0
LEFT NOT FITTED RIGHT NOT FITTED 0
NONE
NONE
15600
12
4.427000
51148
TRUE
1 0 8 72 0 0 0 0

15798

#HDR
-1
-1
#GR
CM-1
%T
2.38419e-05
0.0
5000
-1.000000
4631
8
70.4563
35.0217
#DATA
5000	63.8445
4984	64.6886
4968	63.5722
4952	63.2438
4936	63.2823
4920	63.7392
4904	64.5663
4888	63.8696
4872	63.8331
4856	63.8422
4840	64.4272
4824	63.4012
4808	63.4496
4792	63.7285
4776	63.9431
4760	63.4716
4744	64.1952
4728	63.4851
4712	64.0542
4696	63.8497
4680	63.6318
4664	63.8861
4648	63.5152
4632	63.8465
4616	63.4836
4600	63.9346
4584	63.5673
4568	64.0739
4552	63.8615
4536	63.5591
4520	63.8914
4504	63.9948
4488	63.4584
4472	63.9905
4456	65.5833
4440	66.4435
4424	62.2191
4408	61.9383
4392	61.8616
4376	64.3841
4360	65.9013
4344	64.1453
4328	64.127
4312	63.5662
4296	64.0387
4280	63.4209
4264	63.7266
4248	63.5683
4232	63.7818
4216	63.6742
4200	63.1633
4184	63.1638
4168	63.2034
4152	63.8542
4136	63.1325
4120	63.6086
4104	63.4107
4088	63.6426
4072	63.4662
4056	63.4686
4040	63.4968
4024	63.5903
4008	63.6343
3992	63.7377
3976	62.9537
3960	63.4761
3944	63.3981
3928	63.3263
3912	63.2253
3896	63.5064
3880	63.1529
3864	63.4486
3848	63.524
3832	63.4677
3816	63.2668
3800	63.4785
3784	63.3343
3768	63.2256
3752	63.6108
3736	63.3168
3720	63.3126
3704	63.1692
3688	63.3842
3672	63.405
3656	63.1388
3640	62.8412
3624	62.9044
3608	62.7543
3592	62.9649
3576	62.6748
3560	62.7721
3544	62.5593
3528	62.8291
3512	62.4597
3496	62.6741
3480	62.7325
3464	62.66
3448	62.454
3432	62.1495
3416	62.2295
3400	62.2112
3384	62.4193
3368	62.2515
3352	61.8972
3336	62.2214
3320	61.8966
3304	62.0981
3288	62.0001
3272	61.8755
3256	61.9474
3240	61.8257
3224	61.8388
3208	61.9037
3192	61.6484
3176	61.5237
3160	61.6229
3144	61.368
3128	61.3709
3112	61.3011
3096	61.3699
3080	61.1374
3064	61.2863
3048	61.232
3032	61.0279
3016	61.0492
3000	61.0831
2984	60.8018
2968	60.8421
2952	60.7368
2936	60.694
2920	60.3075
2904	60.4012
2888	60.589
2872	60.3976
2856	60.1506
2840	60.435
2824	60.4089
2808	60.2742
2792	60.1506
2776	60.0159
2760	60.041
2744	59.9872
2728	59.8782
2712	59.7663
2696	59.9585
2680	59.7351
2664	59.6334
2648	59.518
2632	59.4685
2616	59.3475
2600	59.2737
2584	59.1515
2568	59.0462
2552	59.2042
2536	58.956
2520	59.1112
2504	58.7859
2488	58.6912
2472	58.651
2456	58.5557
2440	58.5392
2424	58.4051
2408	58.1477
2392	58.2039
2376	58.1188
2360	58.0695
2344	58.1052
2328	57.9683
2312	57.8289
2296	57.5577
2280	57.617
2264	57.5791
2248	57.4125
2232	57.2674
2216	57.1372
2200	57.0759
2184	56.8577
2168	56.9471
2152	56.8904
2136	56.7531
2120	56.6311
2104	56.4836
2088	56.458
2072	56.277
2056	56.2015
2040	56.2049
2024	56.0541
2008	55.8923
1992	55.8445
1976	55.7448
1960	55.5681
1944	55.5212
1928	55.4482
1912	55.3977
1896	55.2201
1880	55.1326
1864	54.9891
1848	54.9334
1832	54.7233
1816	54.7446
1800	54.6489
1784	54.5449
1768	54.4623
1752	54.4226
1736	54.1664
1720	54.2168
1704	54.1127
1688	54.0163
1672	53.8321
1656	53.8472
1640	53.5169
1624	53.3774
1608	53.209
1592	53.0131
1576	52.9888
1560	53.2107
1544	53.1341
1528	52.821
1512	52.9107
1496	52.5333
1480	52.2046
1464	52.2599
1448	51.9952
1432	52.0122
1416	51.9304
1400	51.5223
1384	51.6022
1368	51.3843
1352	51.305
1336	51.1753
1320	51.1209
1304	50.8433
1288	50.7113
1272	50.6009
1256	50.3992
1240	50.2953
1224	50.3113
1208	50.1318
1192	50.0366
1176	49.8869
1160	49.9202
1144	49.6214
1128	49.4245
1112	49.2941
1096	48.9594
1080	49.1267
1064	49.0346
1048	48.6766
1032	48.6278
1016	48.5215
1000	48.1713
984	 48.539
968	 48.0554
952	 47.4571
936	 47.9403
920	 47.3562
904	 46.661
888	 47.1009
872	 46.9073
856	 46.7554
840	 46.3394
824	 46.5989
808	 46.2854
792	 46.0644
776	 45.9256
760	 45.7742
744	 45.4665
728	 45.1886
712	 44.9395
696	 44.7139
680	 44.1076
664	 43.438
648	 43.6862
632	 42.9093
616	 42.774
600	 42.6007
584	 42.64
568	 42.2462
552	 41.4136
536	 40.7393
520	 39.9506
504	 39.3995
488	 39.4557
472	 38.1953
456	 36.6391
440	 37.4705
424	 36.657
408	 35.4402
392	 40.3572
376	 43.5855
370	 45.8502