File: Bakgrunnsmateriale/MATLAB/FTIR/ftir_data/subBb/Mapping_121/C-4040-8_t105_cm-1.asc
PE IR       SPECTRUM    SPECTRUM    ASCII       PEDS        1.60
  -1
C-4A8C~1.ASC
17/03/27
23:05:52.00
17/03/27
23:05:52.00
tln
$C-4040-8_t0105$<tbV0>[0.0,10.4,8.0,0.0,27,1,0]
370
64

2002,4.07
MIRTGS : RIGHTBACK : INTERNAL 2
MIR : ON : INTERNAL 2
OPTKBR

0.200000
8
8.000000
FILLER
RATIO
SPECTRUM
UNLOCKED 256

DOUBLE
64
COMBINED
1
0
0

1.000000
RATIO

1
0
TRUE
51149
0
LEFT NOT FITTED RIGHT NOT FITTED 0
NONE
NONE
15600
12
4.427000
51148
TRUE
1 0 8 72 0 0 0 0

15798

#HDR
-1
-1
#GR
CM-1
%T
2.38419e-05
0.0
5000
-1.000000
4631
8
200
41.867
#DATA
5000	64.6339
4984	65.2185
4968	65.0741
4952	65.1119
4936	64.4123
4920	64.9268
4904	64.9877
4888	64.8599
4872	65.1862
4856	64.9214
4840	64.3052
4824	65.0346
4808	65.0458
4792	65.2059
4776	65.0838
4760	65.2758
4744	64.7633
4728	65.082
4712	65.2691
4696	65.4889
4680	65.0539
4664	64.9853
4648	65.3991
4632	65.668
4616	64.9491
4600	64.6898
4584	65.3428
4568	64.8913
4552	65.2708
4536	63.9338
4520	64.914
4504	63.7071
4488	63.9399
4472	64.0839
4456	63.6288
4440	64.1421
4424	63.6635
4408	64.8423
4392	82.3423
4376	66.7493
4360	63.6677
4344	64.1115
4328	64.2514
4312	64.6012
4296	64.2515
4280	63.9608
4264	65.1472
4248	64.272
4232	64.3967
4216	64.8076
4200	64.6776
4184	64.749
4168	64.8291
4152	64.6275
4136	65.244
4120	65.2389
4104	65.0515
4088	65.128
4072	65.0339
4056	65.1839
4040	65.3934
4024	65.1855
4008	65.2309
3992	65.2665
3976	65.0639
3960	65.2777
3944	64.971
3928	65.0023
3912	65.0305
3896	64.8343
3880	65.293
3864	65.1354
3848	64.7794
3832	64.981
3816	65.1554
3800	64.9898
3784	64.9787
3768	65.286
3752	65.2418
3736	65.1118
3720	65.3892
3704	65.3677
3688	65.4263
3672	65.4069
3656	65.3123
3640	65.2513
3624	65.1922
3608	65.2585
3592	65.3557
3576	65.3207
3560	65.2529
3544	65.2515
3528	65.3767
3512	65.3574
3496	65.2239
3480	64.8429
3464	65.3921
3448	65.0084
3432	65.1985
3416	65.223
3400	65.153
3384	64.9212
3368	65.2136
3352	65.0635
3336	65.1162
3320	65.0317
3304	65.1142
3288	65.0576
3272	65.2884
3256	64.9796
3240	65.18
3224	65.1765
3208	65.2747
3192	65.1759
3176	65.2521
3160	65.4584
3144	65.0866
3128	65.7949
3112	65.3936
3096	65.3829
3080	65.0298
3064	65.0605
3048	65.2257
3032	65.1112
3016	65.1231
3000	65.3037
2984	65.0402
2968	65.1122
2952	65.0042
2936	65.0936
2920	64.9187
2904	65.2618
2888	64.9926
2872	65.1798
2856	65.1111
2840	65.1568
2824	65.1943
2808	65.1468
2792	65.3944
2776	65.261
2760	65.1323
2744	65.3217
2728	65.2234
2712	65.2566
2696	65.2296
2680	65.2354
2664	65.3609
2648	65.349
2632	65.1871
2616	65.109
2600	65.1307
2584	65.1817
2568	65.2272
2552	65.216
2536	65.2171
2520	65.237
2504	65.2093
2488	65.4658
2472	65.3128
2456	65.2568
2440	65.1476
2424	65.3271
2408	65.0652
2392	65.2674
2376	65.2453
2360	65.1726
2344	65.2991
2328	65.3575
2312	65.2092
2296	65.2588
2280	65.3539
2264	65.2291
2248	65.2313
2232	65.2448
2216	65.3252
2200	65.1823
2184	65.1694
2168	65.3523
2152	65.3557
2136	65.3335
2120	65.2162
2104	65.2522
2088	65.1667
2072	65.7595
2056	65.2456
2040	65.2819
2024	65.2544
2008	65.2973
1992	65.2177
1976	65.2414
1960	65.3712
1944	65.3296
1928	65.3444
1912	65.13
1896	65.2111
1880	65.2558
1864	65.2736
1848	65.3946
1832	65.3714
1816	65.2982
1800	65.1431
1784	65.1574
1768	65.2972
1752	65.2056
1736	65.0307
1720	65.0031
1704	65.1981
1688	65.2268
1672	65.314
1656	65.1037
1640	65.2848
1624	65.0632
1608	64.9636
1592	65.1263
1576	64.9733
1560	64.893
1544	65.192
1528	65.0636
1512	64.9802
1496	65.1932
1480	65.0248
1464	65.178
1448	65.0637
1432	64.9729
1416	65.1415
1400	65.212
1384	65.1031
1368	65.1303
1352	65.1736
1336	64.9168
1320	64.9432
1304	64.8982
1288	65.0784
1272	64.9655
1256	65.14
1240	65.093
1224	64.8433
1208	64.9619
1192	64.9285
1176	64.9729
1160	64.9468
1144	64.7884
1128	64.7416
1112	64.9708
1096	64.39
1080	64.6028
1064	64.7719
1048	64.8967
1032	64.6403
1016	64.4116
1000	64.5715
984	 64.6965
968	 64.7976
952	 64.8055
936	 64.6324
920	 64.9393
904	 64.5855
888	 64.5651
872	 64.8231
856	 64.3406
840	 64.6272
824	 64.1651
808	 64.2365
792	 64.3146
776	 63.9608
760	 63.707
744	 63.0755
728	 63.7135
712	 63.3172
696	 63.1518
680	 63.5241
664	 63.0445
648	 63.0834
632	 62.3126
616	 62.3631
600	 62.202
584	 62.1864
568	 62.4318
552	 61.7669
536	 61.9137
520	 61.2177
504	 61.1139
488	 61.9367
472	 60.1815
456	 58.7999
440	 59.8051
424	 56.9973
408	 48.0507
392	 59.9909
376	 156.261
370	 195.093