File: Bakgrunnsmateriale/MATLAB/FTIR/ftir_data/subBb/Mapping_121/C-4040-8_t05.asc
PE IR       SPECTRUM    SPECTRUM    ASCII       PEDS        1.60
  -1
C-B52E~1.ASC
17/03/27
14:54:02.00
17/03/27
14:54:28.00
tln
$C-4040-8_t0005$<tbV0>[2.6,-13.0,8.0,0.0,27,1,0]
27.028
64

2002,4.07
MIRTGS : RIGHTBACK : INTERNAL 2
MIR : ON : INTERNAL 2
OPTKBR

0.200000
8
8.000000
FILLER
RATIO
SPECTRUM
UNLOCKED 256

DOUBLE
64
COMBINED
1
0
0

0.002000
RATIO

1
0
TRUE
51149
0
LEFT NOT FITTED RIGHT NOT FITTED 0
NONE
NONE
15600
12
4.427000
51148
TRUE
1 0 8 72 0 0 0 0

15798

#HDR
-1
-1
#GR
µM
%T
2.38419e-05
0.0
2.000000
0.002000
12515
8
70.2186
16.9963
#DATA
2.000000	 63.3142
2.084000	 63.019
2.168000	 63.9505
2.252000	 67.685
2.336000	 63.5891
2.420000	 63.3631
2.504000	 63.0715
2.588000	 63.2354
2.672000	 63.1362
2.756000	 62.5607
2.840000	 62.0773
2.924000	 61.6974
3.008000	 61.3821
3.092000	 61.042
3.176000	 60.9836
3.260000	 60.6432
3.344000	 60.3282
3.428000	 59.7776
3.512000	 59.481
3.596000	 59.2788
3.680000	 58.8984
3.764000	 58.556
3.848000	 58.144
3.932000	 57.9831
4.016000	 57.5061
4.100000	 57.3065
4.184000	 57.0161
4.268000	 56.6896
4.352000	 56.4557
4.436000	 56.057
4.520000	 55.8624
4.604000	 55.5211
4.688000	 55.3354
4.772000	 55.0102
4.856000	 54.6621
4.940000	 54.3889
5.024000	 54.3309
5.108000	 54.0487
5.192000	 53.7824
5.276000	 53.6609
5.359999	 53.3097
5.444000	 53.0877
5.528000	 52.9143
5.612000	 52.6995
5.696000	 52.5808
5.780000	 52.3361
5.864000	 52.1317
5.948000	 52.0673
6.032000	 51.9631
6.116000	 51.6065
6.200000	 51.4259
6.284000	 51.0937
6.368000	 51.0101
6.452000	 50.9516
6.536000	 50.8183
6.620000	 50.7239
6.704000	 50.4842
6.788000	 50.33
6.872000	 50.137
6.956000	 49.9128
7.040000	 49.9349
7.124000	 49.5654
7.208000	 49.5565
7.292000	 49.2138
7.376000	 49.1289
7.460000	 48.9812
7.544000	 48.9006
7.628000	 48.7494
7.712000	 48.664
7.796000	 48.4734
7.880000	 48.4312
7.964000	 48.3202
8.048000	 48.2517
8.132000	 48.1593
8.216000	 48.0254
8.300000	 47.8768
8.384000	 47.7972
8.468000	 47.5776
8.552000	 47.4301
8.635999	 47.4885
8.719999	 47.3693
8.804000	 47.2532
8.888000	 47.1731
8.972000	 46.957
9.056000	 46.9177
9.140000	 47.0041
9.224000	 46.8688
9.308000	 46.6212
9.391999	 46.688
9.475999	 46.4903
9.560000	 46.5922
9.644000	 46.517
9.728000	 46.3271
9.812000	 46.2648
9.896000	 46.193
9.980000	 46.114
10.064	45.9431
10.148	45.8801
10.232	45.7207
10.316	45.5724
10.4	45.5764
10.484	45.369
10.568	45.2067
10.652	45.3232
10.736	45.3065
10.82	45.0842
10.904	45.1012
10.988	44.8323
11.072	44.7431
11.156	44.5615
11.24	44.6145
11.324	44.6953
11.408	44.5371
11.492	44.2205
11.576	43.8845
11.66	44.2951
11.744	44.5656
11.828	44.2026
11.912	43.8601
11.996	43.6985
12.08	43.9616
12.164	44.2652
12.248	44.0677
12.332	43.6574
12.416	43.5031
12.5	43.7296
12.584	43.2792
12.668	43.0446
12.752	43.6092
12.836	43.6967
12.92	43.5193
13.004	43.549
13.088	43.1566
13.172	42.6388
13.256	42.6366
13.34	42.8478
13.424	42.9418
13.508	42.7032
13.592	42.2851
13.676	42.2289
13.76	42.3459
13.844	42.2218
13.928	42.157
14.012	42.1182
14.096	41.9959
14.18	41.8038
14.264	41.7253
14.348	41.857
14.432	41.842
14.516	41.6526
14.6	41.4386
14.684	41.1401
14.768	40.8683
14.852	40.8081
14.936	40.9189
15.02	41.0204
15.104	41.183
15.188	41.3951
15.272	41.3427
15.356	41.072
15.44	40.9015
15.524	40.7868
15.608	40.5497
15.692	40.378
15.776	40.4627
15.86	40.5538
15.944	40.4632
16.028	40.3366
16.112	40.2431
16.196	40.1408
16.28	40.0763
16.364	40.0531
16.448	39.9666
16.532	39.7663
16.616	39.5519
16.7	39.4429
16.784	39.4066
16.868	39.332
16.952	39.196
17.036	39.0137
17.12	38.7802
17.204	38.5838
17.288	38.5267
17.372	38.5363
17.456	38.4777
17.54	38.389
17.624	38.4113
17.708	38.5229
17.792	38.53
17.876	38.3082
17.96	37.9562
18.044	37.6751
18.128	37.5782
18.212	37.6304
18.296	37.7316
18.38	37.8078
18.464	37.8274
18.548	37.7927
18.632	37.7485
18.716	37.7599
18.8	37.8313
18.884	37.8492
18.968	37.666
19.052	37.2543
19.136	36.7482
19.22	36.3217
19.304	36.0658
19.388	35.9707
19.472	35.9851
19.556	36.0326
19.64	36.0313
19.724	35.9575
19.808	35.8976
19.892	35.9807
19.976	36.2338
20.06	36.5075
20.144	36.5695
20.228	36.2804
20.312	35.6869
20.396	34.9817
20.48	34.4013
20.564	34.1309
20.648	34.2305
20.732	34.6208
20.816	35.1267
20.9	35.5517
20.984	35.7494
21.068	35.6666
21.152	35.351
21.236	34.9216
21.32	34.512
21.404	34.198
21.488	33.9595
21.572	33.7281
21.656	33.4923
21.74	33.3436
21.824	33.4082
21.908	33.7221
21.992	34.1743
22.076	34.5721
22.16	34.7716
22.244	34.7579
22.328	34.6052
22.412	34.3941
22.496	34.1433
22.58	33.8493
22.664	33.5428
22.748	33.2966
22.832	33.1628
22.916	33.1109
23	33.0436
23.084	32.8787
23.168	32.6502
23.252	32.5187
23.336	32.6831
23.42	33.2562
23.504	34.1687
23.588	35.1532
23.672	35.8737
23.756	36.0641
23.84	35.6199
23.924	34.6427
24.008	33.3355
24.092	31.8954
24.176	30.4966
24.26	29.2191
24.344	28.0973
24.428	27.1478
24.512	26.3633
24.596	25.6764
24.68	24.9602
24.764	24.0688
24.848	22.8763
24.932	21.3734
25.016	19.7272
25.1	18.2388
25.184	17.2513
25.268	17.0176
25.352	17.6473
25.436	19.1567
25.52	21.4911
25.604	24.5711
25.688	28.3123
25.772	32.6284
25.856	37.3879
25.94	42.3017
26.024	46.8859
26.108	50.5453
26.192	52.7542
26.276	53.1479
26.36	51.6856
26.444	48.5164
26.528	43.9989
26.612	38.6599
26.696	33.3097
26.78	28.98
26.864	26.7496
26.948	27.3343
27.028	30.4032