File: Bakgrunnsmateriale/MATLAB/FTIR/ftir_data/subBb/Mapping_121/C-4040-8_t67_cm-1.asc
PE IR       SPECTRUM    SPECTRUM    ASCII       PEDS        1.60
  -1
C-9CEF~1.ASC
17/03/27
20:02:48.00
17/03/27
20:02:48.00
tln
$C-4040-8_t0067$<tbV0>[13.0,2.6,8.0,0.0,27,1,0]
370
64

2002,4.07
MIRTGS : RIGHTBACK : INTERNAL 2
MIR : ON : INTERNAL 2
OPTKBR

0.200000
8
8.000000
FILLER
RATIO
SPECTRUM
UNLOCKED 256

DOUBLE
64
COMBINED
1
0
0

1.000000
RATIO

1
0
TRUE
51149
0
LEFT NOT FITTED RIGHT NOT FITTED 0
NONE
NONE
15600
12
4.427000
51148
TRUE
1 0 8 72 0 0 0 0

15798

#HDR
-1
-1
#GR
CM-1
%T
2.38419e-05
0.0
5000
-1.000000
4631
8
66.8074
34.8902
#DATA
5000	64.984
4984	65.0484
4968	64.6324
4952	65.3318
4936	65.121
4920	65.3706
4904	64.9485
4888	65.0965
4872	64.8416
4856	65.1995
4840	64.8943
4824	64.7086
4808	65.0173
4792	64.2876
4776	64.4794
4760	64.6984
4744	64.8174
4728	64.9576
4712	64.5961
4696	64.518
4680	64.8386
4664	64.7099
4648	64.8865
4632	65.1169
4616	65.1534
4600	64.8817
4584	64.967
4568	65.3551
4552	65.296
4536	65.333
4520	65.7677
4504	65.7437
4488	65.7467
4472	65.3601
4456	65.7457
4440	65.6003
4424	65.568
4408	65.2802
4392	61.9563
4376	51.6882
4360	65.1317
4344	66.5914
4328	66.1178
4312	66.0324
4296	65.9792
4280	65.6224
4264	65.7463
4248	65.4173
4232	65.628
4216	65.3205
4200	65.0562
4184	65.7422
4168	64.9762
4152	65.1327
4136	64.9064
4120	64.6744
4104	64.8417
4088	64.9519
4072	64.7953
4056	64.8941
4040	64.7847
4024	64.9666
4008	65.1358
3992	65.0153
3976	64.9823
3960	65.1006
3944	64.9413
3928	65.1385
3912	65.2837
3896	65.3435
3880	65.1471
3864	65.2834
3848	65.143
3832	65.0638
3816	65.1649
3800	65.2286
3784	64.9433
3768	65.0951
3752	65.0612
3736	65.2612
3720	65.1883
3704	65.1192
3688	65.1559
3672	65.0996
3656	65.1852
3640	64.9808
3624	65.3039
3608	65.1034
3592	65.1748
3576	65.3112
3560	65.2365
3544	65.0581
3528	65.1615
3512	65.0552
3496	65.0926
3480	65.2219
3464	65.3873
3448	65.3525
3432	65.1069
3416	65.3325
3400	64.856
3384	65.2014
3368	65.1491
3352	65.1717
3336	65.2824
3320	65.1087
3304	65.1475
3288	65.2476
3272	65.1611
3256	65.1097
3240	64.9037
3224	64.9288
3208	65.1066
3192	65.1097
3176	65.0094
3160	65.091
3144	65.3961
3128	64.9142
3112	64.9426
3096	65.2786
3080	65.0203
3064	65.2429
3048	65.0936
3032	64.9968
3016	65.0988
3000	64.9923
2984	65.0625
2968	64.9544
2952	64.9892
2936	64.9507
2920	64.8423
2904	64.968
2888	65.1752
2872	64.9359
2856	65.1221
2840	65.0423
2824	65.1772
2808	65.2143
2792	65.2007
2776	65.2547
2760	65.3493
2744	65.196
2728	65.1178
2712	65.2984
2696	65.2481
2680	65.15
2664	65.2561
2648	65.1714
2632	65.3738
2616	65.1518
2600	65.1396
2584	65.3924
2568	65.1906
2552	65.2396
2536	65.1915
2520	65.2733
2504	64.9309
2488	65.2002
2472	65.3543
2456	65.1753
2440	65.2633
2424	64.9243
2408	65.1118
2392	65.2354
2376	65.2943
2360	65.1876
2344	65.1804
2328	65.1863
2312	65.2959
2296	65.1718
2280	65.3452
2264	65.3093
2248	65.3026
2232	65.3226
2216	65.2495
2200	65.1763
2184	65.2825
2168	65.364
2152	65.1367
2136	65.4112
2120	65.2313
2104	65.3561
2088	65.2844
2072	65.3329
2056	65.1412
2040	65.3084
2024	65.2613
2008	65.3974
1992	65.2013
1976	65.1945
1960	65.2901
1944	65.2206
1928	65.1816
1912	65.257
1896	65.2079
1880	65.2217
1864	65.2777
1848	65.1707
1832	65.2139
1816	65.3702
1800	65.2995
1784	65.2423
1768	65.1637
1752	65.2228
1736	65.0069
1720	65.1321
1704	65.0443
1688	65.1849
1672	65.0594
1656	65.0701
1640	65.1422
1624	65.0282
1608	64.8554
1592	64.9539
1576	64.9158
1560	64.9036
1544	65.0265
1528	65.0742
1512	64.9065
1496	65.1022
1480	64.9408
1464	65.0244
1448	64.836
1432	65.0954
1416	64.9436
1400	65.0721
1384	64.9417
1368	65.0902
1352	64.8884
1336	64.9933
1320	64.8849
1304	64.8981
1288	65.081
1272	64.8768
1256	64.9035
1240	64.7212
1224	64.9301
1208	64.7583
1192	64.7517
1176	64.6437
1160	64.6602
1144	64.7565
1128	64.7323
1112	64.5617
1096	64.3684
1080	64.3672
1064	64.6602
1048	64.6203
1032	64.4844
1016	64.3152
1000	64.2806
984	 64.8059
968	 64.4926
952	 64.6452
936	 64.6144
920	 65.0969
904	 64.8033
888	 64.538
872	 64.3483
856	 64.1605
840	 64.3734
824	 64.0804
808	 64.1402
792	 63.7181
776	 64.056
760	 63.6367
744	 64.0078
728	 63.5483
712	 63.1538
696	 63.1937
680	 63.0069
664	 61.9025
648	 62.3476
632	 62.1035
616	 61.6339
600	 62.1017
584	 61.9371
568	 60.8359
552	 61.1404
536	 60.7944
520	 60.5082
504	 60.6107
488	 60.2286
472	 58.9515
456	 60.8342
440	 57.3657
424	 57.7818
408	 59.7283
392	 37.814
376	 64.1546
370	 49.2285