File: Bakgrunnsmateriale/MATLAB/FTIR/ftir_data/subBb/Mapping_121/C-4040-8_t67.asc
PE IR       SPECTRUM    SPECTRUM    ASCII       PEDS        1.60
  -1
C-BD36~1.ASC
17/03/27
20:02:48.00
17/03/27
20:03:14.00
tln
$C-4040-8_t0067$<tbV0>[13.0,2.6,8.0,0.0,27,1,0]
27.028
64

2002,4.07
MIRTGS : RIGHTBACK : INTERNAL 2
MIR : ON : INTERNAL 2
OPTKBR

0.200000
8
8.000000
FILLER
RATIO
SPECTRUM
UNLOCKED 256

DOUBLE
64
COMBINED
1
0
0

0.002000
RATIO

1
0
TRUE
51149
0
LEFT NOT FITTED RIGHT NOT FITTED 0
NONE
NONE
15600
12
4.427000
51148
TRUE
1 0 8 72 0 0 0 0

15798

#HDR
-1
-1
#GR
µM
%T
2.38419e-05
0.0
2.000000
0.002000
12515
8
66.7899
34.8647
#DATA
2.000000	 64.984
2.084000	 64.6723
2.168000	 65.0309
2.252000	 65.6213
2.336000	 65.5726
2.420000	 64.9087
2.504000	 64.9957
2.588000	 65.2831
2.672000	 65.2853
2.756000	 65.1579
2.840000	 65.1585
2.924000	 65.0988
3.008000	 65.0839
3.092000	 65.0444
3.176000	 65.1269
3.260000	 65.2475
3.344000	 65.0815
3.428000	 64.8489
3.512000	 65.0935
3.596000	 65.2194
3.680000	 65.1929
3.764000	 65.1797
3.848000	 65.1251
3.932000	 65.0817
4.016000	 65.1348
4.100000	 65.3001
4.184000	 65.2741
4.268000	 65.2083
4.352000	 65.1721
4.436000	 65.258
4.520000	 65.2705
4.604000	 65.3592
4.688000	 65.3831
4.772000	 65.2155
4.856000	 65.0458
4.940000	 65.2612
5.024000	 65.205
5.108000	 65.3117
5.192000	 65.2087
5.276000	 65.213
5.359999	 65.2949
5.444000	 65.1597
5.528000	 65.1932
5.612000	 65.258
5.696000	 65.3295
5.780000	 65.0479
5.864000	 65.0038
5.948000	 65.0887
6.032000	 65.0808
6.116000	 65.0394
6.200000	 64.781
6.284000	 64.9599
6.368000	 64.8952
6.452000	 64.9473
6.536000	 65.0809
6.620000	 64.9368
6.704000	 65.0892
6.788000	 65.0648
6.872000	 64.8668
6.956000	 65.0954
7.040000	 64.8498
7.124000	 65.0159
7.208000	 64.9249
7.292000	 65.2026
7.376000	 64.9467
7.460000	 64.9872
7.544000	 64.9082
7.628000	 64.908
7.712000	 65.018
7.796000	 65.0669
7.880000	 64.8527
7.964000	 64.9045
8.048000	 64.686
8.132000	 64.9014
8.216000	 64.9243
8.300000	 64.8079
8.384000	 64.745
8.468000	 64.7048
8.552000	 64.5133
8.635999	 64.6889
8.719999	 64.7389
8.804000	 64.7904
8.888000	 64.7631
8.972000	 64.5543
9.056000	 64.674
9.140000	 64.3616
9.224000	 64.4021
9.308000	 64.3621
9.391999	 64.6437
9.475999	 64.7731
9.560000	 64.5448
9.644000	 64.6063
9.728000	 64.4306
9.812000	 64.1104
9.896000	 64.54
9.980000	 64.3425
10.064	64.3476
10.148	64.774
10.232	64.5242
10.316	64.4818
10.4	64.4216
10.484	64.6145
10.568	65.0589
10.652	64.8713
10.736	64.548
10.82	64.9401
10.904	65.064
10.988	64.9244
11.072	64.7992
11.156	64.7399
11.24	64.5577
11.324	64.6115
11.408	64.5568
11.492	64.3077
11.576	64.2925
11.66	64.1621
11.744	64.2684
11.828	64.3604
11.912	64.3771
11.996	64.4029
12.08	64.3024
12.164	63.9854
12.248	63.9832
12.332	64.0926
12.416	64.1545
12.5	64.1058
12.584	63.8618
12.668	63.6856
12.752	63.9752
12.836	64.1465
12.92	63.9644
13.004	63.7551
13.088	63.6942
13.172	63.6058
13.256	63.444
13.34	63.631
13.424	63.9676
13.508	63.9646
13.592	63.6912
13.676	63.6376
13.76	63.4848
13.844	63.3007
13.928	63.245
14.012	63.2025
14.096	63.003
14.18	62.7054
14.264	62.8002
14.348	63.1421
14.432	63.2274
14.516	63.0518
14.6	62.8806
14.684	62.9682
14.768	63.0094
14.852	62.6786
14.936	62.2332
15.02	61.9401
15.104	61.9426
15.188	62.1225
15.272	62.2416
15.356	62.3034
15.44	62.353
15.524	62.431
15.608	62.4318
15.692	62.2159
15.776	62.0621
15.86	62.1765
15.944	62.2891
16.028	62.1801
16.112	61.9141
16.196	61.6754
16.28	61.6557
16.364	61.8235
16.448	61.976
16.532	62.0607
16.616	62.1162
16.7	62.0558
16.784	61.8176
16.868	61.55
16.952	61.4859
17.036	61.6785
17.12	61.9301
17.204	61.9844
17.288	61.746
17.372	61.3332
17.456	60.9672
17.54	60.8094
17.624	60.8587
17.708	60.9839
17.792	61.0549
17.876	61.0427
17.96	61.0174
18.044	61.0558
18.128	61.156
18.212	61.2447
18.296	61.2575
18.38	61.1909
18.464	61.0831
18.548	60.9667
18.632	60.8376
18.716	60.6784
18.8	60.4928
18.884	60.3206
18.968	60.213
19.052	60.2057
19.136	60.307
19.22	60.4842
19.304	60.6495
19.388	60.7216
19.472	60.7095
19.556	60.6972
19.64	60.7305
19.724	60.7533
19.808	60.6768
19.892	60.4783
19.976	60.2209
20.06	59.9921
20.144	59.8496
20.228	59.8234
20.312	59.9187
20.396	60.0899
20.48	60.2212
20.564	60.1904
20.648	59.9707
20.732	59.6702
20.816	59.4431
20.9	59.3531
20.984	59.3303
21.068	59.2481
21.152	59.0532
21.236	58.8056
21.32	58.6182
21.404	58.5652
21.488	58.658
21.572	58.8825
21.656	59.2348
21.74	59.7064
21.824	60.2443
21.908	60.7333
21.992	61.0269
22.076	61.0072
22.16	60.6427
22.244	60.0026
22.328	59.2254
22.412	58.4748
22.496	57.8837
22.58	57.5162
22.664	57.3701
22.748	57.3756
22.832	57.4353
22.916	57.474
23	57.4354
23.084	57.3095
23.168	57.147
23.252	57.0269
23.336	57.0186
23.42	57.1754
23.504	57.469
23.588	57.7923
23.672	57.9942
23.756	57.897
23.84	57.3916
23.924	56.4728
24.008	55.2722
24.092	54.0847
24.176	53.3309
24.26	53.4012
24.344	54.5659
24.428	56.8217
24.512	59.8098
24.596	62.9245
24.68	65.3838
24.764	66.4225
24.848	65.5877
24.932	62.8766
25.016	58.779
25.1	54.0593
25.184	49.4795
25.268	45.5139
25.352	42.3203
25.436	39.7404
25.52	37.5858
25.604	35.9213
25.688	34.9718
25.772	35.0442
25.856	36.3809
25.94	39.0071
26.024	42.6701
26.108	46.8662
26.192	51.1103
26.276	55.0409
26.36	58.4847
26.444	61.3173
26.528	63.3435
26.612	64.2108
26.696	63.5389
26.78	61.0858
26.864	57.1672
26.948	52.7243
27.028	49.2285