File: Bakgrunnsmateriale/MATLAB/FTIR/ftir_data/subBb/Mapping_121/C-4040-8_t82.asc
PE IR       SPECTRUM    SPECTRUM    ASCII       PEDS        1.60
  -1
C-A542~1.ASC
17/03/27
21:12:38.00
17/03/27
21:13:04.00
tln
$C-4040-8_t0082$<tbV0>[2.6,5.2,8.0,0.0,27,1,0]
27.028
64

2002,4.07
MIRTGS : RIGHTBACK : INTERNAL 2
MIR : ON : INTERNAL 2
OPTKBR

0.200000
8
8.000000
FILLER
RATIO
SPECTRUM
UNLOCKED 256

DOUBLE
64
COMBINED
1
0
0

0.002000
RATIO

1
0
TRUE
51149
0
LEFT NOT FITTED RIGHT NOT FITTED 0
NONE
NONE
15600
12
4.427000
51148
TRUE
1 0 8 72 0 0 0 0

15798

#HDR
-1
-1
#GR
µM
%T
2.38419e-05
0.0
2.000000
0.002000
12515
8
91.2511
51.0507
#DATA
2.000000	 64.9535
2.084000	 65.0658
2.168000	 65.1138
2.252000	 64.5315
2.336000	 64.8564
2.420000	 65.0535
2.504000	 65.2477
2.588000	 65.2797
2.672000	 65.3791
2.756000	 65.1327
2.840000	 65.1705
2.924000	 65.2969
3.008000	 65.1121
3.092000	 65.24
3.176000	 65.2853
3.260000	 65.4578
3.344000	 65.1955
3.428000	 64.7103
3.512000	 64.9915
3.596000	 65.2559
3.680000	 65.4558
3.764000	 65.3298
3.848000	 65.2303
3.932000	 65.2428
4.016000	 65.3542
4.100000	 65.4927
4.184000	 65.3257
4.268000	 65.3693
4.352000	 65.306
4.436000	 65.2705
4.520000	 65.429
4.604000	 65.3946
4.688000	 65.2401
4.772000	 65.4433
4.856000	 65.4655
4.940000	 65.3138
5.024000	 65.2453
5.108000	 65.4263
5.192000	 65.4484
5.276000	 65.4185
5.359999	 65.4789
5.444000	 65.3649
5.528000	 65.3873
5.612000	 65.3461
5.696000	 65.3116
5.780000	 65.1761
5.864000	 65.3001
5.948000	 65.3291
6.032000	 65.4402
6.116000	 65.1408
6.200000	 65.2895
6.284000	 65.1648
6.368000	 65.1513
6.452000	 65.1211
6.536000	 65.1469
6.620000	 65.1295
6.704000	 65.1821
6.788000	 65.2378
6.872000	 64.9304
6.956000	 65.4258
7.040000	 65.2814
7.124000	 65.0709
7.208000	 65.078
7.292000	 65.1295
7.376000	 65.1066
7.460000	 65.259
7.544000	 65.2022
7.628000	 65.0291
7.712000	 65.2212
7.796000	 65.2231
7.880000	 65.0649
7.964000	 65.1044
8.048000	 65.0847
8.132000	 65.0517
8.216000	 64.9709
8.300000	 65.1809
8.384000	 64.9942
8.468000	 64.9977
8.552000	 64.7176
8.635999	 65.079
8.719999	 65.0357
8.804000	 64.9465
8.888000	 65.1695
8.972000	 64.8544
9.056000	 64.9472
9.140000	 64.7603
9.224000	 64.7322
9.308000	 64.9633
9.391999	 64.6795
9.475999	 64.6216
9.560000	 64.8431
9.644000	 64.9167
9.728000	 64.5898
9.812000	 64.3111
9.896000	 64.7934
9.980000	 64.7115
10.064	64.5872
10.148	64.8427
10.232	64.793
10.316	64.8395
10.4	64.6546
10.484	65.2265
10.568	64.7025
10.652	65.2342
10.736	64.9473
10.82	65.0153
10.904	64.7262
10.988	64.44
11.072	64.9503
11.156	64.8889
11.24	64.8081
11.324	64.8224
11.408	64.5595
11.492	64.7203
11.576	64.5442
11.66	64.4329
11.744	64.5908
11.828	64.7258
11.912	64.7961
11.996	64.6978
12.08	64.5662
12.164	64.4772
12.248	64.5603
12.332	64.5732
12.416	64.6427
12.5	64.4988
12.584	64.1175
12.668	64.1831
12.752	64.2812
12.836	64.2643
12.92	64.4404
13.004	64.455
13.088	64.3516
13.172	64.4415
13.256	64.6113
13.34	64.3799
13.424	63.9069
13.508	63.5156
13.592	63.4769
13.676	63.6799
13.76	63.7347
13.844	63.9172
13.928	64.2557
14.012	64.233
14.096	63.7992
14.18	63.4323
14.264	63.5642
14.348	63.8559
14.432	63.8365
14.516	63.5629
14.6	63.3423
14.684	63.4533
14.768	63.6021
14.852	63.6
14.936	63.7565
15.02	63.8021
15.104	63.4203
15.188	63.0854
15.272	63.1497
15.356	63.409
15.44	63.4777
15.524	63.1929
15.608	62.8068
15.692	62.625
15.776	62.7419
15.86	63.0359
15.944	63.1775
16.028	62.9764
16.112	62.6237
16.196	62.4033
16.28	62.4268
16.364	62.5781
16.448	62.6242
16.532	62.5575
16.616	62.6003
16.7	62.7735
16.784	62.8833
16.868	62.9249
16.952	63.0577
17.036	63.2511
17.12	63.291
17.204	63.0926
17.288	62.849
17.372	62.826
17.456	63.0532
17.54	63.2823
17.624	63.2587
17.708	62.9872
17.792	62.6836
17.876	62.5525
17.96	62.6333
18.044	62.819
18.128	62.9375
18.212	62.8581
18.296	62.5763
18.38	62.225
18.464	61.9813
18.548	61.9262
18.632	61.9934
18.716	62.0768
18.8	62.1568
18.884	62.2735
18.968	62.3991
19.052	62.4166
19.136	62.2566
19.22	61.9958
19.304	61.7876
19.388	61.7212
19.472	61.7882
19.556	61.9246
19.64	62.0566
19.724	62.1214
19.808	62.0899
19.892	61.9975
19.976	61.9338
20.06	61.9826
20.144	62.1326
20.228	62.2667
20.312	62.2513
20.396	62.053
20.48	61.7749
20.564	61.5792
20.648	61.5572
20.732	61.6783
20.816	61.8176
20.9	61.8466
20.984	61.6936
21.068	61.3565
21.152	60.8995
21.236	60.4248
21.32	60.0398
21.404	59.8068
21.488	59.7142
21.572	59.6884
21.656	59.6781
21.74	59.7044
21.824	59.872
21.908	60.2983
21.992	60.9899
22.076	61.8018
22.16	62.4778
22.244	62.7631
22.328	62.5513
22.412	61.9083
22.496	61.0478
22.58	60.2218
22.664	59.6152
22.748	59.2583
22.832	59.0296
22.916	58.7211
23	58.1187
23.084	57.1314
23.168	55.8591
23.252	54.5595
23.336	53.5682
23.42	53.1588
23.504	53.4609
23.588	54.4134
23.672	55.8202
23.756	57.3935
23.84	58.756
23.924	59.5238
24.008	59.4068
24.092	58.3158
24.176	56.4785
24.26	54.4224
24.344	52.8334
24.428	52.2441
24.512	52.9528
24.596	54.841
24.68	57.3552
24.764	59.6682
24.848	61.0417
24.932	61.1042
25.016	60.0794
25.1	58.6638
25.184	57.779
25.268	58.1641
25.352	60.1613
25.436	63.8049
25.52	68.8375
25.604	74.7952
25.688	80.9992
25.772	86.5125
25.856	90.2433
25.94	91.1724
26.024	88.698
26.108	83.0187
26.192	75.0733
26.276	66.3377
26.36	58.6005
26.444	53.2918
26.528	51.0973
26.612	52.0663
26.696	55.5276
26.78	60.266
26.864	64.8903
26.948	68.337
27.028	70.2437