File: Bakgrunnsmateriale/MATLAB/FTIR/ftir_data/subBb/Mapping_121/C-4040-8_t42.asc
PE IR       SPECTRUM    SPECTRUM    ASCII       PEDS        1.60
  -1
C-A532~1.ASC
17/03/27
17:53:07.00
17/03/27
17:53:33.00
tln
$C-4040-8_t0042$<tbV0>[-7.8,-5.2,8.0,0.0,27,1,0]
27.028
64

2002,4.07
MIRTGS : RIGHTBACK : INTERNAL 2
MIR : ON : INTERNAL 2
OPTKBR

0.200000
8
8.000000
FILLER
RATIO
SPECTRUM
UNLOCKED 256

DOUBLE
64
COMBINED
1
0
0

0.002000
RATIO

1
0
TRUE
51149
0
LEFT NOT FITTED RIGHT NOT FITTED 0
NONE
NONE
15600
12
4.427000
51148
TRUE
1 0 8 72 0 0 0 0

15798

#HDR
-1
-1
#GR
µM
%T
2.38419e-05
0.0
2.000000
0.002000
12515
8
115.791
43.6513
#DATA
2.000000	 64.7132
2.084000	 64.3972
2.168000	 64.6722
2.252000	 64.4041
2.336000	 64.2728
2.420000	 64.2284
2.504000	 64.3511
2.588000	 64.2249
2.672000	 64.2643
2.756000	 64.3133
2.840000	 64.2746
2.924000	 63.7239
3.008000	 63.6876
3.092000	 63.7448
3.176000	 63.4664
3.260000	 63.4771
3.344000	 63.3753
3.428000	 62.8515
3.512000	 62.8033
3.596000	 63.0086
3.680000	 62.7561
3.764000	 62.4817
3.848000	 62.4806
3.932000	 62.4001
4.016000	 61.9561
4.100000	 61.8643
4.184000	 61.9785
4.268000	 61.8681
4.352000	 61.5727
4.436000	 61.4544
4.520000	 61.4167
4.604000	 61.3172
4.688000	 61.3291
4.772000	 61.0116
4.856000	 60.9701
4.940000	 60.7763
5.024000	 60.8004
5.108000	 60.6819
5.192000	 60.5304
5.276000	 60.2781
5.359999	 60.3277
5.444000	 60.2984
5.528000	 60.0856
5.612000	 59.8941
5.696000	 59.6732
5.780000	 59.6643
5.864000	 59.7205
5.948000	 59.6522
6.032000	 59.5482
6.116000	 59.4891
6.200000	 59.3571
6.284000	 59.1999
6.368000	 59.135
6.452000	 59.0124
6.536000	 58.9684
6.620000	 58.8942
6.704000	 58.9725
6.788000	 58.7719
6.872000	 58.7457
6.956000	 58.618
7.040000	 58.6146
7.124000	 58.5103
7.208000	 58.4829
7.292000	 58.484
7.376000	 58.4789
7.460000	 58.2037
7.544000	 58.1222
7.628000	 58.0242
7.712000	 58.1893
7.796000	 57.969
7.880000	 58.0521
7.964000	 58.0165
8.048000	 57.9295
8.132000	 57.8926
8.216000	 57.8104
8.300000	 57.6013
8.384000	 57.7495
8.468000	 57.6352
8.552000	 57.3509
8.635999	 57.5372
8.719999	 57.5294
8.804000	 57.4877
8.888000	 57.361
8.972000	 57.3744
9.056000	 57.0345
9.140000	 57.283
9.224000	 57.5143
9.308000	 57.4236
9.391999	 57.0214
9.475999	 56.9113
9.560000	 57.0508
9.644000	 56.8962
9.728000	 57.0533
9.812000	 56.8767
9.896000	 56.9922
9.980000	 56.7159
10.064	56.4754
10.148	56.7636
10.232	56.4565
10.316	56.3357
10.4	56.4336
10.484	56.5842
10.568	56.365
10.652	56.17
10.736	56.235
10.82	56.1829
10.904	56.3728
10.988	56.3223
11.072	56.2358
11.156	56.1396
11.24	56.1579
11.324	56.121
11.408	56.1403
11.492	55.8173
11.576	55.7993
11.66	55.9595
11.744	55.9466
11.828	55.8283
11.912	55.5252
11.996	55.6839
12.08	55.6194
12.164	55.7568
12.248	55.5426
12.332	55.3445
12.416	55.6004
12.5	55.5702
12.584	55.4219
12.668	55.382
12.752	55.1193
12.836	54.9839
12.92	54.9568
13.004	54.7894
13.088	54.9009
13.172	55.0671
13.256	54.7303
13.34	54.4255
13.424	54.6346
13.508	54.732
13.592	54.3466
13.676	54.3174
13.76	54.4551
13.844	54.2958
13.928	54.2033
14.012	54.2108
14.096	54.344
14.18	54.6325
14.264	54.6222
14.348	54.2666
14.432	53.9629
14.516	53.9179
14.6	54.0218
14.684	54.0753
14.768	54.0272
14.852	54.0376
14.936	54.1704
15.02	54.1549
15.104	53.9598
15.188	53.8575
15.272	53.804
15.356	53.6805
15.44	53.562
15.524	53.4191
15.608	53.2477
15.692	53.24
15.776	53.4484
15.86	53.6821
15.944	53.7863
16.028	53.75
16.112	53.6147
16.196	53.4181
16.28	53.2271
16.364	53.141
16.448	53.1856
16.532	53.2686
16.616	53.2475
16.7	53.0611
16.784	52.8344
16.868	52.7435
16.952	52.775
17.036	52.7861
17.12	52.7264
17.204	52.6048
17.288	52.3738
17.372	52.0726
17.456	51.8986
17.54	51.9583
17.624	52.1265
17.708	52.2467
17.792	52.2972
17.876	52.3252
17.96	52.3758
18.044	52.4823
18.128	52.6085
18.212	52.6622
18.296	52.6098
18.38	52.5073
18.464	52.4101
18.548	52.3054
18.632	52.1475
18.716	51.9322
18.8	51.7259
18.884	51.6383
18.968	51.7372
19.052	51.9713
19.136	52.1975
19.22	52.2853
19.304	52.1878
19.388	51.9455
19.472	51.6516
19.556	51.4156
19.64	51.3097
19.724	51.3195
19.808	51.3404
19.892	51.2424
19.976	50.9618
20.06	50.555
20.144	50.1767
20.228	49.9985
20.312	50.1109
20.396	50.4624
20.48	50.8847
20.564	51.1762
20.648	51.2198
20.732	51.0316
20.816	50.7253
20.9	50.4234
20.984	50.1942
21.068	50.0541
21.152	50.0089
21.236	50.0911
21.32	50.3585
21.404	50.8219
21.488	51.3728
21.572	51.798
21.656	51.8751
21.74	51.5074
21.824	50.7865
21.908	49.9337
21.992	49.1704
22.076	48.6259
22.16	48.3235
22.244	48.2455
22.328	48.3561
22.412	48.5876
22.496	48.8117
22.58	48.8669
22.664	48.6437
22.748	48.1922
22.832	47.7219
22.916	47.5119
23	47.7552
23.084	48.4464
23.168	49.3684
23.252	50.2201
23.336	50.7217
23.42	50.6745
23.504	50.059
23.588	48.9699
23.672	47.5841
23.756	46.2422
23.84	45.2663
23.924	44.9156
24.008	45.3285
24.092	46.4526
24.176	47.9731
24.26	49.4873
24.344	50.5926
24.428	51.042
24.512	50.8123
24.596	50.0374
24.68	49.0307
24.764	48.2851
24.848	48.3979
24.932	49.989
25.016	53.5041
25.1	59.1237
25.184	66.9621
25.268	76.9246
25.352	88.5601
25.436	100.392
25.52	110.098
25.604	115.332
25.688	114.519
25.772	107.813
25.856	97.0193
25.94	84.6474
26.024	72.8943
26.108	62.7711
26.192	54.548
26.276	48.296
26.36	44.5203
26.444	43.7624
26.528	46.2954
26.612	51.5064
26.696	58.2962
26.78	65.2788
26.864	71.6182
26.948	77.0478
27.028	81.1591