File: Bakgrunnsmateriale/MATLAB/FTIR/ftir_data/subBb/Mapping_121/C-4040-8_t59.asc
PE IR       SPECTRUM    SPECTRUM    ASCII       PEDS        1.60
  -1
C-C93E~1.ASC
17/03/27
19:19:09.00
17/03/27
19:19:35.00
tln
$C-4040-8_t0059$<tbV0>[5.2,0.0,8.0,0.0,27,1,0]
27.028
64

2002,4.07
MIRTGS : RIGHTBACK : INTERNAL 2
MIR : ON : INTERNAL 2
OPTKBR

0.200000
8
8.000000
FILLER
RATIO
SPECTRUM
UNLOCKED 256

DOUBLE
64
COMBINED
1
0
0

0.002000
RATIO

1
0
TRUE
51149
0
LEFT NOT FITTED RIGHT NOT FITTED 0
NONE
NONE
15600
12
4.427000
51148
TRUE
1 0 8 72 0 0 0 0

15798

#HDR
-1
-1
#GR
µM
%T
2.38419e-05
0.0
2.000000
0.002000
12515
8
116.407
34.3527
#DATA
2.000000	 64.9382
2.084000	 65.2571
2.168000	 64.1851
2.252000	 66.1381
2.336000	 66.7419
2.420000	 65.119
2.504000	 64.8468
2.588000	 65.3233
2.672000	 65.2262
2.756000	 65.2336
2.840000	 65.1897
2.924000	 65.2403
3.008000	 65.3725
3.092000	 65.0874
3.176000	 65.1407
3.260000	 65.2079
3.344000	 65.2052
3.428000	 64.9745
3.512000	 65.4089
3.596000	 65.2609
3.680000	 65.1517
3.764000	 65.2986
3.848000	 65.3223
3.932000	 65.4783
4.016000	 65.202
4.100000	 65.3674
4.184000	 65.3563
4.268000	 65.3276
4.352000	 65.4394
4.436000	 65.4735
4.520000	 65.3152
4.604000	 65.2628
4.688000	 65.4676
4.772000	 65.3081
4.856000	 65.1484
4.940000	 65.3195
5.024000	 65.3056
5.108000	 65.2953
5.192000	 65.3765
5.276000	 65.3795
5.359999	 65.293
5.444000	 65.3292
5.528000	 65.4232
5.612000	 65.0748
5.696000	 65.2095
5.780000	 64.9849
5.864000	 65.0728
5.948000	 65.2225
6.032000	 65.2044
6.116000	 65.1687
6.200000	 65.2778
6.284000	 65.0311
6.368000	 65.1329
6.452000	 65.0055
6.536000	 65.0489
6.620000	 65.1886
6.704000	 65.1626
6.788000	 65.0628
6.872000	 64.813
6.956000	 65.0874
7.040000	 65.1151
7.124000	 64.9504
7.208000	 64.9697
7.292000	 65.11
7.376000	 65.0801
7.460000	 65.0884
7.544000	 65.0331
7.628000	 65.0323
7.712000	 65.0382
7.796000	 65.0733
7.880000	 64.9038
7.964000	 64.9193
8.048000	 65.0165
8.132000	 64.8808
8.216000	 64.8323
8.300000	 65.0096
8.384000	 64.9162
8.468000	 64.8229
8.552000	 64.8433
8.635999	 64.8251
8.719999	 65.2807
8.804000	 65.0837
8.888000	 64.661
8.972000	 64.6876
9.056000	 64.6442
9.140000	 64.5121
9.224000	 64.6525
9.308000	 64.9138
9.391999	 64.7771
9.475999	 64.6014
9.560000	 64.5547
9.644000	 64.7477
9.728000	 64.5095
9.812000	 64.4187
9.896000	 64.6485
9.980000	 64.6641
10.064	64.4657
10.148	64.6052
10.232	64.5879
10.316	64.553
10.4	64.4153
10.484	64.2746
10.568	64.374
10.652	64.4263
10.736	64.4816
10.82	64.3618
10.904	64.3706
10.988	64.2495
11.072	64.3316
11.156	64.1988
11.24	64.2101
11.324	64.2415
11.408	64.1688
11.492	63.9162
11.576	64.2069
11.66	64.4092
11.744	64.3931
11.828	64.2788
11.912	64.2872
11.996	64.5053
12.08	64.3194
12.164	63.9696
12.248	63.7795
12.332	64.1241
12.416	64.1007
12.5	63.9861
12.584	63.7481
12.668	63.4922
12.752	63.587
12.836	63.7389
12.92	63.8675
13.004	63.7697
13.088	63.5867
13.172	63.7179
13.256	64.0679
13.34	64.0798
13.424	63.6718
13.508	63.3837
13.592	63.4161
13.676	63.5553
13.76	63.4699
13.844	63.3305
13.928	63.5064
14.012	63.6265
14.096	63.3887
14.18	63.3449
14.264	63.5256
14.348	63.5103
14.432	63.2946
14.516	62.8664
14.6	62.5743
14.684	62.6922
14.768	62.8719
14.852	62.9268
14.936	62.842
15.02	62.6897
15.104	62.7412
15.188	63.0315
15.272	63.2129
15.356	63.0244
15.44	62.5637
15.524	62.1448
15.608	61.9402
15.692	61.8373
15.776	61.8596
15.86	62.1432
15.944	62.4579
16.028	62.5415
16.112	62.534
16.196	62.5858
16.28	62.5733
16.364	62.4236
16.448	62.3277
16.532	62.3919
16.616	62.3841
16.7	62.1363
16.784	61.8638
16.868	61.7623
16.952	61.7317
17.036	61.6873
17.12	61.7257
17.204	61.8478
17.288	61.8421
17.372	61.5801
17.456	61.2315
17.54	61.068
17.624	61.1347
17.708	61.2353
17.792	61.212
17.876	61.1038
17.96	61.0167
18.044	60.9723
18.128	60.9431
18.212	60.9211
18.296	60.8912
18.38	60.8466
18.464	60.8526
18.548	60.9892
18.632	61.1809
18.716	61.2286
18.8	61.0556
18.884	60.8156
18.968	60.6824
19.052	60.6223
19.136	60.4978
19.22	60.3179
19.304	60.2663
19.388	60.4568
19.472	60.753
19.556	60.865
19.64	60.621
19.724	60.1386
19.808	59.711
19.892	59.5402
19.976	59.5733
20.06	59.5851
20.144	59.4148
20.228	59.1144
20.312	58.8974
20.396	58.9458
20.48	59.2564
20.564	59.6515
20.648	59.9011
20.732	59.8785
20.816	59.632
20.9	59.3299
20.984	59.148
21.068	59.1597
21.152	59.2945
21.236	59.3939
21.32	59.3098
21.404	58.9856
21.488	58.4918
21.572	57.9968
21.656	57.7152
21.74	57.8189
21.824	58.3293
21.908	59.0558
21.992	59.6688
22.076	59.8673
22.16	59.5467
22.244	58.8639
22.328	58.1315
22.412	57.6256
22.496	57.4357
22.58	57.4495
22.664	57.4772
22.748	57.3715
22.832	57.0949
22.916	56.7146
23	56.33
23.084	56.0145
23.168	55.8014
23.252	55.7032
23.336	55.7545
23.42	56.0224
23.504	56.6284
23.588	57.6036
23.672	58.8172
23.756	60.0207
23.84	60.9214
23.924	61.3049
24.008	61.1875
24.092	60.8704
24.176	60.8088
24.26	61.3782
24.344	62.7198
24.428	64.644
24.512	66.6498
24.596	68.231
24.68	69.0075
24.764	68.8615
24.848	67.9398
24.932	67.0015
25.016	67.2522
25.1	69.8175
25.184	75.2168
25.268	82.8602
25.352	91.1579
25.436	98.1166
25.52	102.205
25.604	102.847
25.688	100.228
25.772	95.1219
25.856	88.6035
25.94	82.1058
26.024	77.4219
26.108	76.3197
26.192	79.7899
26.276	87.5238
26.36	97.7359
26.444	107.688
26.528	114.525
26.612	116.276
26.696	111.997
26.78	101.94
26.864	87.2986
26.948	69.9573
27.028	53.2821