File: Bakgrunnsmateriale/MATLAB/FTIR/ftir_data/subBb/Mapping_121/C-4040-8_e127.asc
PE IR       SPECTRUM    SPECTRUM    ASCII       PEDS        1.60
  -1
C-78D3~1.ASC
17/03/27
23:34:24.00
17/03/27
23:34:51.00
tln
$C-4040-8_e0127$<ebV0>[-23.3,12.1,10.0,0.0,27,1,0]
27.028
64

2002,4.07
MIRTGS : RIGHTBACK : INTERNAL 2
MIR : ON : INTERNAL 2
OPTKBR

0.200000
8
8.000000
FILLER
SINGLE
SPECTRUM
UNLOCKED 256

DOUBLE

COMBINED
1
0
0

0.002000
BACKG

1
0
TRUE
51149
0
LEFT NOT FITTED RIGHT NOT FITTED 0
NONE
NONE
15600
12
4.427000
51148
TRUE
1 0 8 72 0 0 0 0

15798

#HDR
-1
-1
#GR
µM
EGY
2.38419e-05
0.0
2.000000
0.002000
12515
8
2.459777
0.008606
#DATA
2.000000	 0.766658
2.084000	 0.864634
2.168000	 0.929469
2.252000	 0.992354
2.336000	 1.128404
2.420000	 1.229874
2.504000	 1.390182
2.588000	 1.444807
2.672000	 1.546952
2.756000	 1.572766
2.840000	 1.623352
2.924000	 1.585509
3.008000	 1.686498
3.092000	 1.783421
3.176000	 1.812881
3.260000	 1.930724
3.344000	 2.024063
3.428000	 1.837518
3.512000	 2.010807
3.596000	 2.217005
3.680000	 2.252623
3.764000	 2.220721
3.848000	 2.225044
3.932000	 2.294152
4.016000	 2.326753
4.100000	 2.285948
4.184000	 2.246927
4.268000	 2.262121
4.352000	 2.339643
4.436000	 2.380966
4.520000	 2.368110
4.604000	 2.337182
4.688000	 2.335610
4.772000	 2.337645
4.856000	 2.376680
4.940000	 2.441483
5.024000	 2.456724
5.108000	 2.430601
5.192000	 2.402946
5.276000	 2.373994
5.359999	 2.385992
5.444000	 2.408437
5.528000	 2.435293
5.612000	 2.431403
5.696000	 2.400570
5.780000	 2.330768
5.864000	 2.282864
5.948000	 2.241148
6.032000	 2.194412
6.116000	 2.139192
6.200000	 2.008753
6.284000	 2.016529
6.368000	 1.983033
6.452000	 1.958307
6.536000	 2.095540
6.620000	 2.084773
6.704000	 1.689615
6.788000	 1.973590
6.872000	 1.791654
6.956000	 1.864985
7.040000	 1.855675
7.124000	 1.725779
7.208000	 1.786383
7.292000	 1.815091
7.376000	 1.815980
7.460000	 1.817718
7.544000	 1.847605
7.628000	 1.855259
7.712000	 1.857282
7.796000	 1.851986
7.880000	 1.775041
7.964000	 1.760952
8.048000	 1.834490
8.132000	 1.825419
8.216000	 1.783358
8.300000	 1.744198
8.384000	 1.738802
8.468000	 1.710171
8.552000	 1.672185
8.635999	 1.622024
8.719999	 1.601879
8.804000	 1.569633
8.888000	 1.525663
8.972000	 1.467148
9.056000	 1.426331
9.140000	 1.423612
9.224000	 1.427809
9.308000	 1.427533
9.391999	 1.436707
9.475999	 1.361303
9.560000	 1.324774
9.644000	 1.384820
9.728000	 1.371546
9.812000	 1.361135
9.896000	 1.380581
9.980000	 1.398986
10.064	1.398036
10.148	1.382548
10.232	1.369316
10.316	1.347780
10.4	1.320105
10.484	1.292588
10.568	1.270578
10.652	1.258154
10.736	1.239721
10.82	1.222903
10.904	1.204494
10.988	1.175569
11.072	1.156202
11.156	1.151207
11.24	1.133596
11.324	1.082388
11.408	1.033910
11.492	1.048348
11.576	1.086776
11.66	1.100949
11.744	1.090623
11.828	1.077536
11.912	1.051623
11.996	0.987086
12.08	0.880778
12.164	0.848592
12.248	0.910567
12.332	0.946181
12.416	0.948531
12.5	0.948095
12.584	0.953417
12.668	0.967080
12.752	0.976870
12.836	0.977211
12.92	0.976655
13.004	0.972431
13.088	0.968375
13.172	0.964249
13.256	0.958326
13.34	0.949211
13.424	0.937038
13.508	0.927514
13.592	0.919844
13.676	0.912152
13.76	0.901354
13.844	0.886647
13.928	0.874491
14.012	0.864540
14.096	0.851457
14.18	0.834697
14.264	0.816756
14.348	0.796133
14.432	0.766746
14.516	0.738135
14.6	0.730564
14.684	0.736673
14.768	0.736262
14.852	0.728235
14.936	0.718225
15.02	0.709609
15.104	0.703459
15.188	0.696334
15.272	0.686198
15.356	0.674959
15.44	0.664969
15.524	0.656538
15.608	0.647562
15.692	0.636929
15.776	0.626570
15.86	0.618177
15.944	0.610637
16.028	0.602503
16.112	0.593343
16.196	0.582735
16.28	0.569511
16.364	0.553072
16.448	0.536667
16.532	0.526223
16.616	0.523813
16.7	0.524537
16.784	0.523221
16.868	0.519500
16.952	0.515376
17.036	0.511900
17.12	0.509211
17.204	0.506968
17.288	0.504430
17.372	0.501086
17.456	0.497303
17.54	0.493682
17.624	0.490503
17.708	0.487347
17.792	0.483546
17.876	0.478849
17.96	0.473656
18.044	0.468609
18.128	0.463985
18.212	0.459813
18.296	0.455696
18.38	0.451172
18.464	0.446275
18.548	0.441614
18.632	0.437364
18.716	0.433271
18.8	0.428768
18.884	0.423708
18.968	0.417892
19.052	0.411455
19.136	0.404944
19.22	0.399014
19.304	0.394088
19.388	0.389907
19.472	0.386007
19.556	0.381995
19.64	0.377456
19.724	0.372210
19.808	0.366192
19.892	0.359758
19.976	0.353149
20.06	0.346313
20.144	0.338856
20.228	0.330633
20.312	0.322059
20.396	0.313862
20.48	0.306452
20.564	0.299654
20.648	0.292972
20.732	0.286079
20.816	0.279126
20.9	0.272336
20.984	0.265844
21.068	0.259538
21.152	0.253288
21.236	0.247019
21.32	0.240804
21.404	0.234582
21.488	0.228196
21.572	0.221517
21.656	0.214621
21.74	0.207759
21.824	0.201194
21.908	0.195042
21.992	0.189411
22.076	0.184338
22.16	0.179804
22.244	0.175745
22.328	0.171936
22.412	0.168087
22.496	0.163869
22.58	0.159347
22.664	0.154520
22.748	0.149513
22.832	0.144448
22.916	0.139408
23	0.134322
23.084	0.129236
23.168	0.123985
23.252	0.118643
23.336	0.113228
23.42	0.107906
23.504	0.102852
23.588	0.098082
23.672	0.093645
23.756	0.089499
23.84	0.085542
23.924	0.081584
24.008	0.077464
24.092	0.073096
24.176	0.068467
24.26	0.063730
24.344	0.059004
24.428	0.054585
24.512	0.050612
24.596	0.047040
24.68	0.043867
24.764	0.041043
24.848	0.038522
24.932	0.036326
25.016	0.034531
25.1	0.033247
25.184	0.032435
25.268	0.031998
25.352	0.031669
25.436	0.031208
25.52	0.030397
25.604	0.029086
25.688	0.027247
25.772	0.025065
25.856	0.022808
25.94	0.020624
26.024	0.018703
26.108	0.017052
26.192	0.015714
26.276	0.014533
26.36	0.013434
26.444	0.012427
26.528	0.011485
26.612	0.010648
26.696	0.009977
26.78	0.009507
26.864	0.009148
26.948	0.008865
27.028	0.008606