File: Bakgrunnsmateriale/MATLAB/FTIR/ftir_data/subBb/Mapping_121/C-4040-8_t62.asc
PE IR       SPECTRUM    SPECTRUM    ASCII       PEDS        1.60
  -1
C-AD32~1.ASC
17/03/27
19:32:59.00
17/03/27
19:33:26.00
tln
$C-4040-8_t0062$<tbV0>[-2.6,0.0,8.0,0.0,27,1,0]
27.028
64

2002,4.07
MIRTGS : RIGHTBACK : INTERNAL 2
MIR : ON : INTERNAL 2
OPTKBR

0.200000
8
8.000000
FILLER
RATIO
SPECTRUM
UNLOCKED 256

DOUBLE
64
COMBINED
1
0
0

0.002000
RATIO

1
0
TRUE
51149
0
LEFT NOT FITTED RIGHT NOT FITTED 0
NONE
NONE
15600
12
4.427000
51148
TRUE
1 0 8 72 0 0 0 0

15798

#HDR
-1
-1
#GR
µM
%T
2.38419e-05
0.0
2.000000
0.002000
12515
8
103.178
41.8769
#DATA
2.000000	 64.9519
2.084000	 64.798
2.168000	 64.2828
2.252000	 65.9863
2.336000	 66.3636
2.420000	 64.8702
2.504000	 65.1449
2.588000	 65.4483
2.672000	 65.1444
2.756000	 64.9439
2.840000	 64.8803
2.924000	 65.1687
3.008000	 65.306
3.092000	 65.1345
3.176000	 65.0293
3.260000	 65.1568
3.344000	 65.1837
3.428000	 64.7972
3.512000	 65.0457
3.596000	 65.1881
3.680000	 65.0347
3.764000	 65.1875
3.848000	 65.1066
3.932000	 65.2982
4.016000	 65.2748
4.100000	 65.051
4.184000	 65.2016
4.268000	 65.1066
4.352000	 65.2537
4.436000	 65.29
4.520000	 65.2158
4.604000	 65.1991
4.688000	 65.3772
4.772000	 65.2798
4.856000	 65.1912
4.940000	 65.3092
5.024000	 65.1917
5.108000	 65.2024
5.192000	 65.2476
5.276000	 65.1644
5.359999	 65.1721
5.444000	 65.2107
5.528000	 65.2604
5.612000	 64.9457
5.696000	 65.043
5.780000	 64.7941
5.864000	 65.1344
5.948000	 65.1448
6.032000	 65.12
6.116000	 64.8979
6.200000	 65.0572
6.284000	 64.933
6.368000	 65.0166
6.452000	 65.0374
6.536000	 64.9862
6.620000	 65.1258
6.704000	 64.9197
6.788000	 64.9782
6.872000	 64.6781
6.956000	 65.1151
7.040000	 65.0454
7.124000	 65.093
7.208000	 65.0525
7.292000	 64.9344
7.376000	 64.8472
7.460000	 64.823
7.544000	 64.9709
7.628000	 64.9957
7.712000	 64.9312
7.796000	 64.9049
7.880000	 64.823
7.964000	 65.0143
8.048000	 64.9813
8.132000	 64.9981
8.216000	 64.675
8.300000	 64.927
8.384000	 64.7747
8.468000	 64.7348
8.552000	 64.8258
8.635999	 64.8359
8.719999	 64.9302
8.804000	 64.6938
8.888000	 64.7681
8.972000	 64.7197
9.056000	 64.5223
9.140000	 64.3014
9.224000	 64.8208
9.308000	 64.7087
9.391999	 64.9895
9.475999	 64.01
9.560000	 64.1319
9.644000	 64.5282
9.728000	 64.4028
9.812000	 64.5327
9.896000	 65.2092
9.980000	 65.3842
10.064	64.7878
10.148	64.3524
10.232	64.7894
10.316	64.4623
10.4	64.6928
10.484	64.6771
10.568	64.5178
10.652	64.2279
10.736	64.448
10.82	64.5837
10.904	64.6776
10.988	64.5005
11.072	64.5714
11.156	64.4149
11.24	64.3231
11.324	64.3739
11.408	64.0035
11.492	64.1937
11.576	64.2757
11.66	64.3846
11.744	64.3032
11.828	64.0843
11.912	63.9541
11.996	64.044
12.08	64.283
12.164	64.0151
12.248	63.8063
12.332	64.3547
12.416	64.5266
12.5	64.3669
12.584	64.2744
12.668	63.8971
12.752	63.7258
12.836	63.765
12.92	63.8711
13.004	64.0718
13.088	64.0984
13.172	63.8479
13.256	63.633
13.34	63.9847
13.424	64.0435
13.508	63.5901
13.592	63.3216
13.676	63.3382
13.76	63.2262
13.844	63.2258
13.928	63.5135
14.012	63.5892
14.096	63.3663
14.18	63.2927
14.264	63.5737
14.348	63.8189
14.432	63.8622
14.516	63.6714
14.6	63.3661
14.684	63.2369
14.768	63.236
14.852	63.1859
14.936	62.9554
15.02	62.7365
15.104	62.9225
15.188	63.3554
15.272	63.4785
15.356	63.1795
15.44	62.7867
15.524	62.5947
15.608	62.6045
15.692	62.4517
15.776	62.0977
15.86	62.0341
15.944	62.3572
16.028	62.6908
16.112	62.8953
16.196	63.0156
16.28	63.0092
16.364	62.8929
16.448	62.7408
16.532	62.4674
16.616	62.01
16.7	61.6047
16.784	61.5689
16.868	61.9075
16.952	62.282
17.036	62.4102
17.12	62.3852
17.204	62.4446
17.288	62.5461
17.372	62.467
17.456	62.207
17.54	62.0002
17.624	62.0012
17.708	62.1404
17.792	62.2736
17.876	62.3585
17.96	62.4608
18.044	62.6239
18.128	62.7856
18.212	62.8445
18.296	62.7595
18.38	62.554
18.464	62.2714
18.548	61.9751
18.632	61.7507
18.716	61.661
18.8	61.6987
18.884	61.8049
18.968	61.895
19.052	61.8787
19.136	61.7312
19.22	61.5542
19.304	61.5051
19.388	61.643
19.472	61.8629
19.556	61.9756
19.64	61.8589
19.724	61.5476
19.808	61.1889
19.892	60.9192
19.976	60.7754
20.06	60.71
20.144	60.6768
20.228	60.6909
20.312	60.7998
20.396	61.0031
20.48	61.2146
20.564	61.3134
20.648	61.2332
20.732	61.005
20.816	60.7142
20.9	60.4236
20.984	60.1453
21.068	59.8731
21.152	59.603
21.236	59.3461
21.32	59.1162
21.404	58.9065
21.488	58.6855
21.572	58.4215
21.656	58.1451
21.74	57.943
21.824	57.8829
21.908	57.9308
21.992	57.9645
22.076	57.8847
22.16	57.7216
22.244	57.6325
22.328	57.7859
22.412	58.2145
22.496	58.7587
22.58	59.1726
22.664	59.2624
22.748	58.9739
22.832	58.3631
22.916	57.5298
23	56.573
23.084	55.5996
23.168	54.7339
23.252	54.1123
23.336	53.897
23.42	54.1709
23.504	54.9749
23.588	56.2205
23.672	57.6938
23.756	59.1334
23.84	60.2886
23.924	60.9744
24.008	61.1436
24.092	60.9105
24.176	60.4874
24.26	60.0475
24.344	59.6597
24.428	59.3233
24.512	59.1089
24.596	59.2145
24.68	59.9188
24.764	61.4652
24.848	63.9054
24.932	67.3384
25.016	71.93
25.1	77.8181
25.184	84.7715
25.268	91.9792
25.352	98.1415
25.436	102.049
25.52	103.169
25.604	101.776
25.688	98.6985
25.772	94.9035
25.856	91.1079
25.94	87.888
26.024	85.735
26.108	85.0445
26.192	85.7964
26.276	87.4799
26.36	89.0797
26.444	89.6254
26.528	88.5697
26.612	86.0719
26.696	82.6896
26.78	79.0897
26.864	75.5151
26.948	71.6697
27.028	67.2722