File: Bakgrunnsmateriale/MATLAB/FTIR/ftir_data/subBb/Mapping_121/C-4040-8_t29.asc
PE IR       SPECTRUM    SPECTRUM    ASCII       PEDS        1.60
  -1
C-CD2E~1.ASC
17/03/27
16:52:31.00
17/03/27
16:52:57.00
tln
$C-4040-8_t0029$<tbV0>[-2.6,-7.8,8.0,0.0,27,1,0]
27.028
64

2002,4.07
MIRTGS : RIGHTBACK : INTERNAL 2
MIR : ON : INTERNAL 2
OPTKBR

0.200000
8
8.000000
FILLER
RATIO
SPECTRUM
UNLOCKED 256

DOUBLE
64
COMBINED
1
0
0

0.002000
RATIO

1
0
TRUE
51149
0
LEFT NOT FITTED RIGHT NOT FITTED 0
NONE
NONE
15600
12
4.427000
51148
TRUE
1 0 8 72 0 0 0 0

15798

#HDR
-1
-1
#GR
µM
%T
2.38419e-05
0.0
2.000000
0.002000
12515
8
67.9514
28.9195
#DATA
2.000000	 63.9295
2.084000	 63.8989
2.168000	 63.9397
2.252000	 64.2868
2.336000	 64.3522
2.420000	 63.6159
2.504000	 63.2888
2.588000	 63.1897
2.672000	 63.0877
2.756000	 62.6779
2.840000	 62.4801
2.924000	 62.0591
3.008000	 61.8881
3.092000	 61.444
3.176000	 61.1916
3.260000	 60.9887
3.344000	 60.4572
3.428000	 59.8375
3.512000	 59.888
3.596000	 59.6594
3.680000	 59.1313
3.764000	 58.7455
3.848000	 58.5134
3.932000	 58.3331
4.016000	 57.9591
4.100000	 57.616
4.184000	 57.3057
4.268000	 56.8671
4.352000	 56.6551
4.436000	 56.3472
4.520000	 56.0257
4.604000	 55.6948
4.688000	 55.4356
4.772000	 55.0537
4.856000	 55.0705
4.940000	 54.6321
5.024000	 54.3322
5.108000	 54.116
5.192000	 53.8309
5.276000	 53.4979
5.359999	 53.2959
5.444000	 53.037
5.528000	 52.8891
5.612000	 52.5983
5.696000	 52.4915
5.780000	 52.2959
5.864000	 52.0425
5.948000	 51.7432
6.032000	 51.6504
6.116000	 51.3531
6.200000	 51.1504
6.284000	 51.1037
6.368000	 50.6704
6.452000	 50.58
6.536000	 50.3972
6.620000	 50.3442
6.704000	 50.0951
6.788000	 50.0387
6.872000	 49.8067
6.956000	 49.6953
7.040000	 49.3826
7.124000	 49.3218
7.208000	 49.0765
7.292000	 48.9412
7.376000	 48.8107
7.460000	 48.6332
7.544000	 48.5597
7.628000	 48.4623
7.712000	 48.3273
7.796000	 48.1974
7.880000	 48.1102
7.964000	 47.9606
8.048000	 47.886
8.132000	 47.8856
8.216000	 47.5521
8.300000	 47.3359
8.384000	 47.3618
8.468000	 47.3584
8.552000	 47.2932
8.635999	 47.0869
8.719999	 47.0796
8.804000	 46.7042
8.888000	 46.4657
8.972000	 46.6902
9.056000	 47.178
9.140000	 46.6761
9.224000	 46.0375
9.308000	 46.2725
9.391999	 46.3394
9.475999	 45.5532
9.560000	 45.7121
9.644000	 45.6036
9.728000	 45.5849
9.812000	 45.6303
9.896000	 45.6849
9.980000	 45.4168
10.064	45.165
10.148	45.5517
10.232	45.1242
10.316	45.1129
10.4	44.8718
10.484	44.9561
10.568	45.054
10.652	44.7128
10.736	44.6075
10.82	44.5157
10.904	44.5206
10.988	44.4615
11.072	44.3894
11.156	44.3854
11.24	44.4461
11.324	44.2501
11.408	44.1284
11.492	43.9885
11.576	43.9649
11.66	43.7809
11.744	43.599
11.828	43.5797
11.912	43.5211
11.996	43.5148
12.08	43.247
12.164	43.0803
12.248	43.0118
12.332	43.0883
12.416	43.0837
12.5	42.9545
12.584	42.9466
12.668	42.9253
12.752	42.8012
12.836	42.7206
12.92	42.4564
13.004	42.3282
13.088	42.3544
13.172	42.3216
13.256	42.1719
13.34	41.9898
13.424	41.9037
13.508	41.8014
13.592	41.6649
13.676	41.6007
13.76	41.5062
13.844	41.3519
13.928	41.3808
14.012	41.4967
14.096	41.5158
14.18	41.4169
14.264	41.1901
14.348	40.9871
14.432	40.8269
14.516	40.7843
14.6	40.7992
14.684	40.6609
14.768	40.453
14.852	40.3768
14.936	40.374
15.02	40.3286
15.104	40.31
15.188	40.2786
15.272	40.1155
15.356	39.8726
15.44	39.7194
15.524	39.6806
15.608	39.5617
15.692	39.3578
15.776	39.274
15.86	39.3026
15.944	39.3074
16.028	39.2927
16.112	39.2907
16.196	39.2712
16.28	39.2114
16.364	39.1039
16.448	38.9732
16.532	38.9155
16.616	38.9427
16.7	38.9304
16.784	38.8462
16.868	38.7698
16.952	38.6887
17.036	38.5241
17.12	38.3337
17.204	38.2846
17.288	38.4078
17.372	38.5039
17.456	38.3659
17.54	38.0207
17.624	37.6512
17.708	37.3905
17.792	37.2892
17.876	37.3459
17.96	37.4887
18.044	37.601
18.128	37.612
18.212	37.5224
18.296	37.3662
18.38	37.2093
18.464	37.1374
18.548	37.1682
18.632	37.2076
18.716	37.1392
18.8	36.9467
18.884	36.7237
18.968	36.5705
19.052	36.514
19.136	36.5186
19.22	36.5249
19.304	36.467
19.388	36.3026
19.472	36.0545
19.556	35.8055
19.64	35.6268
19.724	35.5205
19.808	35.4432
19.892	35.3701
19.976	35.3253
20.06	35.353
20.144	35.4614
20.228	35.6072
20.312	35.7213
20.396	35.741
20.48	35.627
20.564	35.3832
20.648	35.0771
20.732	34.8315
20.816	34.757
20.9	34.8657
20.984	35.0465
21.068	35.1349
21.152	35.0316
21.236	34.7627
21.32	34.4428
21.404	34.1802
21.488	34.0195
21.572	33.9512
21.656	33.9524
21.74	34.0122
21.824	34.1187
21.908	34.2318
21.992	34.2855
22.076	34.2187
22.16	34.0098
22.244	33.6957
22.328	33.3528
22.412	33.0576
22.496	32.8513
22.58	32.7103
22.664	32.5693
22.748	32.37
22.832	32.1166
22.916	31.8925
23	31.813
23.084	31.9433
23.168	32.2522
23.252	32.6152
23.336	32.8557
23.42	32.852
23.504	32.5845
23.588	32.1557
23.672	31.7293
23.756	31.4617
23.84	31.4437
23.924	31.6841
24.008	32.1275
24.092	32.6924
24.176	33.3149
24.26	33.9757
24.344	34.6747
24.428	35.3719
24.512	35.9141
24.596	36.0915
24.68	35.7179
24.764	34.7391
24.848	33.3046
24.932	31.722
25.016	30.3303
25.1	29.3943
25.184	28.9747
25.268	28.9413
25.352	29.1345
25.436	29.3618
25.52	29.5357
25.604	29.7338
25.688	29.9917
25.772	30.2607
25.856	30.4544
25.94	30.56
26.024	30.67
26.108	30.9572
26.192	31.574
26.276	32.5978
26.36	34.0381
26.444	35.7054
26.528	37.3133
26.612	38.6171
26.696	39.6236
26.78	40.634
26.864	42.2414
26.948	45.1241
27.028	49.364