File: Bakgrunnsmateriale/MATLAB/FTIR/ftir_data/subBb/Mapping_121/C-4040-8_t09.asc
PE IR       SPECTRUM    SPECTRUM    ASCII       PEDS        1.60
  -1
C-C52E~1.ASC
17/03/27
15:12:29.00
17/03/27
15:12:55.00
tln
$C-4040-8_t0009$<tbV0>[-7.8,-13.0,8.0,0.0,27,1,0]
27.028
64

2002,4.07
MIRTGS : RIGHTBACK : INTERNAL 2
MIR : ON : INTERNAL 2
OPTKBR

0.200000
8
8.000000
FILLER
RATIO
SPECTRUM
UNLOCKED 256

DOUBLE
64
COMBINED
1
0
0

0.002000
RATIO

1
0
TRUE
51149
0
LEFT NOT FITTED RIGHT NOT FITTED 0
NONE
NONE
15600
12
4.427000
51148
TRUE
1 0 8 72 0 0 0 0

15798

#HDR
-1
-1
#GR
µM
%T
2.38419e-05
0.0
2.000000
0.002000
12515
8
80.4992
22.2231
#DATA
2.000000	 63.9547
2.084000	 63.9642
2.168000	 64.1604
2.252000	 67.3053
2.336000	 63.8139
2.420000	 63.9801
2.504000	 64.1605
2.588000	 63.9816
2.672000	 63.934
2.756000	 63.9321
2.840000	 63.2673
2.924000	 63.0434
3.008000	 62.8541
3.092000	 62.8435
3.176000	 62.4603
3.260000	 62.291
3.344000	 62.0112
3.428000	 61.3984
3.512000	 61.3286
3.596000	 61.2278
3.680000	 61.0523
3.764000	 60.6072
3.848000	 60.3776
3.932000	 60.1638
4.016000	 59.8439
4.100000	 59.9783
4.184000	 59.5636
4.268000	 59.2347
4.352000	 59.0306
4.436000	 58.8532
4.520000	 58.5076
4.604000	 58.3295
4.688000	 58.1958
4.772000	 57.8848
4.856000	 57.6701
4.940000	 57.4924
5.024000	 57.3589
5.108000	 57.1468
5.192000	 56.8889
5.276000	 56.7814
5.359999	 56.412
5.444000	 56.3213
5.528000	 56.2467
5.612000	 56.1354
5.696000	 56.0006
5.780000	 55.6691
5.864000	 55.6638
5.948000	 55.6346
6.032000	 55.4212
6.116000	 55.1333
6.200000	 55.0646
6.284000	 54.6143
6.368000	 54.7127
6.452000	 54.5174
6.536000	 54.4445
6.620000	 54.5225
6.704000	 54.2585
6.788000	 54.1056
6.872000	 54.0589
6.956000	 53.837
7.040000	 53.646
7.124000	 53.3505
7.208000	 53.4221
7.292000	 53.1502
7.376000	 53.0571
7.460000	 52.9835
7.544000	 52.8454
7.628000	 52.7527
7.712000	 52.5772
7.796000	 52.5079
7.880000	 52.3963
7.964000	 52.4449
8.048000	 52.2283
8.132000	 52.2591
8.216000	 52.0267
8.300000	 51.9326
8.384000	 51.9087
8.468000	 51.7723
8.552000	 51.8179
8.635999	 51.6929
8.719999	 51.6247
8.804000	 51.4291
8.888000	 51.4038
8.972000	 51.4149
9.056000	 51.2717
9.140000	 51.2633
9.224000	 50.9256
9.308000	 50.8548
9.391999	 50.8316
9.475999	 51.0902
9.560000	 50.9384
9.644000	 50.7537
9.728000	 50.7737
9.812000	 50.7791
9.896000	 50.6119
9.980000	 50.543
10.064	50.5013
10.148	50.3214
10.232	50.2022
10.316	50.1473
10.4	50.2288
10.484	50.0839
10.568	49.9796
10.652	49.8221
10.736	49.5991
10.82	49.4354
10.904	49.4537
10.988	50.1593
11.072	49.554
11.156	49.348
11.24	50.1632
11.324	49.7637
11.408	49.4281
11.492	48.8701
11.576	48.8281
11.66	48.9874
11.744	48.9438
11.828	48.8678
11.912	49.0889
11.996	49.0642
12.08	48.6548
12.164	48.4559
12.248	48.3988
12.332	48.3738
12.416	48.4847
12.5	48.5149
12.584	48.4182
12.668	48.4132
12.752	48.2793
12.836	48.0771
12.92	48.1212
13.004	48.1732
13.088	48.0424
13.172	47.8364
13.256	47.602
13.34	47.5973
13.424	47.9045
13.508	47.9241
13.592	47.5904
13.676	47.3928
13.76	47.4224
13.844	47.5707
13.928	47.6168
14.012	47.4686
14.096	47.1862
14.18	46.9079
14.264	46.6973
14.348	46.545
14.432	46.4426
14.516	46.4817
14.6	46.5665
14.684	46.4931
14.768	46.4411
14.852	46.5221
14.936	46.5824
15.02	46.5328
15.104	46.3797
15.188	46.1672
15.272	46.0072
15.356	46.0111
15.44	46.1506
15.524	46.2664
15.608	46.1738
15.692	45.948
15.776	45.8934
15.86	45.9611
15.944	45.8681
16.028	45.6486
16.112	45.5314
16.196	45.557
16.28	45.5791
16.364	45.5072
16.448	45.3912
16.532	45.2596
16.616	45.1168
16.7	45.0444
16.784	45.0665
16.868	45.073
16.952	44.9949
17.036	44.8633
17.12	44.6866
17.204	44.4618
17.288	44.2551
17.372	44.1415
17.456	44.1242
17.54	44.1729
17.624	44.296
17.708	44.4902
17.792	44.6681
17.876	44.7123
17.96	44.5707
18.044	44.2829
18.128	43.964
18.212	43.7467
18.296	43.6814
18.38	43.6791
18.464	43.5898
18.548	43.3509
18.632	43.0423
18.716	42.8034
18.8	42.7049
18.884	42.6937
18.968	42.641
19.052	42.4557
19.136	42.1978
19.22	42.0544
19.304	42.1743
19.388	42.5327
19.472	42.9706
19.556	43.3101
19.64	43.444
19.724	43.3589
19.808	43.1433
19.892	42.9522
19.976	42.8996
20.06	42.9474
20.144	42.9382
20.228	42.7544
20.312	42.4252
20.396	42.0868
20.48	41.8723
20.564	41.847
20.648	42.0145
20.732	42.329
20.816	42.6893
20.9	42.9369
20.984	42.9191
21.068	42.5834
21.152	42.0107
21.236	41.3722
21.32	40.8382
21.404	40.498
21.488	40.3477
21.572	40.3272
21.656	40.3829
21.74	40.484
21.824	40.6035
21.908	40.6986
21.992	40.7251
22.076	40.6803
22.16	40.629
22.244	40.6698
22.328	40.8593
22.412	41.1466
22.496	41.3764
22.58	41.3895
22.664	41.107
22.748	40.5773
22.832	39.925
22.916	39.2753
23	38.6877
23.084	38.1725
23.168	37.7277
23.252	37.3769
23.336	37.1846
23.42	37.2274
23.504	37.5507
23.588	38.1432
23.672	38.9422
23.756	39.8391
23.84	40.7072
23.924	41.3982
24.008	41.7625
24.092	41.6824
24.176	41.1285
24.26	40.1871
24.344	39.0622
24.428	38.0273
24.512	37.4358
24.596	37.5376
24.68	38.3619
24.764	39.667
24.848	41.0481
24.932	42.0792
25.016	42.5181
25.1	42.4017
25.184	41.898
25.268	41.1961
25.352	40.4537
25.436	39.7406
25.52	39.0871
25.604	38.57
25.688	38.3823
25.772	38.7617
25.856	39.8121
25.94	41.2066
26.024	42.2019
26.108	41.9291
26.192	39.8835
26.276	36.1758
26.36	31.6586
26.444	27.3983
26.528	24.287
26.612	22.5759
26.696	22.2777
26.78	23.3874
26.864	26.1463
26.948	30.9135
27.028	37.3578