File: Bakgrunnsmateriale/MATLAB/FTIR/ftir_data/subBb/Mapping_121/C-4040-8_t28.asc
PE IR       SPECTRUM    SPECTRUM    ASCII       PEDS        1.60
  -1
C-CD2A~1.ASC
17/03/27
16:47:54.00
17/03/27
16:48:20.00
tln
$C-4040-8_t0028$<tbV0>[0.0,-7.8,8.0,0.0,27,1,0]
27.028
64

2002,4.07
MIRTGS : RIGHTBACK : INTERNAL 2
MIR : ON : INTERNAL 2
OPTKBR

0.200000
8
8.000000
FILLER
RATIO
SPECTRUM
UNLOCKED 256

DOUBLE
64
COMBINED
1
0
0

0.002000
RATIO

1
0
TRUE
51149
0
LEFT NOT FITTED RIGHT NOT FITTED 0
NONE
NONE
15600
12
4.427000
51148
TRUE
1 0 8 72 0 0 0 0

15798

#HDR
-1
-1
#GR
µM
%T
2.38419e-05
0.0
2.000000
0.002000
12515
8
68.9672
22.7881
#DATA
2.000000	 63.6191
2.084000	 63.6785
2.168000	 64.077
2.252000	 63.4946
2.336000	 63.7983
2.420000	 63.4042
2.504000	 62.8921
2.588000	 62.8133
2.672000	 62.7585
2.756000	 62.3283
2.840000	 62.1355
2.924000	 61.7386
3.008000	 61.1805
3.092000	 61.1295
3.176000	 60.7124
3.260000	 60.3708
3.344000	 60.0246
3.428000	 59.2626
3.512000	 59.1001
3.596000	 58.9475
3.680000	 58.7076
3.764000	 58.2286
3.848000	 57.7599
3.932000	 57.4535
4.016000	 56.9594
4.100000	 56.7157
4.184000	 56.3956
4.268000	 56.0489
4.352000	 55.7154
4.436000	 55.4519
4.520000	 55.0902
4.604000	 54.8568
4.688000	 54.526
4.772000	 54.0685
4.856000	 54.0203
4.940000	 53.5176
5.024000	 53.3453
5.108000	 53.0034
5.192000	 52.7578
5.276000	 52.4632
5.359999	 52.1772
5.444000	 51.9673
5.528000	 51.6609
5.612000	 51.3214
5.696000	 51.107
5.780000	 50.7918
5.864000	 50.7079
5.948000	 50.4471
6.032000	 50.2723
6.116000	 50.0893
6.200000	 49.9139
6.284000	 49.718
6.368000	 49.4852
6.452000	 49.2853
6.536000	 49.1551
6.620000	 48.9749
6.704000	 48.8211
6.788000	 48.6584
6.872000	 48.5004
6.956000	 48.2571
7.040000	 48.0796
7.124000	 47.8197
7.208000	 47.6989
7.292000	 47.6682
7.376000	 47.4868
7.460000	 47.2962
7.544000	 47.0889
7.628000	 47.0624
7.712000	 46.7942
7.796000	 46.6537
7.880000	 46.4299
7.964000	 46.5916
8.048000	 46.5055
8.132000	 46.303
8.216000	 46.1901
8.300000	 46.0088
8.384000	 45.9435
8.468000	 45.6428
8.552000	 45.4923
8.635999	 45.5048
8.719999	 45.2557
8.804000	 45.3594
8.888000	 45.1013
8.972000	 45.0123
9.056000	 45.0792
9.140000	 44.9643
9.224000	 45.061
9.308000	 44.307
9.391999	 43.946
9.475999	 44.4749
9.560000	 45.0045
9.644000	 44.441
9.728000	 44.0642
9.812000	 44.2957
9.896000	 44.0664
9.980000	 43.8347
10.064	43.6569
10.148	43.8929
10.232	43.4594
10.316	43.4308
10.4	43.1474
10.484	43.1877
10.568	43.2117
10.652	43.0473
10.736	43.0351
10.82	42.9165
10.904	42.9582
10.988	42.6923
11.072	42.6308
11.156	42.6367
11.24	42.614
11.324	42.439
11.408	42.404
11.492	42.3537
11.576	42.2788
11.66	41.9467
11.744	41.9346
11.828	41.9499
11.912	41.7388
11.996	41.7997
12.08	41.7338
12.164	41.5796
12.248	41.4976
12.332	41.5102
12.416	41.4637
12.5	41.2976
12.584	41.1223
12.668	40.8954
12.752	40.717
12.836	40.5723
12.92	40.434
13.004	40.3505
13.088	40.4147
13.172	40.4257
13.256	40.1032
13.34	39.9177
13.424	39.9857
13.508	39.8851
13.592	39.8306
13.676	39.9089
13.76	39.8251
13.844	39.6661
13.928	39.6552
14.012	39.67
14.096	39.5101
14.18	39.3468
14.264	39.1956
14.348	38.9254
14.432	38.7172
14.516	38.6141
14.6	38.4668
14.684	38.3
14.768	38.1731
14.852	38.15
14.936	38.3127
15.02	38.4903
15.104	38.4221
15.188	38.1649
15.272	37.9666
15.356	37.8848
15.44	37.8054
15.524	37.6859
15.608	37.6136
15.692	37.6173
15.776	37.5637
15.86	37.4181
15.944	37.3288
16.028	37.3444
16.112	37.3759
16.196	37.4176
16.28	37.4949
16.364	37.5238
16.448	37.4775
16.532	37.4552
16.616	37.4367
16.7	37.2591
16.784	36.9101
16.868	36.5772
16.952	36.4047
17.036	36.374
17.12	36.4225
17.204	36.5465
17.288	36.7133
17.372	36.7964
17.456	36.7071
17.54	36.5165
17.624	36.3288
17.708	36.1127
17.792	35.7726
17.876	35.3217
17.96	34.9163
18.044	34.709
18.128	34.7111
18.212	34.8167
18.296	34.931
18.38	35.0403
18.464	35.1668
18.548	35.2876
18.632	35.3247
18.716	35.224
18.8	35.0259
18.884	34.8292
18.968	34.6971
19.052	34.6186
19.136	34.5604
19.22	34.5116
19.304	34.4584
19.388	34.3541
19.472	34.1601
19.556	33.8955
19.64	33.6363
19.724	33.4558
19.808	33.3538
19.892	33.2471
19.976	33.0424
20.06	32.7358
20.144	32.4254
20.228	32.2168
20.312	32.1139
20.396	32.0199
20.48	31.8502
20.564	31.6249
20.648	31.4392
20.732	31.3539
20.816	31.3332
20.9	31.2903
20.984	31.1825
21.068	31.0554
21.152	30.997
21.236	31.0663
21.32	31.2668
21.404	31.555
21.488	31.8564
21.572	32.0877
21.656	32.1841
21.74	32.1303
21.824	31.9639
21.908	31.744
21.992	31.5184
22.076	31.3146
22.16	31.1509
22.244	31.0569
22.328	31.0486
22.412	31.0999
22.496	31.1259
22.58	31.0319
22.664	30.7753
22.748	30.4156
22.832	30.0869
22.916	29.9271
23	29.9907
23.084	30.2128
23.168	30.4471
23.252	30.5561
23.336	30.4446
23.42	30.0748
23.504	29.4839
23.588	28.7474
23.672	27.9657
23.756	27.2903
23.84	26.8203
23.924	26.5814
24.008	26.5421
24.092	26.6383
24.176	26.7823
24.26	26.9253
24.344	27.0656
24.428	27.1941
24.512	27.199
24.596	26.8904
24.68	26.1238
24.764	24.9525
24.848	23.6883
24.932	22.8627
25.016	23.0273
25.1	24.531
25.184	27.6134
25.268	32.2852
25.352	38.2747
25.436	44.7052
25.52	50.1966
25.604	53.331
25.688	53.1546
25.772	49.7929
25.856	44.4563
25.94	38.7928
26.024	34.326
26.108	31.8702
26.192	31.6315
26.276	33.357
26.36	36.6809
26.444	40.9087
26.528	45.1251
26.612	48.3197
26.696	49.6837
26.78	48.802
26.864	46.0434
26.948	42.3554
27.028	38.9755