File: Bakgrunnsmateriale/MATLAB/FTIR/ftir_data/subBb/Mapping_121/C-4040-8_t31_cm-1.asc
PE IR       SPECTRUM    SPECTRUM    ASCII       PEDS        1.60
  -1
C-1BE4~1.ASC
17/03/27
17:01:45.00
17/03/27
17:01:45.00
tln
$C-4040-8_t0031$<tbV0>[-7.8,-7.8,8.0,0.0,27,1,0]
370
64

2002,4.07
MIRTGS : RIGHTBACK : INTERNAL 2
MIR : ON : INTERNAL 2
OPTKBR

0.200000
8
8.000000
FILLER
RATIO
SPECTRUM
UNLOCKED 256

DOUBLE
64
COMBINED
1
0
0

1.000000
RATIO

1
0
TRUE
51149
0
LEFT NOT FITTED RIGHT NOT FITTED 0
NONE
NONE
15600
12
4.427000
51148
TRUE
1 0 8 72 0 0 0 0

15798

#HDR
-1
-1
#GR
CM-1
%T
2.38419e-05
0.0
5000
-1.000000
4631
8
77.2167
15.1189
#DATA
5000	63.7169
4984	63.6176
4968	63.5511
4952	64.0527
4936	64.1545
4920	63.5957
4904	64.0607
4888	63.9146
4872	63.9559
4856	63.7029
4840	63.9647
4824	63.9373
4808	63.9662
4792	63.9104
4776	63.931
4760	64.0669
4744	63.9854
4728	63.6373
4712	63.8089
4696	63.8144
4680	63.6635
4664	64.2388
4648	63.775
4632	64.058
4616	63.9677
4600	63.9918
4584	63.8411
4568	63.716
4552	63.6439
4536	63.519
4520	63.7867
4504	63.4726
4488	63.6896
4472	63.3462
4456	63.4701
4440	63.3301
4424	63.1601
4408	62.7203
4392	63.3403
4376	63.3412
4360	51.464
4344	69.0229
4328	62.9385
4312	63.2362
4296	63.1441
4280	63.4291
4264	62.9717
4248	63.1156
4232	63.1392
4216	63.1214
4200	62.5838
4184	62.3551
4168	62.9004
4152	63.1801
4136	63.2017
4120	63.139
4104	63.2537
4088	63.0187
4072	63.2115
4056	62.8974
4040	63.1063
4024	63.1018
4008	62.9439
3992	63.045
3976	63.1194
3960	62.9671
3944	62.9162
3928	62.795
3912	62.5161
3896	62.8042
3880	62.8228
3864	62.783
3848	62.6101
3832	62.2829
3816	62.5127
3800	62.4736
3784	62.1899
3768	62.3993
3752	62.3359
3736	62.2854
3720	62.1774
3704	62.3446
3688	62.1194
3672	62.0813
3656	62.1352
3640	62.025
3624	62.1598
3608	61.758
3592	61.9388
3576	61.9786
3560	61.6835
3544	61.4147
3528	61.5312
3512	61.6156
3496	61.5066
3480	61.4609
3464	61.267
3448	61.2521
3432	61.376
3416	61.0029
3400	60.9853
3384	60.9455
3368	60.9358
3352	60.8075
3336	60.81
3320	60.5718
3304	60.6804
3288	60.3789
3272	60.451
3256	60.4636
3240	60.196
3224	60.1844
3208	59.9623
3192	60.1281
3176	59.9005
3160	59.7474
3144	59.5636
3128	59.4487
3112	59.6288
3096	59.3197
3080	59.3712
3064	59.1835
3048	59.1702
3032	58.9722
3016	58.8141
3000	58.8546
2984	58.8574
2968	58.7218
2952	58.4517
2936	58.3559
2920	58.0776
2904	58.1374
2888	58.0486
2872	57.897
2856	57.621
2840	57.9467
2824	57.7119
2808	57.6378
2792	57.5342
2776	57.3144
2760	57.2756
2744	57.2675
2728	56.96
2712	56.8765
2696	56.8364
2680	56.622
2664	56.5746
2648	56.2876
2632	56.2792
2616	56.1006
2600	55.9597
2584	55.9388
2568	55.8134
2552	55.5449
2536	55.4667
2520	55.2802
2504	55.0875
2488	54.9387
2472	54.8437
2456	54.7295
2440	54.5959
2424	54.8315
2408	54.5252
2392	54.2182
2376	53.9677
2360	53.8578
2344	53.7199
2328	53.5763
2312	53.4492
2296	53.3056
2280	53.0975
2264	52.9866
2248	52.894
2232	52.7443
2216	52.5629
2200	52.3675
2184	52.2961
2168	52.044
2152	51.9301
2136	51.75
2120	51.6534
2104	51.504
2088	51.3529
2072	51.0747
2056	50.9376
2040	50.7266
2024	50.5232
2008	50.5829
1992	50.2409
1976	50
1960	49.9327
1944	49.6825
1928	49.6085
1912	49.4184
1896	49.174
1880	49.0823
1864	48.9402
1848	48.6767
1832	48.6356
1816	48.2508
1800	48.1937
1784	48.0509
1768	47.8749
1752	47.6761
1736	47.3787
1720	47.1026
1704	47.1453
1688	46.9888
1672	46.8285
1656	46.5777
1640	46.5064
1624	46.3183
1608	46.0963
1592	45.8701
1576	45.7696
1560	45.5872
1544	45.3129
1528	45.184
1512	44.9696
1496	44.8874
1480	44.6165
1464	44.4383
1448	44.2462
1432	43.9856
1416	43.8194
1400	43.7062
1384	43.4512
1368	43.1423
1352	43.1818
1336	42.8705
1320	42.7756
1304	42.5428
1288	42.2913
1272	42.2962
1256	41.9226
1240	41.9318
1224	41.5956
1208	41.4165
1192	41.1302
1176	41.0721
1160	40.9298
1144	40.5716
1128	40.6068
1112	40.3703
1096	39.9064
1080	39.5444
1064	39.3586
1048	39.6707
1032	39.267
1016	39.0575
1000	38.7978
984	 38.7718
968	 38.4707
952	 38.3369
936	 38.0681
920	 37.7353
904	 37.5124
888	 37.3397
872	 37.0996
856	 36.9379
840	 36.5077
824	 36.2017
808	 36.0409
792	 35.674
776	 35.3595
760	 34.8468
744	 34.2768
728	 34.3633
712	 33.8236
696	 33.5558
680	 33.4728
664	 32.4566
648	 32.4028
632	 31.7672
616	 31.3665
600	 30.7881
584	 30.608
568	 29.8161
552	 29.1234
536	 28.1312
520	 28.1364
504	 26.5351
488	 26.9329
472	 25.9107
456	 23.9294
440	 23.8731
424	 22.1835
408	 20.3587
392	 15.1189
376	 49.4371
370	 69.06