File: Bakgrunnsmateriale/MATLAB/FTIR/ftir_data/subBb/Mapping_121/C-4040-8_t23_cm-1.asc
PE IR       SPECTRUM    SPECTRUM    ASCII       PEDS        1.60
  -1
C-9AE1~1.ASC
17/03/27
16:24:49.00
17/03/27
16:24:49.00
tln
$C-4040-8_t0023$<tbV0>[13.0,-7.8,8.0,0.0,27,1,0]
370
64

2002,4.07
MIRTGS : RIGHTBACK : INTERNAL 2
MIR : ON : INTERNAL 2
OPTKBR

0.200000
8
8.000000
FILLER
RATIO
SPECTRUM
UNLOCKED 256

DOUBLE
64
COMBINED
1
0
0

1.000000
RATIO

1
0
TRUE
51149
0
LEFT NOT FITTED RIGHT NOT FITTED 0
NONE
NONE
15600
12
4.427000
51148
TRUE
1 0 8 72 0 0 0 0

15798

#HDR
-1
-1
#GR
CM-1
%T
2.38419e-05
0.0
5000
-1.000000
4631
8
86.6609
39.1752
#DATA
5000	64.341
4984	64.2367
4968	64.8719
4952	65.0957
4936	64.4994
4920	64.1482
4904	64.8216
4888	65.3621
4872	64.0009
4856	65.2509
4840	64.6986
4824	64.8334
4808	64.4606
4792	65.045
4776	64.6345
4760	64.6914
4744	64.8717
4728	64.8326
4712	64.9841
4696	64.8484
4680	64.9036
4664	64.7839
4648	64.6751
4632	64.739
4616	64.7678
4600	64.9297
4584	64.5011
4568	64.3806
4552	64.8475
4536	64.411
4520	64.5658
4504	64.3107
4488	64.8657
4472	63.9351
4456	64.3101
4440	63.6363
4424	63.5068
4408	63.4385
4392	65.7315
4376	81.7018
4360	68.7919
4344	65.0313
4328	63.8589
4312	64.0331
4296	64.2808
4280	64.4619
4264	64.2357
4248	64.2607
4232	64.4883
4216	64.4759
4200	64.3667
4184	63.6153
4168	65.3237
4152	64.7164
4136	64.9786
4120	64.882
4104	64.617
4088	65.0222
4072	64.9776
4056	65.1554
4040	65.2956
4024	64.8104
4008	64.91
3992	64.8126
3976	64.9068
3960	64.9099
3944	64.763
3928	64.8937
3912	64.6177
3896	64.7838
3880	65.0613
3864	64.9755
3848	65.0838
3832	64.7015
3816	64.6664
3800	64.8508
3784	64.7316
3768	64.8743
3752	64.8334
3736	64.8809
3720	65.0075
3704	64.9807
3688	65.0323
3672	65.0209
3656	64.9448
3640	64.9971
3624	65.214
3608	65.0465
3592	65.1056
3576	65.1708
3560	65.1618
3544	65.0375
3528	65.0684
3512	65.1438
3496	64.9191
3480	65.0799
3464	64.9967
3448	65.0687
3432	65.1591
3416	64.8203
3400	64.9085
3384	64.8833
3368	65.0341
3352	65.1423
3336	64.8886
3320	65.2867
3304	65.0586
3288	64.9121
3272	65.1471
3256	65.0346
3240	65.1497
3224	65.0581
3208	64.9845
3192	65.1005
3176	65.0147
3160	65.053
3144	64.9183
3128	64.9126
3112	65.1738
3096	65.0697
3080	65.1962
3064	65.131
3048	64.9772
3032	65.1014
3016	65.0705
3000	65.0084
2984	64.8676
2968	65.0376
2952	64.9963
2936	64.8142
2920	64.6423
2904	64.992
2888	64.8496
2872	65.012
2856	64.708
2840	65.1115
2824	65.0141
2808	65.1133
2792	65.1288
2776	65.0571
2760	65.1811
2744	65.1252
2728	64.9057
2712	64.9963
2696	65.2047
2680	65.1422
2664	65.1394
2648	65.0519
2632	65.2692
2616	65.0223
2600	65.0374
2584	64.9236
2568	65.1115
2552	65.1155
2536	65.1525
2520	65.0603
2504	65.1419
2488	65.2406
2472	65.0911
2456	64.9778
2440	65.1085
2424	65.3994
2408	64.9443
2392	65.099
2376	65.1666
2360	65.2984
2344	65.2552
2328	65.1734
2312	65.1958
2296	65.2569
2280	65.1889
2264	65.1398
2248	65.1174
2232	65.1378
2216	65.0749
2200	65.1703
2184	65.2654
2168	65.2577
2152	64.9872
2136	65.2378
2120	65.301
2104	65.1797
2088	65.1386
2072	65.0362
2056	65.3237
2040	65.08
2024	65.153
2008	65.2335
1992	65.2456
1976	65.2568
1960	65.2395
1944	65.2494
1928	65.3084
1912	65.1287
1896	65.0799
1880	65.2818
1864	65.1671
1848	65.2454
1832	65.1519
1816	65.2291
1800	65.1008
1784	65.2121
1768	65.0951
1752	65.108
1736	64.9363
1720	65.065
1704	65.1325
1688	65.2204
1672	65.1178
1656	65.032
1640	65.0001
1624	65.0685
1608	65.0187
1592	65.1002
1576	65.0124
1560	64.9895
1544	64.9021
1528	65.0155
1512	65.0054
1496	65.0512
1480	65.1512
1464	64.8089
1448	65.1494
1432	64.9442
1416	64.9644
1400	65.0034
1384	65.0643
1368	64.8974
1352	64.9453
1336	64.8877
1320	64.9494
1304	64.9838
1288	64.9203
1272	64.905
1256	64.8921
1240	64.9221
1224	64.8466
1208	64.7468
1192	64.7092
1176	64.8238
1160	64.7792
1144	64.7553
1128	64.6468
1112	64.6584
1096	64.8324
1080	64.6389
1064	64.6291
1048	64.8859
1032	64.5041
1016	65.4295
1000	64.4356
984	 65.1717
968	 64.5057
952	 64.7504
936	 64.4906
920	 64.4585
904	 64.3986
888	 64.4336
872	 64.3535
856	 64.3673
840	 64.1749
824	 64.0622
808	 63.7353
792	 63.8364
776	 63.9482
760	 64.1268
744	 63.4966
728	 63.3136
712	 63.4117
696	 63.1462
680	 62.7727
664	 63.1914
648	 62.3573
632	 62.9096
616	 62.157
600	 62.1986
584	 62.2515
568	 61.9062
552	 62.2407
536	 60.8648
520	 61.2618
504	 61.1567
488	 60.0456
472	 59.9737
456	 57.2976
440	 60.4075
424	 56.5457
408	 53.9245
392	 62.937
376	 58.4136
370	 52.574