File: Bakgrunnsmateriale/MATLAB/FTIR/ftir_data/subBb/Mapping_121/C-4040-8_t68.asc
PE IR       SPECTRUM    SPECTRUM    ASCII       PEDS        1.60
  -1
C-CD3A~1.ASC
17/03/27
20:07:25.00
17/03/27
20:07:51.00
tln
$C-4040-8_t0068$<tbV0>[10.4,2.6,8.0,0.0,27,1,0]
27.028
64

2002,4.07
MIRTGS : RIGHTBACK : INTERNAL 2
MIR : ON : INTERNAL 2
OPTKBR

0.200000
8
8.000000
FILLER
RATIO
SPECTRUM
UNLOCKED 256

DOUBLE
64
COMBINED
1
0
0

0.002000
RATIO

1
0
TRUE
51149
0
LEFT NOT FITTED RIGHT NOT FITTED 0
NONE
NONE
15600
12
4.427000
51148
TRUE
1 0 8 72 0 0 0 0

15798

#HDR
-1
-1
#GR
µM
%T
2.38419e-05
0.0
2.000000
0.002000
12515
8
93.6775
25.1875
#DATA
2.000000	 65.355
2.084000	 64.9064
2.168000	 65.2015
2.252000	 64.2533
2.336000	 64.6612
2.420000	 65.1311
2.504000	 65.2408
2.588000	 65.479
2.672000	 65.1449
2.756000	 65.219
2.840000	 65.3476
2.924000	 65.3903
3.008000	 65.1511
3.092000	 65.3283
3.176000	 65.3396
3.260000	 65.1982
3.344000	 65.0262
3.428000	 64.8549
3.512000	 65.1651
3.596000	 65.4279
3.680000	 65.3793
3.764000	 65.3436
3.848000	 65.269
3.932000	 65.135
4.016000	 65.1266
4.100000	 65.4891
4.184000	 65.2847
4.268000	 65.3403
4.352000	 65.2914
4.436000	 65.3743
4.520000	 65.296
4.604000	 65.3394
4.688000	 65.2713
4.772000	 65.3321
4.856000	 65.1349
4.940000	 65.328
5.024000	 65.3013
5.108000	 65.405
5.192000	 65.403
5.276000	 65.3476
5.359999	 65.3518
5.444000	 65.3138
5.528000	 65.338
5.612000	 65.3846
5.696000	 65.3749
5.780000	 65.3004
5.864000	 65.1276
5.948000	 65.2385
6.032000	 65.2243
6.116000	 65.0904
6.200000	 65.0501
6.284000	 65.1081
6.368000	 64.9779
6.452000	 65.0302
6.536000	 65.0756
6.620000	 65.137
6.704000	 65.2406
6.788000	 65.0231
6.872000	 65.0795
6.956000	 65.2849
7.040000	 65.0806
7.124000	 65.1551
7.208000	 64.989
7.292000	 65.1782
7.376000	 65.1528
7.460000	 65.1551
7.544000	 65.1523
7.628000	 64.9587
7.712000	 65.0047
7.796000	 64.8842
7.880000	 64.8737
7.964000	 64.8998
8.048000	 64.8531
8.132000	 64.8895
8.216000	 64.6708
8.300000	 65.1229
8.384000	 64.7634
8.468000	 64.7206
8.552000	 64.5429
8.635999	 64.7042
8.719999	 64.6605
8.804000	 64.82
8.888000	 64.5831
8.972000	 64.6951
9.056000	 64.5027
9.140000	 64.5385
9.224000	 64.3855
9.308000	 64.6417
9.391999	 64.7479
9.475999	 64.5517
9.560000	 64.6125
9.644000	 64.822
9.728000	 64.4784
9.812000	 64.0099
9.896000	 64.3714
9.980000	 64.8647
10.064	64.7257
10.148	64.7462
10.232	64.8102
10.316	64.382
10.4	64.8133
10.484	65.0287
10.568	65.136
10.652	64.6665
10.736	64.2338
10.82	64.3534
10.904	64.727
10.988	64.5329
11.072	64.3144
11.156	64.4619
11.24	64.5873
11.324	64.6716
11.408	64.7133
11.492	64.4832
11.576	64.3038
11.66	64.0805
11.744	64.0776
11.828	64.2335
11.912	64.2102
11.996	64.3792
12.08	64.3146
12.164	64.2129
12.248	64.2172
12.332	64.1842
12.416	64.2018
12.5	64.1341
12.584	63.9589
12.668	64.148
12.752	64.3898
12.836	63.9728
12.92	63.6778
13.004	63.6925
13.088	63.8615
13.172	63.9734
13.256	63.6798
13.34	63.3232
13.424	63.2909
13.508	63.5848
13.592	63.523
13.676	63.5029
13.76	63.6518
13.844	63.6585
13.928	63.576
14.012	63.3641
14.096	63.1387
14.18	63.0812
14.264	63.1597
14.348	63.2113
14.432	63.2918
14.516	63.3086
14.6	63.0561
14.684	62.9638
14.768	63.0332
14.852	62.9345
14.936	62.8808
15.02	62.7949
15.104	62.5081
15.188	62.3374
15.272	62.3767
15.356	62.4382
15.44	62.5311
15.524	62.6534
15.608	62.6589
15.692	62.5753
15.776	62.585
15.86	62.6636
15.944	62.617
16.028	62.3724
16.112	62.0446
16.196	61.8763
16.28	62.0445
16.364	62.3631
16.448	62.4513
16.532	62.2686
16.616	62.0914
16.7	62.0158
16.784	61.9369
16.868	61.8919
16.952	61.9778
17.036	62.0975
17.12	62.1082
17.204	62.0295
17.288	61.8887
17.372	61.596
17.456	61.161
17.54	60.8272
17.624	60.8173
17.708	61.0514
17.792	61.2615
17.876	61.2991
17.96	61.2228
18.044	61.1307
18.128	61.0474
18.212	60.9599
18.296	60.8697
18.38	60.7894
18.464	60.7458
18.548	60.7705
18.632	60.8293
18.716	60.8242
18.8	60.6946
18.884	60.4921
18.968	60.3014
19.052	60.1392
19.136	59.9726
19.22	59.8217
19.304	59.7698
19.388	59.8665
19.472	60.057
19.556	60.2228
19.64	60.2765
19.724	60.2019
19.808	60.0186
19.892	59.7354
19.976	59.3824
20.06	59.0635
20.144	58.927
20.228	59.0579
20.312	59.3936
20.396	59.7541
20.48	59.962
20.564	59.9431
20.648	59.7498
20.732	59.5101
20.816	59.357
20.9	59.3587
20.984	59.4724
21.068	59.5651
21.152	59.5057
21.236	59.2644
21.32	58.9334
21.404	58.6611
21.488	58.5308
21.572	58.5084
21.656	58.4827
21.74	58.3519
21.824	58.1041
21.908	57.8206
21.992	57.607
22.076	57.5281
22.16	57.5628
22.244	57.6271
22.328	57.6346
22.412	57.5523
22.496	57.4224
22.58	57.3479
22.664	57.4363
22.748	57.7269
22.832	58.1556
22.916	58.5792
23	58.8313
23.084	58.7999
23.168	58.4545
23.252	57.8367
23.336	57.0265
23.42	56.1228
23.504	55.2376
23.588	54.4731
23.672	53.8981
23.756	53.5262
23.84	53.2947
23.924	53.0516
24.008	52.658
24.092	52.0876
24.176	51.4193
24.26	50.837
24.344	50.5525
24.428	50.6677
24.512	51.099
24.596	51.655
24.68	52.0587
24.764	52.0213
24.848	51.4135
24.932	50.3621
25.016	49.2425
25.1	48.5468
25.184	48.6725
25.268	49.6552
25.352	51.1092
25.436	52.381
25.52	52.78
25.604	51.7918
25.688	49.1051
25.772	44.7634
25.856	39.2221
25.94	33.3504
26.024	28.365
26.108	25.5093
26.192	25.7051
26.276	29.2938
26.36	35.8754
26.444	44.3629
26.528	53.318
26.612	61.515
26.696	68.0368
26.78	72.3401
26.864	74.4204
26.948	74.5042
27.028	72.8691