File: Bakgrunnsmateriale/MATLAB/FTIR/ftir_data/subBb/Mapping_121/C-4040-8_t20.asc
PE IR       SPECTRUM    SPECTRUM    ASCII       PEDS        1.60
  -1
C-AD2A~1.ASC
17/03/27
16:03:50.00
17/03/27
16:04:17.00
tln
$C-4040-8_t0020$<tbV0>[-7.8,-10.4,8.0,0.0,27,1,0]
27.028
64

2002,4.07
MIRTGS : RIGHTBACK : INTERNAL 2
MIR : ON : INTERNAL 2
OPTKBR

0.200000
8
8.000000
FILLER
RATIO
SPECTRUM
UNLOCKED 256

DOUBLE
64
COMBINED
1
0
0

0.002000
RATIO

1
0
TRUE
51149
0
LEFT NOT FITTED RIGHT NOT FITTED 0
NONE
NONE
15600
12
4.427000
51148
TRUE
1 0 8 72 0 0 0 0

15798

#HDR
-1
-1
#GR
µM
%T
2.38419e-05
0.0
2.000000
0.002000
12515
8
72.9956
18.7701
#DATA
2.000000	 64.2489
2.084000	 64.3222
2.168000	 64.3961
2.252000	 67.718
2.336000	 63.7306
2.420000	 63.582
2.504000	 64.0553
2.588000	 63.7605
2.672000	 63.7654
2.756000	 63.2925
2.840000	 62.7001
2.924000	 62.4262
3.008000	 62.1129
3.092000	 61.9111
3.176000	 61.5096
3.260000	 61.3277
3.344000	 60.8429
3.428000	 60.2026
3.512000	 60.0733
3.596000	 60.0266
3.680000	 59.5027
3.764000	 59.243
3.848000	 58.9047
3.932000	 58.6519
4.016000	 58.2889
4.100000	 58.1787
4.184000	 57.6592
4.268000	 57.3012
4.352000	 56.9614
4.436000	 56.7152
4.520000	 56.3291
4.604000	 56.1466
4.688000	 55.9509
4.772000	 55.5958
4.856000	 55.4399
4.940000	 55.0143
5.024000	 54.7872
5.108000	 54.5219
5.192000	 54.2571
5.276000	 54.1132
5.359999	 53.7915
5.444000	 53.5067
5.528000	 53.4653
5.612000	 53.2937
5.696000	 53.082
5.780000	 52.7555
5.864000	 52.8822
5.948000	 52.5923
6.032000	 52.3979
6.116000	 51.9974
6.200000	 51.6525
6.284000	 51.5016
6.368000	 51.4044
6.452000	 51.3715
6.536000	 51.1122
6.620000	 51.0568
6.704000	 50.7818
6.788000	 50.7383
6.872000	 50.6246
6.956000	 50.246
7.040000	 50.2482
7.124000	 49.7883
7.208000	 49.8476
7.292000	 49.5955
7.376000	 49.5134
7.460000	 49.4135
7.544000	 49.2335
7.628000	 49.0622
7.712000	 48.9398
7.796000	 48.8038
7.880000	 48.6217
7.964000	 48.5106
8.048000	 48.4791
8.132000	 48.3423
8.216000	 48.1981
8.300000	 48.2125
8.384000	 48.0948
8.468000	 47.9233
8.552000	 47.6305
8.635999	 47.7263
8.719999	 47.5488
8.804000	 47.4734
8.888000	 47.409
8.972000	 47.3639
9.056000	 47.0354
9.140000	 47.049
9.224000	 47.0245
9.308000	 46.7538
9.391999	 46.9093
9.475999	 46.7148
9.560000	 46.8365
9.644000	 46.5359
9.728000	 46.5381
9.812000	 46.4603
9.896000	 46.4115
9.980000	 46.1497
10.064	46.0684
10.148	46.3726
10.232	46.4828
10.316	45.8331
10.4	45.6742
10.484	45.74
10.568	45.1352
10.652	45.2337
10.736	45.3175
10.82	45.5118
10.904	45.3361
10.988	44.9914
11.072	44.7516
11.156	44.7835
11.24	44.8876
11.324	44.7468
11.408	44.7289
11.492	44.6406
11.576	44.4832
11.66	44.3982
11.744	44.4189
11.828	44.2836
11.912	44.1387
11.996	43.9906
12.08	44.0533
12.164	44.0828
12.248	43.8259
12.332	43.6662
12.416	43.7214
12.5	43.66
12.584	43.5057
12.668	43.6851
12.752	43.8732
12.836	43.8129
12.92	43.5694
13.004	43.4355
13.088	43.4114
13.172	43.1051
13.256	42.8018
13.34	42.8177
13.424	42.764
13.508	42.4192
13.592	42.3182
13.676	42.4767
13.76	42.5135
13.844	42.3684
13.928	42.2718
14.012	42.2148
14.096	42.0317
14.18	41.8683
14.264	41.7903
14.348	41.7324
14.432	41.5828
14.516	41.5279
14.6	41.6587
14.684	41.6696
14.768	41.5134
14.852	41.398
14.936	41.3652
15.02	41.3517
15.104	41.2262
15.188	41.0859
15.272	41.1691
15.356	41.3046
15.44	41.222
15.524	40.937
15.608	40.6178
15.692	40.4369
15.776	40.4079
15.86	40.4856
15.944	40.6269
16.028	40.6692
16.112	40.5666
16.196	40.4894
16.28	40.4644
16.364	40.3476
16.448	40.0937
16.532	39.7894
16.616	39.5448
16.7	39.441
16.784	39.4783
16.868	39.5764
16.952	39.6371
17.036	39.5948
17.12	39.4425
17.204	39.2502
17.288	39.1282
17.372	39.0934
17.456	39.0213
17.54	38.8042
17.624	38.5482
17.708	38.4646
17.792	38.5842
17.876	38.7087
17.96	38.6143
18.044	38.2596
18.128	37.8453
18.212	37.6381
18.296	37.7191
18.38	37.909
18.464	37.9667
18.548	37.824
18.632	37.6019
18.716	37.4692
18.8	37.4929
18.884	37.56
18.968	37.479
19.052	37.1806
19.136	36.7859
19.22	36.4786
19.304	36.3642
19.388	36.4377
19.472	36.6226
19.556	36.7912
19.64	36.8105
19.724	36.653
19.808	36.4601
19.892	36.4342
19.976	36.6492
20.06	36.9626
20.144	37.1193
20.228	36.949
20.312	36.4905
20.396	35.9546
20.48	35.5793
20.564	35.4966
20.648	35.6818
20.732	36.0023
20.816	36.322
20.9	36.5448
20.984	36.6153
21.068	36.5079
21.152	36.2438
21.236	35.9106
21.32	35.6226
21.404	35.4423
21.488	35.3549
21.572	35.302
21.656	35.2591
21.74	35.2577
21.824	35.3159
21.908	35.3606
21.992	35.249
22.076	34.8768
22.16	34.2964
22.244	33.734
22.328	33.4481
22.412	33.5778
22.496	34.0226
22.58	34.4929
22.664	34.6658
22.748	34.3568
22.832	33.6203
22.916	32.6991
23	31.9082
23.084	31.4683
23.168	31.4491
23.252	31.775
23.336	32.2899
23.42	32.8474
23.504	33.3675
23.588	33.7935
23.672	34.0541
23.756	34.0824
23.84	33.8256
23.924	33.3185
24.008	32.6747
24.092	32.0306
24.176	31.489
24.26	31.1215
24.344	30.9355
24.428	30.838
24.512	30.6383
24.596	30.1007
24.68	29.0911
24.764	27.7213
24.848	26.3249
24.932	25.4209
25.016	25.5043
25.1	26.8689
25.184	29.5069
25.268	33.1022
25.352	37.1908
25.436	41.2736
25.52	44.9182
25.604	47.7727
25.688	49.487
25.772	49.7628
25.856	48.4411
25.94	45.6099
26.024	41.6676
26.108	37.2752
26.192	33.1071
26.276	29.6272
26.36	27.0007
26.444	25.0073
26.528	23.2762
26.612	21.5246
26.696	19.8659
26.78	18.8367
26.864	19.2767
26.948	21.8707
27.028	26.3288