File: Bakgrunnsmateriale/MATLAB/FTIR/ftir_data/subBb/Mapping_121/C-4040-8_t71_cm-1.asc
PE IR       SPECTRUM    SPECTRUM    ASCII       PEDS        1.60
  -1
C-1DE4~1.ASC
17/03/27
20:21:15.00
17/03/27
20:21:15.00
tln
$C-4040-8_t0071$<tbV0>[2.6,2.6,8.0,0.0,27,1,0]
370
64

2002,4.07
MIRTGS : RIGHTBACK : INTERNAL 2
MIR : ON : INTERNAL 2
OPTKBR

0.200000
8
8.000000
FILLER
RATIO
SPECTRUM
UNLOCKED 256

DOUBLE
64
COMBINED
1
0
0

1.000000
RATIO

1
0
TRUE
51149
0
LEFT NOT FITTED RIGHT NOT FITTED 0
NONE
NONE
15600
12
4.427000
51148
TRUE
1 0 8 72 0 0 0 0

15798

#HDR
-1
-1
#GR
CM-1
%T
2.38419e-05
0.0
5000
-1.000000
4631
8
89.6537
42.2066
#DATA
5000	64.9927
4984	65.1905
4968	64.052
4952	65.8665
4936	64.4418
4920	64.6862
4904	65.1566
4888	64.4571
4872	65.7873
4856	65.1942
4840	65.2212
4824	65.0374
4808	65.1756
4792	65.078
4776	65.1906
4760	65.499
4744	65.5249
4728	65.3438
4712	65.6015
4696	65.2863
4680	65.6208
4664	65.3779
4648	65.7003
4632	65.1618
4616	65.2853
4600	64.8187
4584	64.9274
4568	64.7718
4552	64.671
4536	64.8263
4520	64.5602
4504	64.6006
4488	64.9585
4472	64.2267
4456	64.3385
4440	64.5442
4424	63.9867
4408	63.3368
4392	63.0285
4376	75.8583
4360	65.3079
4344	64.44
4328	64.7159
4312	64.408
4296	64.8478
4280	64.4961
4264	64.7344
4248	64.9442
4232	64.6427
4216	64.6188
4200	64.844
4184	65.4576
4168	64.7661
4152	65.5134
4136	65.2705
4120	65.0375
4104	65.0796
4088	65.3811
4072	65.242
4056	65.2599
4040	65.252
4024	65.2827
4008	65.5003
3992	65.6502
3976	65.4699
3960	65.2958
3944	64.9353
3928	65.4155
3912	65.4228
3896	65.2567
3880	65.2301
3864	65.5278
3848	65.1582
3832	65.1716
3816	65.2457
3800	65.1131
3784	65.2381
3768	65.1337
3752	65.2236
3736	65.4241
3720	65.3162
3704	65.2451
3688	65.1702
3672	65.0943
3656	65.2601
3640	65.2998
3624	65.5101
3608	65.1663
3592	65.44
3576	65.4406
3560	65.4105
3544	65.2895
3528	65.4571
3512	65.3849
3496	65.2943
3480	65.623
3464	65.2299
3448	65.5037
3432	65.1767
3416	65.3695
3400	65.1864
3384	65.2651
3368	65.1928
3352	65.4143
3336	65.3988
3320	65.3728
3304	65.2741
3288	65.2789
3272	65.2044
3256	65.1556
3240	65.1767
3224	65.2166
3208	65.1685
3192	65.2936
3176	65.2832
3160	65.2071
3144	65.5653
3128	65.3503
3112	64.9907
3096	65.1999
3080	65.2056
3064	65.316
3048	65.2813
3032	65.4663
3016	65.0818
3000	65.164
2984	65.1303
2968	65.0353
2952	65.1661
2936	65.1713
2920	64.9305
2904	65.1633
2888	65.2579
2872	65.194
2856	65.0303
2840	65.0964
2824	65.2282
2808	65.3544
2792	65.3046
2776	65.3149
2760	65.4547
2744	65.4953
2728	65.2445
2712	65.4804
2696	65.3454
2680	65.19
2664	65.3558
2648	65.3041
2632	65.2786
2616	65.4106
2600	65.1845
2584	65.3067
2568	65.2398
2552	65.3673
2536	65.3191
2520	65.416
2504	65.3384
2488	65.2564
2472	65.244
2456	65.3895
2440	65.5098
2424	65.1553
2408	65.1134
2392	65.4474
2376	65.3617
2360	65.2867
2344	65.4964
2328	65.4517
2312	65.4452
2296	65.4132
2280	65.3462
2264	65.3588
2248	65.5153
2232	65.3939
2216	65.5028
2200	65.3106
2184	65.4057
2168	65.5052
2152	65.161
2136	65.3726
2120	65.3964
2104	65.4448
2088	65.5711
2072	65.4533
2056	64.9215
2040	65.4252
2024	65.3027
2008	65.3954
1992	65.3279
1976	65.357
1960	65.3437
1944	65.4151
1928	65.3234
1912	65.3889
1896	65.3259
1880	65.3592
1864	65.3743
1848	65.3002
1832	65.4372
1816	65.514
1800	65.2462
1784	65.4071
1768	65.3657
1752	65.259
1736	65.2048
1720	65.1285
1704	65.2236
1688	65.4569
1672	65.3354
1656	65.2575
1640	65.2932
1624	65.1093
1608	65.0606
1592	65.0247
1576	65.1781
1560	65.1276
1544	65.124
1528	65.1694
1512	65.1322
1496	64.95
1480	65.2245
1464	65.1873
1448	65.0651
1432	65.2362
1416	65.3051
1400	65.1905
1384	65.2228
1368	65.1222
1352	65.1621
1336	65.2567
1320	65.0838
1304	65.0711
1288	65.295
1272	65.0244
1256	65.1452
1240	64.9508
1224	65.0439
1208	65.0944
1192	64.8577
1176	64.9099
1160	64.9138
1144	64.6757
1128	64.9506
1112	64.769
1096	65.1245
1080	64.6878
1064	64.5976
1048	64.3936
1032	65.0182
1016	64.0759
1000	64.652
984	 64.6019
968	 64.5276
952	 64.8081
936	 64.807
920	 64.9412
904	 64.5382
888	 64.7381
872	 64.5215
856	 64.2471
840	 64.7701
824	 64.2312
808	 64.3594
792	 64.1635
776	 64.1126
760	 64.0509
744	 63.443
728	 63.8292
712	 63.2965
696	 63.9446
680	 63.3502
664	 62.583
648	 62.6628
632	 62.5307
616	 62.351
600	 62.6546
584	 62.8511
568	 61.7051
552	 61.2678
536	 61.4352
520	 61.1725
504	 60.5316
488	 60.0537
472	 59.3058
456	 59.542
440	 58.6745
424	 53.6164
408	 51.427
392	 72.0859
376	 59.2123
370	 42.7967