File: Bakgrunnsmateriale/MATLAB/FTIR/ftir_data/subBb/Mapping_121/C-4040-8_t19_cm-1.asc
PE IR       SPECTRUM    SPECTRUM    ASCII       PEDS        1.60
  -1
C-1AE0~1.ASC
17/03/27
15:59:14.00
17/03/27
15:59:14.00
tln
$C-4040-8_t0019$<tbV0>[-5.2,-10.4,8.0,0.0,27,1,0]
370
64

2002,4.07
MIRTGS : RIGHTBACK : INTERNAL 2
MIR : ON : INTERNAL 2
OPTKBR

0.200000
8
8.000000
FILLER
RATIO
SPECTRUM
UNLOCKED 256

DOUBLE
64
COMBINED
1
0
0

1.000000
RATIO

1
0
TRUE
51149
0
LEFT NOT FITTED RIGHT NOT FITTED 0
NONE
NONE
15600
12
4.427000
51148
TRUE
1 0 8 72 0 0 0 0

15798

#HDR
-1
-1
#GR
CM-1
%T
2.38419e-05
0.0
5000
-1.000000
4631
8
72.2309
31.0127
#DATA
5000	63.67
4984	64.6118
4968	64.2601
4952	63.3575
4936	63.3703
4920	63.8197
4904	64.8313
4888	64.491
4872	64.0342
4856	64.2205
4840	64.295
4824	64.2065
4808	63.7827
4792	63.849
4776	64.3311
4760	64.1912
4744	63.9968
4728	63.7435
4712	64.2405
4696	64.4268
4680	64.3157
4664	63.9164
4648	64.1963
4632	64.0748
4616	64.1068
4600	64.505
4584	63.988
4568	64.1082
4552	63.466
4536	63.9703
4520	63.8697
4504	64.2023
4488	63.3038
4472	64.4088
4456	65.5646
4440	66.871
4424	62.7014
4408	62.7458
4392	60.0968
4376	71.2441
4360	65.1318
4344	63.9336
4328	63.1669
4312	63.9215
4296	63.4612
4280	63.6208
4264	63.6272
4248	63.4463
4232	63.5962
4216	63.7035
4200	63.7266
4184	63.4297
4168	63.8864
4152	63.5948
4136	63.8659
4120	64.0873
4104	63.5443
4088	64.0523
4072	63.7614
4056	64.092
4040	63.9018
4024	64.016
4008	64.174
3992	63.7812
3976	63.5984
3960	63.7236
3944	63.9342
3928	63.781
3912	63.7184
3896	63.923
3880	63.5244
3864	63.945
3848	64.0757
3832	63.8985
3816	63.9235
3800	64.0737
3784	63.5961
3768	63.7002
3752	64.1302
3736	64.0698
3720	63.8771
3704	63.6921
3688	63.6853
3672	63.9119
3656	63.6366
3640	63.4301
3624	63.4746
3608	63.278
3592	63.434
3576	63.3334
3560	63.2163
3544	63.3706
3528	63.0095
3512	63.0033
3496	62.9817
3480	63.0893
3464	63.2322
3448	62.9891
3432	62.87
3416	62.7742
3400	62.663
3384	63.0836
3368	62.8609
3352	62.6697
3336	62.7123
3320	62.8057
3304	62.519
3288	62.6663
3272	62.6424
3256	62.2776
3240	62.3274
3224	62.506
3208	62.5742
3192	62.3842
3176	62.4825
3160	62.2794
3144	62.3225
3128	62.0828
3112	62.2577
3096	62.2099
3080	62.1297
3064	62.0955
3048	62.0652
3032	61.9657
3016	62.1099
3000	61.9267
2984	61.7739
2968	61.7738
2952	61.6093
2936	61.5996
2920	61.2599
2904	61.1898
2888	61.6143
2872	61.4582
2856	61.2908
2840	61.4337
2824	61.3294
2808	61.3307
2792	61.2108
2776	61.1289
2760	61.0773
2744	61.0506
2728	60.9698
2712	60.8918
2696	60.9923
2680	60.7812
2664	60.7102
2648	60.6029
2632	60.5507
2616	60.4375
2600	60.4476
2584	60.2865
2568	60.2086
2552	60.2651
2536	60.1332
2520	60.1025
2504	59.9174
2488	59.8374
2472	59.8909
2456	59.6646
2440	59.7518
2424	59.7623
2408	59.2484
2392	59.5064
2376	59.5377
2360	59.4497
2344	59.3164
2328	59.1957
2312	59.1491
2296	59.0897
2280	58.9639
2264	59.0504
2248	58.7465
2232	58.7023
2216	58.7241
2200	58.6497
2184	58.397
2168	58.527
2152	58.1074
2136	58.316
2120	58.1149
2104	58.152
2088	57.9888
2072	57.7515
2056	57.778
2040	57.6727
2024	57.6481
2008	57.6492
1992	57.4882
1976	57.3401
1960	57.3246
1944	57.2207
1928	57.0926
1912	57.0525
1896	56.898
1880	56.6903
1864	56.7221
1848	56.6279
1832	56.4747
1816	56.3993
1800	56.3737
1784	56.2388
1768	56.1616
1752	56.1115
1736	56.0452
1720	55.9708
1704	55.932
1688	55.8735
1672	55.6081
1656	55.777
1640	55.4501
1624	55.2512
1608	55.027
1592	54.8484
1576	54.8656
1560	55.1538
1544	55.0875
1528	54.6034
1512	54.7353
1496	54.5399
1480	54.2235
1464	54.2307
1448	54.0744
1432	53.9006
1416	53.8385
1400	53.6381
1384	53.4981
1368	53.4616
1352	53.1527
1336	53.158
1320	53.1977
1304	52.9117
1288	52.7781
1272	52.5765
1256	52.4948
1240	52.4384
1224	52.3106
1208	52.1086
1192	52.0681
1176	51.9032
1160	51.7587
1144	51.8407
1128	51.6468
1112	51.4614
1096	51.1581
1080	51.2568
1064	51.2278
1048	51.4781
1032	50.8609
1016	50.9411
1000	50.7426
984	 50.6757
968	 50.3687
952	 50.1538
936	 50.0808
920	 49.6642
904	 49.5876
888	 49.6665
872	 49.6118
856	 49.4142
840	 49.3573
824	 48.8629
808	 48.9956
792	 48.8062
776	 48.5816
760	 48.5461
744	 47.9942
728	 47.9366
712	 47.3901
696	 47.2356
680	 46.86
664	 46.8007
648	 46.7792
632	 46.4576
616	 45.6237
600	 44.9798
584	 45.3214
568	 44.7496
552	 44.2554
536	 44.0129
520	 42.3577
504	 42.5009
488	 43.1403
472	 43.2186
456	 40.5442
440	 42.0437
424	 41.2044
408	 37.7986
392	 31.2727
376	 45.9051
370	 31.8635