File: Bakgrunnsmateriale/MATLAB/FTIR/ftir_data/subBb/Mapping_121/C-4040-8_t15.asc
PE IR       SPECTRUM    SPECTRUM    ASCII       PEDS        1.60
  -1
C-B92E~1.ASC
17/03/27
15:40:46.00
17/03/27
15:41:13.00
tln
$C-4040-8_t0015$<tbV0>[5.2,-10.4,8.0,0.0,27,1,0]
27.028
64

2002,4.07
MIRTGS : RIGHTBACK : INTERNAL 2
MIR : ON : INTERNAL 2
OPTKBR

0.200000
8
8.000000
FILLER
RATIO
SPECTRUM
UNLOCKED 256

DOUBLE
64
COMBINED
1
0
0

0.002000
RATIO

1
0
TRUE
51149
0
LEFT NOT FITTED RIGHT NOT FITTED 0
NONE
NONE
15600
12
4.427000
51148
TRUE
1 0 8 72 0 0 0 0

15798

#HDR
-1
-1
#GR
µM
%T
2.38419e-05
0.0
2.000000
0.002000
12515
8
79.1662
0.604295
#DATA
2.000000	 63.2925
2.084000	 63.4407
2.168000	 63.4622
2.252000	 66.1534
2.336000	 62.354
2.420000	 62.6945
2.504000	 62.5826
2.588000	 62.0942
2.672000	 62.2407
2.756000	 61.497
2.840000	 60.8337
2.924000	 60.2016
3.008000	 59.9159
3.092000	 59.2734
3.176000	 58.9862
3.260000	 58.5172
3.344000	 57.8499
3.428000	 57.1765
3.512000	 56.7696
3.596000	 56.3643
3.680000	 55.742
3.764000	 55.1484
3.848000	 54.8324
3.932000	 54.3421
4.016000	 53.7683
4.100000	 53.4686
4.184000	 52.9359
4.268000	 52.5277
4.352000	 51.9136
4.436000	 51.615
4.520000	 51.1597
4.604000	 50.5874
4.688000	 50.2823
4.772000	 49.8558
4.856000	 49.4502
4.940000	 49.1048
5.024000	 48.8251
5.108000	 48.2692
5.192000	 48.0476
5.276000	 47.6372
5.359999	 47.3942
5.444000	 46.9374
5.528000	 46.7641
5.612000	 46.4481
5.696000	 46.1527
5.780000	 45.7846
5.864000	 45.5703
5.948000	 45.3172
6.032000	 45.1726
6.116000	 44.7109
6.200000	 44.4478
6.284000	 44.178
6.368000	 43.887
6.452000	 43.7164
6.536000	 43.4859
6.620000	 43.4916
6.704000	 42.8865
6.788000	 42.9436
6.872000	 42.5571
6.956000	 42.398
7.040000	 42.1789
7.124000	 41.9502
7.208000	 41.7633
7.292000	 41.6427
7.376000	 41.2993
7.460000	 41.3715
7.544000	 41.127
7.628000	 40.8089
7.712000	 40.6162
7.796000	 40.4713
7.880000	 40.2215
7.964000	 40.1384
8.048000	 39.9417
8.132000	 39.79
8.216000	 39.7037
8.300000	 39.4153
8.384000	 39.4585
8.468000	 39.2133
8.552000	 39.0789
8.635999	 38.8037
8.719999	 38.8505
8.804000	 38.3525
8.888000	 38.4164
8.972000	 38.4374
9.056000	 38.2772
9.140000	 37.9219
9.224000	 37.9536
9.308000	 37.9088
9.391999	 37.7562
9.475999	 37.6777
9.560000	 37.622
9.644000	 37.3717
9.728000	 37.2876
9.812000	 37.2348
9.896000	 37.0157
9.980000	 36.7851
10.064	36.8209
10.148	36.8788
10.232	36.5416
10.316	36.1903
10.4	35.993
10.484	36.2666
10.568	35.9208
10.652	35.8062
10.736	35.567
10.82	35.4646
10.904	35.6358
10.988	34.7112
11.072	34.3912
11.156	34.8754
11.24	35.0326
11.324	34.9233
11.408	34.674
11.492	34.6918
11.576	34.6853
11.66	34.6926
11.744	34.5292
11.828	34.402
11.912	34.1606
11.996	34.1408
12.08	33.9351
12.164	33.7684
12.248	33.624
12.332	33.3666
12.416	33.2779
12.5	33.5141
12.584	33.5588
12.668	33.4919
12.752	33.2483
12.836	33.0737
12.92	33.0648
13.004	33.1031
13.088	32.8657
13.172	32.726
13.256	32.723
13.34	32.6063
13.424	32.328
13.508	31.9245
13.592	31.5022
13.676	31.4617
13.76	31.7506
13.844	31.8874
13.928	31.7109
14.012	31.495
14.096	31.4149
14.18	31.5043
14.264	31.6458
14.348	31.6907
14.432	31.4302
14.516	31.0008
14.6	30.7972
14.684	30.7971
14.768	30.7885
14.852	30.7856
14.936	30.8336
15.02	30.8546
15.104	30.7524
15.188	30.5291
15.272	30.2944
15.356	30.2017
15.44	30.2857
15.524	30.3583
15.608	30.2325
15.692	29.9765
15.776	29.7609
15.86	29.6273
15.944	29.505
16.028	29.3246
16.112	29.1083
16.196	28.9598
16.28	28.9331
16.364	28.9533
16.448	28.9163
16.532	28.8299
16.616	28.7985
16.7	28.8565
16.784	28.9007
16.868	28.8456
16.952	28.7327
17.036	28.6349
17.12	28.5637
17.204	28.5039
17.288	28.4305
17.372	28.3012
17.456	28.1012
17.54	27.8775
17.624	27.7178
17.708	27.6606
17.792	27.6354
17.876	27.524
17.96	27.2994
18.044	27.0711
18.128	26.983
18.212	27.0477
18.296	27.1281
18.38	27.0927
18.464	26.9527
18.548	26.8234
18.632	26.7802
18.716	26.7956
18.8	26.7874
18.884	26.6803
18.968	26.4471
19.052	26.1417
19.136	25.8712
19.22	25.7101
19.304	25.6383
19.388	25.5691
19.472	25.4351
19.556	25.2333
19.64	25.006
19.724	24.8033
19.808	24.6695
19.892	24.6478
19.976	24.7667
20.06	24.9999
20.144	25.2355
20.228	25.3164
20.312	25.1495
20.396	24.7933
20.48	24.4308
20.564	24.2303
20.648	24.2183
20.732	24.2853
20.816	24.3108
20.9	24.2712
20.984	24.225
21.068	24.2148
21.152	24.2038
21.236	24.1066
21.32	23.88
21.404	23.5544
21.488	23.197
21.572	22.8496
21.656	22.5188
21.74	22.215
21.824	21.977
21.908	21.8547
21.992	21.862
22.076	21.9566
22.16	22.0704
22.244	22.1488
22.328	22.1637
22.412	22.0825
22.496	21.8471
22.58	21.4015
22.664	20.7537
22.748	20.0305
22.832	19.4312
22.916	19.1476
23	19.2494
23.084	19.6622
23.168	20.2217
23.252	20.7815
23.336	21.2542
23.42	21.6775
23.504	22.1015
23.588	22.5143
23.672	22.8388
23.756	22.9817
23.84	22.9075
23.924	22.7212
24.008	22.5809
24.092	22.5967
24.176	22.8559
24.26	23.2987
24.344	23.785
24.428	24.2102
24.512	24.5472
24.596	24.7854
24.68	24.7623
24.764	24.1078
24.848	22.3416
24.932	19.2277
25.016	15.0596
25.1	10.5489
25.184	6.652149
25.268	4.147356
25.352	3.347320
25.436	4.327712
25.52	7.088496
25.604	11.7003
25.688	18.3381
25.772	27.014
25.856	37.2892
25.94	48.1183
26.024	57.9555
26.108	65.221
26.192	68.7992
26.276	68.3102
26.36	64.3707
26.444	58.0864
26.528	50.5531
26.612	42.5658
26.696	34.4392
26.78	26.152
26.864	17.5742
26.948	8.760595
27.028	0.604295