File: Bakgrunnsmateriale/MATLAB/FTIR/ftir_data/subBb/Mapping_121/C-4040-8_t93.asc
PE IR       SPECTRUM    SPECTRUM    ASCII       PEDS        1.60
  -1
C-A946~1.ASC
17/03/27
22:09:52.00
17/03/27
22:10:18.00
tln
$C-4040-8_t0093$<tbV0>[2.6,7.8,8.0,0.0,27,1,0]
27.028
64

2002,4.07
MIRTGS : RIGHTBACK : INTERNAL 2
MIR : ON : INTERNAL 2
OPTKBR

0.200000
8
8.000000
FILLER
RATIO
SPECTRUM
UNLOCKED 256

DOUBLE
64
COMBINED
1
0
0

0.002000
RATIO

1
0
TRUE
51149
0
LEFT NOT FITTED RIGHT NOT FITTED 0
NONE
NONE
15600
12
4.427000
51148
TRUE
1 0 8 72 0 0 0 0

15798

#HDR
-1
-1
#GR
µM
%T
2.38419e-05
0.0
2.000000
0.002000
12515
8
143.164
45.3142
#DATA
2.000000	 65.4424
2.084000	 65.1778
2.168000	 65.4123
2.252000	 63.8352
2.336000	 64.9796
2.420000	 65.3446
2.504000	 65.339
2.588000	 65.0702
2.672000	 65.3926
2.756000	 65.1826
2.840000	 65.2717
2.924000	 65.0268
3.008000	 65.1511
3.092000	 65.1486
3.176000	 65.2178
3.260000	 65.2422
3.344000	 65.3116
3.428000	 64.8708
3.512000	 64.941
3.596000	 65.375
3.680000	 65.3967
3.764000	 65.5026
3.848000	 65.2341
3.932000	 65.4357
4.016000	 65.5221
4.100000	 65.1368
4.184000	 65.262
4.268000	 65.3586
4.352000	 65.3812
4.436000	 65.368
4.520000	 65.3083
4.604000	 65.2739
4.688000	 65.4194
4.772000	 65.369
4.856000	 65.5246
4.940000	 65.4264
5.024000	 65.5457
5.108000	 65.3958
5.192000	 65.3021
5.276000	 65.1963
5.359999	 65.319
5.444000	 65.4627
5.528000	 65.4479
5.612000	 65.3086
5.696000	 65.1674
5.780000	 65.1406
5.864000	 65.3529
5.948000	 65.2601
6.032000	 65.1671
6.116000	 65.2995
6.200000	 65.1338
6.284000	 65.2172
6.368000	 65.0017
6.452000	 65.1089
6.536000	 65.2159
6.620000	 65.1777
6.704000	 65.2691
6.788000	 65.0945
6.872000	 65.3023
6.956000	 65.1361
7.040000	 65.1079
7.124000	 65.0894
7.208000	 65.2065
7.292000	 65.0963
7.376000	 65.2521
7.460000	 65.18
7.544000	 65.061
7.628000	 64.9668
7.712000	 65.1729
7.796000	 65.1054
7.880000	 64.9144
7.964000	 65.0609
8.048000	 65.0254
8.132000	 65.1044
8.216000	 65.0779
8.300000	 65.0927
8.384000	 65.0855
8.468000	 64.9218
8.552000	 65.0147
8.635999	 64.9145
8.719999	 64.8447
8.804000	 64.7461
8.888000	 64.8955
8.972000	 64.9778
9.056000	 64.6901
9.140000	 64.6921
9.224000	 64.5969
9.308000	 64.7842
9.391999	 64.8178
9.475999	 64.5407
9.560000	 64.831
9.644000	 64.5987
9.728000	 64.8624
9.812000	 64.5824
9.896000	 64.7991
9.980000	 64.6074
10.064	64.6994
10.148	64.6356
10.232	64.6146
10.316	64.8659
10.4	64.8011
10.484	64.7969
10.568	64.4909
10.652	64.1975
10.736	64.4507
10.82	64.9477
10.904	64.7949
10.988	64.2178
11.072	64.599
11.156	64.5914
11.24	64.2777
11.324	64.1623
11.408	64.6009
11.492	64.8737
11.576	64.7942
11.66	64.8574
11.744	64.9134
11.828	64.7193
11.912	64.4947
11.996	64.2842
12.08	64.3909
12.164	64.4577
12.248	64.4724
12.332	64.4402
12.416	64.199
12.5	64.1629
12.584	64.251
12.668	64.1242
12.752	63.8488
12.836	63.8838
12.92	64.0734
13.004	64.2297
13.088	64.111
13.172	63.8398
13.256	63.8245
13.34	63.6976
13.424	63.6372
13.508	63.6653
13.592	63.7438
13.676	63.917
13.76	64.0721
13.844	63.8969
13.928	63.5533
14.012	63.5116
14.096	63.7232
14.18	63.8928
14.264	63.829
14.348	63.5452
14.432	63.3008
14.516	63.3583
14.6	63.6422
14.684	63.7521
14.768	63.5689
14.852	63.3022
14.936	63.1386
15.02	63.0705
15.104	63.0761
15.188	63.2015
15.272	63.2395
15.356	63.087
15.44	63.0066
15.524	63.1121
15.608	63.2101
15.692	63.1102
15.776	62.9684
15.86	63.0939
15.944	63.3631
16.028	63.4274
16.112	63.2665
16.196	63.0164
16.28	62.7859
16.364	62.7519
16.448	62.9132
16.532	62.9832
16.616	62.8565
16.7	62.749
16.784	62.7493
16.868	62.7361
16.952	62.7084
17.036	62.7958
17.12	62.9337
17.204	62.8644
17.288	62.5853
17.372	62.4087
17.456	62.4888
17.54	62.6325
17.624	62.6467
17.708	62.5725
17.792	62.5261
17.876	62.5606
17.96	62.6299
18.044	62.6046
18.128	62.3943
18.212	62.0855
18.296	61.8701
18.38	61.8238
18.464	61.8544
18.548	61.8405
18.632	61.723
18.716	61.5203
18.8	61.3072
18.884	61.1556
18.968	61.0911
19.052	61.1149
19.136	61.222
19.22	61.3884
19.304	61.5709
19.388	61.7489
19.472	61.9461
19.556	62.1748
19.64	62.3635
19.724	62.3764
19.808	62.1342
19.892	61.7053
19.976	61.2751
20.06	61.0143
20.144	60.971
20.228	61.0622
20.312	61.1569
20.396	61.1636
20.48	61.0745
20.564	60.9515
20.648	60.8706
20.732	60.8709
20.816	60.9242
20.9	60.9592
20.984	60.924
21.068	60.8179
21.152	60.6641
21.236	60.4673
21.32	60.1935
21.404	59.8128
21.488	59.3432
21.572	58.8775
21.656	58.5709
21.74	58.5727
21.824	58.9375
21.908	59.5654
21.992	60.2292
22.076	60.6777
22.16	60.7609
22.244	60.5123
22.328	60.1121
22.412	59.7852
22.496	59.6798
22.58	59.8224
22.664	60.1515
22.748	60.5461
22.832	60.8763
22.916	61.0368
23	60.9936
23.084	60.7949
23.168	60.5567
23.252	60.4016
23.336	60.4247
23.42	60.6654
23.504	61.0773
23.588	61.548
23.672	61.933
23.756	62.051
23.84	61.7211
23.924	60.8714
24.008	59.5946
24.092	58.1547
24.176	56.9466
24.26	56.2496
24.344	56.1409
24.428	56.4871
24.512	56.977
24.596	57.4299
24.68	57.7828
24.764	57.9774
24.848	57.9344
24.932	57.4937
25.016	56.4558
25.1	54.6497
25.184	52.0682
25.268	49.0814
25.352	46.5003
25.436	45.3234
25.52	46.1946
25.604	49.0903
25.688	53.745
25.772	59.725
25.856	66.5136
25.94	73.249
26.024	79.0232
26.108	83.2946
26.192	86.9067
26.276	91.6531
26.36	99.8179
26.444	111.878
26.528	125.891
26.612	137.629
26.696	143.049
26.78	140.389
26.864	131.806
26.948	122.385
27.028	117.792