File: Bakgrunnsmateriale/MATLAB/FTIR/ftir_data/subBb/Mapping_121/C-4040-8_t80_cm-1.asc
PE IR       SPECTRUM    SPECTRUM    ASCII       PEDS        1.60
  -1
C-9D61~1.ASC
17/03/27
21:03:25.00
17/03/27
21:03:25.00
tln
$C-4040-8_t0080$<tbV0>[7.8,5.2,8.0,0.0,27,1,0]
370
64

2002,4.07
MIRTGS : RIGHTBACK : INTERNAL 2
MIR : ON : INTERNAL 2
OPTKBR

0.200000
8
8.000000
FILLER
RATIO
SPECTRUM
UNLOCKED 256

DOUBLE
64
COMBINED
1
0
0

1.000000
RATIO

1
0
TRUE
51149
0
LEFT NOT FITTED RIGHT NOT FITTED 0
NONE
NONE
15600
12
4.427000
51148
TRUE
1 0 8 72 0 0 0 0

15798

#HDR
-1
-1
#GR
CM-1
%T
2.38419e-05
0.0
5000
-1.000000
4631
8
109.902
40.2559
#DATA
5000	64.8612
4984	64.4536
4968	64.3098
4952	65.2054
4936	64.483
4920	65.065
4904	64.9272
4888	65.0456
4872	65.4035
4856	64.9751
4840	64.7502
4824	65.0062
4808	65.008
4792	64.9097
4776	65.0424
4760	64.9661
4744	65.3653
4728	65.3105
4712	65.3327
4696	64.9314
4680	64.8873
4664	64.9761
4648	65.1303
4632	65.104
4616	64.7986
4600	64.6272
4584	64.8616
4568	64.9837
4552	65.5483
4536	65.0876
4520	65.2143
4504	64.8322
4488	65.0947
4472	65.058
4456	64.988
4440	65.0636
4424	64.8504
4408	64.6767
4392	64.0304
4376	71.9747
4360	65.1561
4344	65.6899
4328	65.6278
4312	65.6305
4296	65.6437
4280	64.9755
4264	65.1932
4248	65.0592
4232	65.2304
4216	64.8886
4200	64.9945
4184	65.2374
4168	64.8859
4152	64.9488
4136	64.9453
4120	65.005
4104	64.9778
4088	65.0755
4072	65.1087
4056	65.0045
4040	65.1245
4024	65.1099
4008	65.0001
3992	65.1433
3976	65.2788
3960	65.1574
3944	65.1884
3928	65.0619
3912	65.4457
3896	65.3161
3880	65.2284
3864	65.167
3848	64.9595
3832	64.8865
3816	65.0871
3800	64.9148
3784	65.0975
3768	65.1993
3752	65.2727
3736	65.1577
3720	65.1448
3704	65.1272
3688	64.9904
3672	65.2016
3656	65.3416
3640	65.3213
3624	65.2106
3608	65.1567
3592	65.3254
3576	65.2656
3560	65.1505
3544	65.1757
3528	65.3004
3512	65.0087
3496	65.2094
3480	65.3249
3464	65.271
3448	65.2018
3432	65.1412
3416	65.3134
3400	65.1575
3384	65.247
3368	65.1437
3352	65.1579
3336	65.2298
3320	65.3734
3304	65.2168
3288	65.252
3272	65.2066
3256	65.3914
3240	65.2455
3224	65.3119
3208	65.0993
3192	65.241
3176	65.1297
3160	65.1519
3144	65.18
3128	65.4122
3112	65.1167
3096	65.1245
3080	65.1975
3064	65.1949
3048	65.0279
3032	65.3018
3016	65.1553
3000	65.2943
2984	65.0648
2968	64.8784
2952	64.9473
2936	65.1031
2920	64.8415
2904	65.0667
2888	65.0813
2872	65.1034
2856	65.0935
2840	65.2716
2824	65.1893
2808	65.2717
2792	65.2432
2776	65.3062
2760	65.354
2744	65.2648
2728	65.2384
2712	65.2766
2696	65.2805
2680	65.113
2664	65.1669
2648	65.2188
2632	65.3428
2616	65.2648
2600	65.3148
2584	65.2789
2568	65.2299
2552	65.2711
2536	65.3317
2520	65.1347
2504	65.0401
2488	65.1232
2472	65.2922
2456	65.2665
2440	65.5164
2424	64.9166
2408	65.4603
2392	65.3411
2376	65.3532
2360	65.1738
2344	65.3519
2328	65.2341
2312	65.3063
2296	65.1876
2280	65.3517
2264	65.4003
2248	65.3994
2232	65.229
2216	65.3702
2200	65.2244
2184	65.2658
2168	65.2966
2152	65.239
2136	65.3551
2120	65.2004
2104	65.4887
2088	65.5235
2072	65.679
2056	65.1545
2040	65.3768
2024	65.4624
2008	65.3519
1992	65.212
1976	65.2761
1960	65.3749
1944	65.2848
1928	65.3071
1912	65.3677
1896	65.3304
1880	65.263
1864	65.2893
1848	65.2456
1832	65.2844
1816	65.4072
1800	65.3312
1784	65.2613
1768	65.3708
1752	65.3596
1736	65.1066
1720	65.1677
1704	65.1141
1688	65.2649
1672	65.3096
1656	65.2969
1640	65.1381
1624	65.0805
1608	65.0396
1592	65.1459
1576	65.0296
1560	64.876
1544	64.9992
1528	65.1036
1512	65.0843
1496	65.0143
1480	65.0679
1464	65.2153
1448	64.8765
1432	65.1239
1416	64.9722
1400	64.9086
1384	65.1158
1368	65.2465
1352	64.9896
1336	65.0892
1320	65.0537
1304	64.9504
1288	65.1665
1272	65.0878
1256	65.027
1240	64.9673
1224	64.8734
1208	65.0259
1192	64.9044
1176	65.0283
1160	64.9302
1144	64.7268
1128	64.9495
1112	64.6682
1096	64.845
1080	64.6492
1064	64.8459
1048	64.7243
1032	64.6379
1016	64.6879
1000	64.8618
984	 64.6061
968	 64.8303
952	 64.9687
936	 64.6239
920	 64.7781
904	 64.4577
888	 64.7727
872	 64.4981
856	 64.1478
840	 64.8011
824	 64.3936
808	 64.4222
792	 64.0297
776	 64.2937
760	 63.7837
744	 63.5805
728	 63.863
712	 63.4642
696	 63.8645
680	 63.2105
664	 62.7373
648	 63.0119
632	 62.4286
616	 62.5253
600	 63.0966
584	 62.8104
568	 62.3587
552	 61.624
536	 61.4687
520	 60.8113
504	 61.7388
488	 60.4846
472	 60.3101
456	 61.0941
440	 59.5515
424	 56.0259
408	 49.9524
392	 40.2559
376	 77.3322
370	 109.902