File: Bakgrunnsmateriale/MATLAB/FTIR/ftir_data/subBb/Mapping_121/C-4040-8_t70_cm-1.asc
PE IR       SPECTRUM    SPECTRUM    ASCII       PEDS        1.60
  -1
C-1D61~1.ASC
17/03/27
20:16:39.00
17/03/27
20:16:39.00
tln
$C-4040-8_t0070$<tbV0>[5.2,2.6,8.0,0.0,27,1,0]
370
64

2002,4.07
MIRTGS : RIGHTBACK : INTERNAL 2
MIR : ON : INTERNAL 2
OPTKBR

0.200000
8
8.000000
FILLER
RATIO
SPECTRUM
UNLOCKED 256

DOUBLE
64
COMBINED
1
0
0

1.000000
RATIO

1
0
TRUE
51149
0
LEFT NOT FITTED RIGHT NOT FITTED 0
NONE
NONE
15600
12
4.427000
51148
TRUE
1 0 8 72 0 0 0 0

15798

#HDR
-1
-1
#GR
CM-1
%T
2.38419e-05
0.0
5000
-1.000000
4631
8
88.0222
28.672
#DATA
5000	65.1682
4984	65.1109
4968	64.2761
4952	65.7505
4936	65.0435
4920	64.895
4904	64.5993
4888	64.4169
4872	65.2327
4856	64.9156
4840	65.2898
4824	64.6013
4808	64.8667
4792	64.6518
4776	65.1368
4760	64.9817
4744	65.3018
4728	64.6611
4712	65.5165
4696	65.2201
4680	65.3368
4664	64.7712
4648	65.068
4632	65.3804
4616	65.0667
4600	65.0461
4584	64.7546
4568	64.9341
4552	65.232
4536	65.6814
4520	64.5487
4504	64.9247
4488	64.5867
4472	64.1577
4456	64.5146
4440	64.3561
4424	64.2934
4408	63.496
4392	62.7916
4376	79.0654
4360	64.5164
4344	64.5172
4328	64.8894
4312	64.7828
4296	64.9313
4280	64.6727
4264	64.879
4248	64.8911
4232	64.9711
4216	64.7088
4200	65.1153
4184	65.0321
4168	65.8483
4152	65.0048
4136	64.7964
4120	65.254
4104	65.192
4088	65.388
4072	64.8449
4056	65.4705
4040	65.1677
4024	65.3949
4008	65.4677
3992	65.4857
3976	65.5216
3960	65.3997
3944	65.1526
3928	65.2412
3912	65.3968
3896	65.229
3880	65.0724
3864	65.2981
3848	65.3225
3832	65.1924
3816	65.7183
3800	65.3062
3784	65.1704
3768	65.3077
3752	65.2634
3736	65.1383
3720	65.3807
3704	65.1239
3688	65.3213
3672	65.4069
3656	65.2719
3640	65.4322
3624	65.3099
3608	65.262
3592	65.2085
3576	65.3055
3560	65.2617
3544	65.3061
3528	65.3233
3512	65.266
3496	65.2661
3480	65.1287
3464	64.9119
3448	65.2982
3432	65.1196
3416	65.3582
3400	64.9893
3384	65.3586
3368	65.1966
3352	65.4301
3336	65.2749
3320	65.1723
3304	65.4389
3288	65.4602
3272	65.2221
3256	65.32
3240	65.0812
3224	65.1028
3208	65.1579
3192	65.4322
3176	65.297
3160	65.2788
3144	65.3738
3128	65.243
3112	65.1865
3096	65.4519
3080	65.2112
3064	65.2805
3048	65.2366
3032	65.3445
3016	65.2609
3000	65.0698
2984	65.2412
2968	64.9947
2952	65.0086
2936	65.0303
2920	64.9277
2904	65.1294
2888	65.227
2872	65.2971
2856	65.4468
2840	65.3466
2824	65.4038
2808	65.3908
2792	65.2748
2776	65.3886
2760	65.3969
2744	65.4635
2728	65.2477
2712	65.5813
2696	65.3719
2680	65.4268
2664	65.3018
2648	65.2941
2632	65.5322
2616	65.5033
2600	65.3685
2584	65.3207
2568	65.3304
2552	65.2587
2536	65.2824
2520	65.383
2504	65.3548
2488	65.3351
2472	65.5154
2456	65.5161
2440	65.2426
2424	65.1176
2408	65.3523
2392	65.2551
2376	65.2657
2360	65.4606
2344	65.431
2328	65.379
2312	65.609
2296	65.4364
2280	65.4445
2264	65.3578
2248	65.4062
2232	65.406
2216	65.3683
2200	65.2988
2184	65.4227
2168	65.3369
2152	65.3088
2136	65.3913
2120	65.3612
2104	65.4045
2088	65.4073
2072	65.3674
2056	65.1971
2040	65.4116
2024	65.5355
2008	65.405
1992	65.3479
1976	65.1809
1960	65.4905
1944	65.306
1928	65.5735
1912	65.3338
1896	65.3482
1880	65.375
1864	65.462
1848	65.3779
1832	65.4621
1816	65.5317
1800	65.3702
1784	65.42
1768	65.2761
1752	65.3672
1736	65.2289
1720	65.1948
1704	65.3599
1688	65.3048
1672	65.4303
1656	65.3954
1640	65.371
1624	65.1671
1608	65.1512
1592	65.1379
1576	65.1504
1560	65.0878
1544	65.1071
1528	65.1581
1512	65.1136
1496	65.3111
1480	65.3074
1464	65.1195
1448	64.9096
1432	65.2068
1416	65.132
1400	65.2378
1384	65.1512
1368	65.1443
1352	65.1103
1336	65.1463
1320	64.9668
1304	65.1517
1288	65.228
1272	65.1081
1256	64.9363
1240	64.9212
1224	64.8912
1208	64.9873
1192	65.0129
1176	64.9954
1160	64.8879
1144	64.7762
1128	64.7633
1112	65.0383
1096	64.4094
1080	64.6718
1064	64.6968
1048	64.8087
1032	64.5785
1016	64.4552
1000	64.8806
984	 64.1714
968	 64.3487
952	 64.6883
936	 64.478
920	 64.5161
904	 64.7563
888	 64.6376
872	 64.3372
856	 64.4052
840	 64.3518
824	 64.2861
808	 64.4329
792	 63.9385
776	 64.0324
760	 63.9775
744	 63.9718
728	 63.2023
712	 63.4113
696	 63.386
680	 63.1069
664	 62.6608
648	 62.5902
632	 62.9807
616	 62.2172
600	 62.7966
584	 62.6063
568	 61.9511
552	 61.7208
536	 61.3571
520	 60.7327
504	 60.865
488	 61.1609
472	 59.595
456	 61.4556
440	 59.9346
424	 56.3066
408	 63.5259
392	 37.5119
376	 61.2816
370	 52.7415