File: Bakgrunnsmateriale/MATLAB/FTIR/ftir_data/subBb/Mapping_121/C-4040-8_t77.asc
PE IR       SPECTRUM    SPECTRUM    ASCII       PEDS        1.60
  -1
C-B146~1.ASC
17/03/27
20:48:57.00
17/03/27
20:49:23.00
tln
$C-4040-8_t0077$<tbV0>[-13.0,2.6,8.0,0.0,27,1,0]
27.028
64

2002,4.07
MIRTGS : RIGHTBACK : INTERNAL 2
MIR : ON : INTERNAL 2
OPTKBR

0.200000
8
8.000000
FILLER
RATIO
SPECTRUM
UNLOCKED 256

DOUBLE
64
COMBINED
1
0
0

0.002000
RATIO

1
0
TRUE
51149
0
LEFT NOT FITTED RIGHT NOT FITTED 0
NONE
NONE
15600
12
4.427000
51148
TRUE
1 0 8 72 0 0 0 0

15798

#HDR
-1
-1
#GR
µM
%T
2.38419e-05
0.0
2.000000
0.002000
12515
8
120.841
19.1822
#DATA
2.000000	 64.6724
2.084000	 64.934
2.168000	 65.2045
2.252000	 63.4769
2.336000	 64.1227
2.420000	 64.9472
2.504000	 65.3665
2.588000	 65.0823
2.672000	 65.0729
2.756000	 65.061
2.840000	 65.0006
2.924000	 64.9108
3.008000	 64.9895
3.092000	 64.959
3.176000	 65.0301
3.260000	 65.1668
3.344000	 64.9596
3.428000	 64.5517
3.512000	 64.9416
3.596000	 65.1609
3.680000	 65.1207
3.764000	 65.0459
3.848000	 64.9954
3.932000	 65.0914
4.016000	 65.0673
4.100000	 65.2069
4.184000	 65.1939
4.268000	 65.1221
4.352000	 65.1287
4.436000	 65.3075
4.520000	 65.2521
4.604000	 65.1727
4.688000	 65.2244
4.772000	 65.1836
4.856000	 65.116
4.940000	 65.2224
5.024000	 65.1829
5.108000	 65.2432
5.192000	 65.2705
5.276000	 65.2375
5.359999	 65.1539
5.444000	 65.1501
5.528000	 65.3209
5.612000	 65.2338
5.696000	 65.1704
5.780000	 64.9757
5.864000	 64.9333
5.948000	 65.1081
6.032000	 65.0424
6.116000	 64.8777
6.200000	 64.879
6.284000	 64.9266
6.368000	 64.8773
6.452000	 64.7848
6.536000	 64.881
6.620000	 65.0002
6.704000	 64.9276
6.788000	 64.9077
6.872000	 65.0462
6.956000	 65.0179
7.040000	 64.9568
7.124000	 65.0088
7.208000	 64.9065
7.292000	 64.9001
7.376000	 64.8706
7.460000	 65.0834
7.544000	 64.8848
7.628000	 64.9669
7.712000	 64.9664
7.796000	 64.9841
7.880000	 64.9363
7.964000	 64.9663
8.048000	 64.8185
8.132000	 64.9661
8.216000	 64.787
8.300000	 64.9922
8.384000	 64.8341
8.468000	 64.9306
8.552000	 64.7331
8.635999	 64.6648
8.719999	 64.7015
8.804000	 64.6819
8.888000	 64.7153
8.972000	 64.6506
9.056000	 65.0861
9.140000	 64.4779
9.224000	 64.7816
9.308000	 65.0466
9.391999	 64.6842
9.475999	 64.9319
9.560000	 64.8151
9.644000	 64.9595
9.728000	 64.4967
9.812000	 64.4151
9.896000	 64.7765
9.980000	 64.8445
10.064	64.6172
10.148	64.5824
10.232	64.6624
10.316	64.7951
10.4	64.7531
10.484	64.9441
10.568	64.9058
10.652	64.8945
10.736	64.6118
10.82	64.616
10.904	65.0031
10.988	64.4113
11.072	64.4067
11.156	64.7359
11.24	64.8162
11.324	64.7695
11.408	64.6692
11.492	64.7286
11.576	64.7201
11.66	64.3444
11.744	64.3149
11.828	64.3293
11.912	64.5087
11.996	64.8408
12.08	64.6539
12.164	64.5066
12.248	64.6107
12.332	64.4434
12.416	64.2192
12.5	64.2284
12.584	64.0625
12.668	64.2002
12.752	64.3409
12.836	64.2804
12.92	64.2841
13.004	64.0862
13.088	63.8748
13.172	63.925
13.256	64.0802
13.34	64.0283
13.424	63.9308
13.508	63.6242
13.592	63.4396
13.676	63.6946
13.76	63.9977
13.844	64.148
13.928	64.0684
14.012	63.8621
14.096	63.6611
14.18	63.3968
14.264	63.3282
14.348	63.5085
14.432	63.6135
14.516	63.6867
14.6	63.8014
14.684	63.7859
14.768	63.6483
14.852	63.4952
14.936	63.2913
15.02	62.9657
15.104	62.7188
15.188	62.8324
15.272	63.0662
15.356	63.0173
15.44	62.8371
15.524	62.8853
15.608	63.0893
15.692	63.2018
15.776	63.2435
15.86	63.2186
15.944	63.0666
16.028	62.9304
16.112	62.9056
16.196	62.9103
16.28	62.9154
16.364	62.9464
16.448	63.0578
16.532	63.1907
16.616	63.083
16.7	62.686
16.784	62.3661
16.868	62.3593
16.952	62.5098
17.036	62.6667
17.12	62.8597
17.204	63.0806
17.288	63.2093
17.372	63.1692
17.456	62.9961
17.54	62.7905
17.624	62.6641
17.708	62.6571
17.792	62.689
17.876	62.6509
17.96	62.5662
18.044	62.5911
18.128	62.8293
18.212	63.1509
18.296	63.2875
18.38	63.1378
18.464	62.863
18.548	62.6607
18.632	62.5418
18.716	62.413
18.8	62.2681
18.884	62.1696
18.968	62.0868
19.052	61.9003
19.136	61.5882
19.22	61.3181
19.304	61.3012
19.388	61.5709
19.472	61.9488
19.556	62.2
19.64	62.2121
19.724	62.0363
19.808	61.8001
19.892	61.5978
19.976	61.4581
20.06	61.3774
20.144	61.3502
20.228	61.3759
20.312	61.4581
20.396	61.6059
20.48	61.825
20.564	62.0941
20.648	62.3485
20.732	62.5077
20.816	62.5255
20.9	62.4072
20.984	62.1669
21.068	61.8014
21.152	61.3134
21.236	60.7627
21.32	60.2677
21.404	59.9494
21.488	59.8484
21.572	59.9085
21.656	60.0345
21.74	60.1575
21.824	60.2736
21.908	60.416
21.992	60.612
22.076	60.8677
22.16	61.1475
22.244	61.3859
22.328	61.5122
22.412	61.4944
22.496	61.3725
22.58	61.2502
22.664	61.2466
22.748	61.4326
22.832	61.7847
22.916	62.1919
23	62.4739
23.084	62.482
23.168	62.1116
23.252	61.3439
23.336	60.2773
23.42	59.0707
23.504	57.9223
23.588	57.0054
23.672	56.4069
23.756	56.097
23.84	55.9773
23.924	55.8861
24.008	55.6833
24.092	55.314
24.176	54.7936
24.26	54.2151
24.344	53.7383
24.428	53.5682
24.512	54.0093
24.596	55.3
24.68	57.5721
24.764	60.7899
24.848	64.6961
24.932	68.7816
25.016	72.4221
25.1	75.123
25.184	76.5075
25.268	76.4434
25.352	75.0847
25.436	72.5872
25.52	69.101
25.604	64.8521
25.688	60.2692
25.772	55.9333
25.856	52.3785
25.94	49.984
26.024	48.7719
26.108	48.32
26.192	47.7016
26.276	45.8694
26.36	41.9997
26.444	36.1172
26.528	29.2273
26.612	23.1158
26.696	19.6163
26.78	19.7809
26.864	23.6282
26.948	30.4985
27.028	39.3078