File: Bakgrunnsmateriale/MATLAB/FTIR/ftir_data/subBb/Mapping_121/C-4040-8_t71.asc
PE IR       SPECTRUM    SPECTRUM    ASCII       PEDS        1.60
  -1
C-A14E~1.ASC
17/03/27
20:21:15.00
17/03/27
20:21:42.00
tln
$C-4040-8_t0071$<tbV0>[2.6,2.6,8.0,0.0,27,1,0]
27.028
64

2002,4.07
MIRTGS : RIGHTBACK : INTERNAL 2
MIR : ON : INTERNAL 2
OPTKBR

0.200000
8
8.000000
FILLER
RATIO
SPECTRUM
UNLOCKED 256

DOUBLE
64
COMBINED
1
0
0

0.002000
RATIO

1
0
TRUE
51149
0
LEFT NOT FITTED RIGHT NOT FITTED 0
NONE
NONE
15600
12
4.427000
51148
TRUE
1 0 8 72 0 0 0 0

15798

#HDR
-1
-1
#GR
µM
%T
2.38419e-05
0.0
2.000000
0.002000
12515
8
89.6526
42.1775
#DATA
2.000000	 64.9927
2.084000	 64.9949
2.168000	 65.1934
2.252000	 64.5397
2.336000	 64.482
2.420000	 65.0182
2.504000	 65.6331
2.588000	 65.5273
2.672000	 65.3773
2.756000	 65.3518
2.840000	 65.4446
2.924000	 65.1636
3.008000	 65.2033
3.092000	 65.2447
3.176000	 65.3215
3.260000	 65.4398
3.344000	 65.21
3.428000	 64.913
3.512000	 65.0244
3.596000	 65.3883
3.680000	 65.4443
3.764000	 65.4301
3.848000	 65.1624
3.932000	 65.2759
4.016000	 65.1728
4.100000	 65.5135
4.184000	 65.4247
4.268000	 65.4902
4.352000	 65.4139
4.436000	 65.4852
4.520000	 65.4813
4.604000	 65.4657
4.688000	 65.3664
4.772000	 65.4778
4.856000	 64.9167
4.940000	 65.3049
5.024000	 65.3344
5.108000	 65.3338
5.192000	 65.3589
5.276000	 65.3317
5.359999	 65.38
5.444000	 65.4392
5.528000	 65.3982
5.612000	 65.4236
5.696000	 65.3397
5.780000	 64.9807
5.864000	 65.2385
5.948000	 65.3595
6.032000	 65.2492
6.116000	 65.1748
6.200000	 65.0154
6.284000	 65.0191
6.368000	 65.0771
6.452000	 65.1525
6.536000	 65.1742
6.620000	 65.1241
6.704000	 65.0358
6.788000	 65.198
6.872000	 65.0747
6.956000	 65.286
7.040000	 65.2377
7.124000	 65.1659
7.208000	 65.207
7.292000	 65.1194
7.376000	 65.1995
7.460000	 65.2176
7.544000	 65.1456
7.628000	 64.9508
7.712000	 65.2119
7.796000	 65.1625
7.880000	 65.0434
7.964000	 65.141
8.048000	 64.9075
8.132000	 65.1433
8.216000	 65.0127
8.300000	 65.1427
8.384000	 64.8492
8.468000	 65.0322
8.552000	 64.8965
8.635999	 64.9572
8.719999	 64.7181
8.804000	 64.9394
8.888000	 64.9009
8.972000	 64.7322
9.056000	 65.1288
9.140000	 65.0858
9.224000	 64.6364
9.308000	 64.6876
9.391999	 64.6127
9.475999	 64.5106
9.560000	 64.4545
9.644000	 64.9561
9.728000	 64.9164
9.812000	 64.0536
9.896000	 64.4595
9.980000	 64.5653
10.064	65.1591
10.148	64.7205
10.232	64.2485
10.316	64.4056
10.4	64.6757
10.484	64.8583
10.568	64.93
10.652	64.765
10.736	64.6839
10.82	64.7728
10.904	64.9224
10.988	64.5849
11.072	64.5564
11.156	64.808
11.24	64.7873
11.324	64.6292
11.408	64.454
11.492	64.5596
11.576	64.4955
11.66	64.3028
11.744	64.2242
11.828	64.4635
11.912	64.7884
11.996	64.6577
12.08	64.3427
12.164	64.2005
12.248	64.2242
12.332	64.3132
12.416	64.4049
12.5	64.407
12.584	64.2188
12.668	64.2163
12.752	64.425
12.836	64.2598
12.92	64.065
13.004	64.0966
13.088	64.1112
13.172	64.0439
13.256	64.1085
13.34	64.0799
13.424	63.5697
13.508	63.0693
13.592	63.1152
13.676	63.5734
13.76	63.8821
13.844	63.9422
13.928	63.8289
14.012	63.4511
14.096	63.131
14.18	63.1474
14.264	63.537
14.348	63.9137
14.432	63.8667
14.516	63.4932
14.6	63.1884
14.684	63.284
14.768	63.4988
14.852	63.4782
14.936	63.2606
15.02	62.8314
15.104	62.3653
15.188	62.2932
15.272	62.5172
15.356	62.6428
15.44	62.6655
15.524	62.732
15.608	62.8345
15.692	62.8412
15.776	62.6648
15.86	62.4369
15.944	62.3289
16.028	62.3802
16.112	62.4797
16.196	62.4301
16.28	62.2497
16.364	62.213
16.448	62.4215
16.532	62.649
16.616	62.6971
16.7	62.6178
16.784	62.5459
16.868	62.5289
16.952	62.5674
17.036	62.6826
17.12	62.8456
17.204	62.9201
17.288	62.7872
17.372	62.4711
17.456	62.0996
17.54	61.8128
17.624	61.6935
17.708	61.6936
17.792	61.6505
17.876	61.4556
17.96	61.2121
18.044	61.1348
18.128	61.3033
18.212	61.5717
18.296	61.7299
18.38	61.7046
18.464	61.5783
18.548	61.4689
18.632	61.4317
18.716	61.466
18.8	61.5524
18.884	61.6555
18.968	61.7007
19.052	61.6143
19.136	61.41
19.22	61.1955
19.304	61.0499
19.388	60.9423
19.472	60.8038
19.556	60.6444
19.64	60.5443
19.724	60.5376
19.808	60.549
19.892	60.4638
19.976	60.2499
20.06	59.9884
20.144	59.7965
20.228	59.7376
20.312	59.8015
20.396	59.933
20.48	60.0452
20.564	60.0417
20.648	59.8578
20.732	59.5233
20.816	59.17
20.9	58.9577
20.984	58.9615
21.068	59.1181
21.152	59.2757
21.236	59.2943
21.32	59.1229
21.404	58.8144
21.488	58.4988
21.572	58.3163
21.656	58.3608
21.74	58.6306
21.824	59.0362
21.908	59.4485
21.992	59.756
22.076	59.9031
22.16	59.8913
22.244	59.7562
22.328	59.5542
22.412	59.3331
22.496	59.1292
22.58	58.9605
22.664	58.8111
22.748	58.6189
22.832	58.3015
22.916	57.7768
23	57.0244
23.084	56.0849
23.168	55.0795
23.252	54.1655
23.336	53.4873
23.42	53.1363
23.504	53.1829
23.588	53.6399
23.672	54.4582
23.756	55.5395
23.84	56.6837
23.924	57.6157
24.008	58.0671
24.092	57.8665
24.176	57.02
24.26	55.7158
24.344	54.2354
24.428	52.7794
24.512	51.3902
24.596	49.9287
24.68	48.2074
24.764	46.1921
24.848	44.0948
24.932	42.5268
25.016	42.307
25.1	44.088
25.184	48.1165
25.268	54.0021
25.352	60.8416
25.436	67.3975
25.52	72.5981
25.604	75.901
25.688	77.192
25.772	76.7339
25.856	74.9712
25.94	72.4576
26.024	69.7286
26.108	67.1754
26.192	65.0305
26.276	63.3542
26.36	62.1131
26.444	61.1394
26.528	60.1643
26.612	58.944
26.696	57.1867
26.78	54.5347
26.864	50.9363
26.948	46.7377
27.028	42.7967