File: Bakgrunnsmateriale/MATLAB/FTIR/ftir_data/subBb/Mapping_121/C-4040-8_t64_cm-1.asc
PE IR       SPECTRUM    SPECTRUM    ASCII       PEDS        1.60
  -1
C-9C6F~1.ASC
17/03/27
19:42:13.00
17/03/27
19:42:13.00
tln
$C-4040-8_t0064$<tbV0>[-7.8,0.0,8.0,0.0,27,1,0]
370
64

2002,4.07
MIRTGS : RIGHTBACK : INTERNAL 2
MIR : ON : INTERNAL 2
OPTKBR

0.200000
8
8.000000
FILLER
RATIO
SPECTRUM
UNLOCKED 256

DOUBLE
64
COMBINED
1
0
0

1.000000
RATIO

1
0
TRUE
51149
0
LEFT NOT FITTED RIGHT NOT FITTED 0
NONE
NONE
15600
12
4.427000
51148
TRUE
1 0 8 72 0 0 0 0

15798

#HDR
-1
-1
#GR
CM-1
%T
2.38419e-05
0.0
5000
-1.000000
4631
8
86.144
54.368
#DATA
5000	64.574
4984	65.0424
4968	64.872
4952	64.4304
4936	64.7944
4920	64.7135
4904	64.9019
4888	64.3343
4872	64.6204
4856	64.4042
4840	64.7158
4824	64.4218
4808	64.8351
4792	64.6562
4776	64.8262
4760	64.8727
4744	64.8749
4728	64.6046
4712	65.1505
4696	65.1895
4680	65.0977
4664	64.665
4648	64.5747
4632	64.673
4616	64.7701
4600	64.8427
4584	64.7898
4568	64.4382
4552	64.4943
4536	63.9703
4520	64.6284
4504	64.5422
4488	64.5441
4472	64.3369
4456	64.1718
4440	64.3093
4424	64.1956
4408	63.6965
4392	63.5496
4376	72.9196
4360	65.6826
4344	64.2963
4328	64.6997
4312	64.4488
4296	64.3276
4280	64.675
4264	64.548
4248	64.3816
4232	64.597
4216	64.8131
4200	64.8882
4184	64.0302
4168	64.7416
4152	64.6712
4136	65.1353
4120	64.973
4104	64.9181
4088	64.6665
4072	65.2162
4056	64.9339
4040	65.074
4024	64.9192
4008	64.9468
3992	65.0586
3976	65.0362
3960	65.0573
3944	65.2086
3928	64.7541
3912	64.9087
3896	64.9796
3880	64.9161
3864	65.2755
3848	65.0733
3832	64.6651
3816	64.9021
3800	64.9649
3784	65.0514
3768	64.7926
3752	64.9933
3736	64.9887
3720	65.021
3704	65.0705
3688	65.0796
3672	64.9814
3656	65.1605
3640	65.0687
3624	64.9518
3608	64.9837
3592	65.0116
3576	65.311
3560	64.843
3544	64.8966
3528	65.0626
3512	64.9528
3496	64.9886
3480	65.1441
3464	65.1119
3448	65.1172
3432	65.1484
3416	65.2271
3400	65.2283
3384	65.0263
3368	64.9977
3352	64.8955
3336	64.9832
3320	65.0525
3304	64.884
3288	64.9575
3272	64.9633
3256	65.1097
3240	64.9708
3224	64.8328
3208	65.1231
3192	64.9649
3176	65.209
3160	64.9614
3144	64.8934
3128	64.9424
3112	64.8569
3096	65.0933
3080	65.0502
3064	64.9876
3048	65.1307
3032	64.9895
3016	65.1245
3000	64.8733
2984	64.9008
2968	64.9421
2952	64.8581
2936	64.7504
2920	64.6262
2904	64.8733
2888	64.952
2872	65.0237
2856	64.9105
2840	64.9759
2824	64.9685
2808	64.9953
2792	65.0242
2776	64.9842
2760	65.1693
2744	65.065
2728	65.143
2712	65.1365
2696	65.0604
2680	65.1093
2664	65.2184
2648	65.1273
2632	65.0967
2616	65.2279
2600	65.0409
2584	65.0172
2568	65.1368
2552	65.1923
2536	65.0563
2520	65.0541
2504	65.0933
2488	64.8944
2472	65.1005
2456	65.1145
2440	65.0258
2424	65.1863
2408	65.1264
2392	65.0073
2376	65.1083
2360	65.1182
2344	65.0284
2328	65.1393
2312	65.0416
2296	65.0156
2280	65.0064
2264	65.1147
2248	65.2106
2232	65.2111
2216	65.1542
2200	65.0298
2184	65.1929
2168	65.0045
2152	65.1718
2136	65.2528
2120	65.1005
2104	65.1947
2088	65.1301
2072	64.9806
2056	64.9258
2040	65.174
2024	65.0842
2008	65.1967
1992	65.1011
1976	65.0789
1960	64.9796
1944	65.2047
1928	65.111
1912	65.0464
1896	65.1973
1880	65.2208
1864	65.1014
1848	65.1213
1832	65.1443
1816	65.1067
1800	65.2535
1784	65.1674
1768	65.1327
1752	65.102
1736	64.9882
1720	64.8833
1704	65.113
1688	65.2009
1672	64.974
1656	64.9959
1640	64.8663
1624	64.9525
1608	64.915
1592	64.7983
1576	65.0085
1560	64.9209
1544	64.8678
1528	64.9276
1512	64.8661
1496	64.9599
1480	64.9534
1464	64.8768
1448	64.7362
1432	65.0456
1416	64.8668
1400	64.8762
1384	64.9921
1368	64.9536
1352	64.8848
1336	64.8192
1320	64.8442
1304	64.8662
1288	64.8491
1272	64.8302
1256	64.847
1240	64.7563
1224	64.8286
1208	64.914
1192	64.6307
1176	64.5897
1160	64.6864
1144	64.844
1128	64.6191
1112	64.6685
1096	64.0871
1080	64.9289
1064	64.4728
1048	64.578
1032	64.5689
1016	64.0641
1000	64.0732
984	 64.2584
968	 64.1591
952	 64.2942
936	 64.3808
920	 64.5269
904	 64.2635
888	 64.2327
872	 64.1617
856	 64.3847
840	 64.2715
824	 64.4358
808	 63.9874
792	 63.8981
776	 64.0275
760	 63.8292
744	 64.2278
728	 63.0289
712	 63.3349
696	 63.6758
680	 63.0793
664	 63.0579
648	 62.5848
632	 62.6579
616	 62.8792
600	 62.3315
584	 61.7282
568	 61.9358
552	 62.0923
536	 61.482
520	 60.9006
504	 61.1493
488	 59.8348
472	 59.5552
456	 60.4833
440	 58.5193
424	 62.3755
408	 55.5298
392	 84.0525
376	 81.2017
370	 59.0728