File: Bakgrunnsmateriale/MATLAB/FTIR/ftir_data/subBb/Mapping_121/C-4040-8_t54.asc
PE IR       SPECTRUM    SPECTRUM    ASCII       PEDS        1.60
  -1
C-B93A~1.ASC
17/03/27
18:55:27.00
17/03/27
18:55:53.00
tln
$C-4040-8_t0054$<tbV0>[-10.4,-2.6,8.0,0.0,27,1,0]
27.028
64

2002,4.07
MIRTGS : RIGHTBACK : INTERNAL 2
MIR : ON : INTERNAL 2
OPTKBR

0.200000
8
8.000000
FILLER
RATIO
SPECTRUM
UNLOCKED 256

DOUBLE
64
COMBINED
1
0
0

0.002000
RATIO

1
0
TRUE
51149
0
LEFT NOT FITTED RIGHT NOT FITTED 0
NONE
NONE
15600
12
4.427000
51148
TRUE
1 0 8 72 0 0 0 0

15798

#HDR
-1
-1
#GR
µM
%T
2.38419e-05
0.0
2.000000
0.002000
12515
8
101.85
31.8779
#DATA
2.000000	 64.5466
2.084000	 64.5501
2.168000	 64.8469
2.252000	 64.6665
2.336000	 64.7822
2.420000	 65.1381
2.504000	 65.2139
2.588000	 65.0488
2.672000	 65.1446
2.756000	 65.1386
2.840000	 65.1558
2.924000	 65.2421
3.008000	 65.3119
3.092000	 65.3076
3.176000	 65.1946
3.260000	 65.2238
3.344000	 65.1767
3.428000	 64.707
3.512000	 65.0449
3.596000	 65.0699
3.680000	 65.1201
3.764000	 65.3031
3.848000	 65.312
3.932000	 65.202
4.016000	 65.0926
4.100000	 65.039
4.184000	 65.1818
4.268000	 65.2847
4.352000	 65.3759
4.436000	 65.3961
4.520000	 65.2697
4.604000	 65.2013
4.688000	 65.3213
4.772000	 65.3243
4.856000	 65.1638
4.940000	 65.267
5.024000	 65.2616
5.108000	 65.2279
5.192000	 65.4052
5.276000	 65.328
5.359999	 65.2459
5.444000	 65.2295
5.528000	 65.1864
5.612000	 65.12
5.696000	 65.296
5.780000	 65.0406
5.864000	 65.3532
5.948000	 65.3171
6.032000	 65.1264
6.116000	 65.0368
6.200000	 65.0917
6.284000	 64.9442
6.368000	 65.0854
6.452000	 64.9854
6.536000	 64.9222
6.620000	 65.0593
6.704000	 65.0414
6.788000	 64.9656
6.872000	 64.6909
6.956000	 65.0051
7.040000	 65.0362
7.124000	 65.0405
7.208000	 65.2263
7.292000	 64.9962
7.376000	 65.0717
7.460000	 65.134
7.544000	 65.134
7.628000	 65.211
7.712000	 65.1007
7.796000	 65.1469
7.880000	 64.9601
7.964000	 65.0336
8.048000	 65.1011
8.132000	 64.9929
8.216000	 65.2981
8.300000	 65.1956
8.384000	 64.7985
8.468000	 64.7383
8.552000	 65.1626
8.635999	 65.0422
8.719999	 65.429
8.804000	 64.4836
8.888000	 65.0681
8.972000	 64.9795
9.056000	 64.7626
9.140000	 64.4755
9.224000	 64.8911
9.308000	 64.6072
9.391999	 64.8272
9.475999	 64.9653
9.560000	 64.7611
9.644000	 64.7462
9.728000	 64.5628
9.812000	 64.5013
9.896000	 64.4937
9.980000	 64.735
10.064	64.8205
10.148	64.8249
10.232	64.6722
10.316	64.647
10.4	64.5289
10.484	64.5297
10.568	64.6826
10.652	64.5341
10.736	64.7327
10.82	64.7341
10.904	64.6709
10.988	64.6089
11.072	64.6246
11.156	64.3169
11.24	64.258
11.324	64.4629
11.408	64.5744
11.492	64.4925
11.576	64.4895
11.66	64.5625
11.744	64.5291
11.828	64.5375
11.912	64.563
11.996	64.3673
12.08	64.2748
12.164	64.437
12.248	64.3297
12.332	64.5573
12.416	64.5235
12.5	64.406
12.584	64.1588
12.668	63.9352
12.752	64.143
12.836	64.226
12.92	64.259
13.004	64.1929
13.088	64.0327
13.172	63.8734
13.256	64.0095
13.34	64.3917
13.424	64.2678
13.508	63.9466
13.592	63.935
13.676	63.7027
13.76	63.5196
13.844	63.4904
13.928	63.5716
14.012	63.7365
14.096	63.7718
14.18	63.9146
14.264	64.0147
14.348	63.7376
14.432	63.4183
14.516	63.3952
14.6	63.3748
14.684	63.1716
14.768	63.0232
14.852	62.991
14.936	63.0244
15.02	63.0266
15.104	63.0343
15.188	63.2334
15.272	63.3975
15.356	63.2628
15.44	62.9895
15.524	62.7144
15.608	62.542
15.692	62.6574
15.776	62.952
15.86	63.0726
15.944	62.9861
16.028	62.9343
16.112	63.0018
16.196	63.1583
16.28	63.336
16.364	63.3393
16.448	63.1278
16.532	62.9231
16.616	62.8435
16.7	62.7972
16.784	62.7434
16.868	62.6995
16.952	62.5709
17.036	62.2883
17.12	62.0334
17.204	62.0335
17.288	62.1599
17.372	62.0969
17.456	61.8307
17.54	61.6292
17.624	61.6322
17.708	61.7298
17.792	61.8188
17.876	61.9473
17.96	62.163
18.044	62.3741
18.128	62.4448
18.212	62.3753
18.296	62.265
18.38	62.1543
18.464	62.0194
18.548	61.8922
18.632	61.8446
18.716	61.8741
18.8	61.9139
18.884	61.9773
18.968	62.1384
19.052	62.3382
19.136	62.3565
19.22	62.0518
19.304	61.5637
19.388	61.2136
19.472	61.2159
19.556	61.5094
19.64	61.8458
19.724	62.0175
19.808	61.9852
19.892	61.8293
19.976	61.6306
20.06	61.4238
20.144	61.2495
20.228	61.1902
20.312	61.3079
20.396	61.5421
20.48	61.7133
20.564	61.6561
20.648	61.3573
20.732	60.9654
20.816	60.6657
20.9	60.535
20.984	60.5382
21.068	60.5992
21.152	60.6707
21.236	60.742
21.32	60.7957
21.404	60.7857
21.488	60.6526
21.572	60.3797
21.656	60.0359
21.74	59.7477
21.824	59.6067
21.908	59.5743
21.992	59.4816
22.076	59.137
22.16	58.477
22.244	57.6491
22.328	56.9545
22.412	56.6795
22.496	56.9266
22.58	57.5672
22.664	58.34
22.748	58.964
22.832	59.265
22.916	59.2151
23	58.9102
23.084	58.4941
23.168	58.1178
23.252	57.895
23.336	57.9134
23.42	58.2279
23.504	58.9129
23.588	59.9675
23.672	61.26
23.756	62.5442
23.84	63.5131
23.924	63.8828
24.008	63.5887
24.092	62.908
24.176	62.3417
24.26	62.3677
24.344	63.2393
24.428	64.8147
24.512	66.5445
24.596	67.8121
24.68	68.1586
24.764	67.4943
24.848	66.0442
24.932	64.6469
25.016	64.5227
25.1	66.7541
25.184	71.6793
25.268	78.4529
25.352	85.2744
25.436	90.1206
25.52	91.649
25.604	89.5832
25.688	84.3821
25.772	76.9792
25.856	68.535
25.94	60.7648
26.024	55.9209
26.108	56.1823
26.192	62.4187
26.276	73.5507
26.36	86.421
26.444	96.9807
26.528	101.76
26.612	99.2819
26.696	90.0098
26.78	76.0166
26.864	59.997
26.948	44.4333
27.028	31.8779