File: Bakgrunnsmateriale/MATLAB/FTIR/ftir_data/subBb/Mapping_121/C-4040-8_t72_cm-1.asc
PE IR       SPECTRUM    SPECTRUM    ASCII       PEDS        1.60
  -1
C-1D64~1.ASC
17/03/27
20:25:52.00
17/03/27
20:25:52.00
tln
$C-4040-8_t0072$<tbV0>[0.0,2.6,8.0,0.0,27,1,0]
370
64

2002,4.07
MIRTGS : RIGHTBACK : INTERNAL 2
MIR : ON : INTERNAL 2
OPTKBR

0.200000
8
8.000000
FILLER
RATIO
SPECTRUM
UNLOCKED 256

DOUBLE
64
COMBINED
1
0
0

1.000000
RATIO

1
0
TRUE
51149
0
LEFT NOT FITTED RIGHT NOT FITTED 0
NONE
NONE
15600
12
4.427000
51148
TRUE
1 0 8 72 0 0 0 0

15798

#HDR
-1
-1
#GR
CM-1
%T
2.38419e-05
0.0
5000
-1.000000
4631
8
96.6948
43.1548
#DATA
5000	64.9827
4984	65.0852
4968	63.9523
4952	65.7246
4936	64.2559
4920	64.6841
4904	64.9163
4888	64.7912
4872	65.1793
4856	65.0724
4840	65.1144
4824	65.3148
4808	65.1226
4792	64.9965
4776	65.2129
4760	65.2162
4744	65.6578
4728	65.1666
4712	65.621
4696	65.2954
4680	65.27
4664	65.4101
4648	65.2785
4632	65.665
4616	64.9559
4600	64.8925
4584	65.0686
4568	64.6812
4552	64.8863
4536	65.1394
4520	64.6982
4504	64.8504
4488	64.4272
4472	64.6573
4456	64.2246
4440	64.2295
4424	64.2874
4408	63.1805
4392	63.8577
4376	74.0312
4360	65.7392
4344	64.979
4328	65.2302
4312	64.6588
4296	65.0639
4280	64.8393
4264	64.818
4248	64.865
4232	64.7562
4216	64.3087
4200	64.5984
4184	65.433
4168	64.7074
4152	65.234
4136	65.2102
4120	65.2276
4104	65.2502
4088	65.1193
4072	65.4677
4056	65.4344
4040	65.2557
4024	65.3555
4008	65.1922
3992	65.4471
3976	65.3793
3960	65.2314
3944	65.2064
3928	65.24
3912	65.3187
3896	65.3305
3880	65.1061
3864	65.4013
3848	65.1841
3832	65.3022
3816	65.2547
3800	65.215
3784	65.3047
3768	65.2187
3752	65.2946
3736	65.1275
3720	65.3238
3704	65.3596
3688	65.3364
3672	65.3429
3656	65.2865
3640	65.4671
3624	65.3811
3608	65.4781
3592	65.4312
3576	65.4373
3560	65.4292
3544	65.2727
3528	65.4257
3512	65.3661
3496	65.5049
3480	65.3596
3464	65.3699
3448	65.4107
3432	65.2421
3416	65.4522
3400	65.0691
3384	65.4024
3368	65.3118
3352	65.2745
3336	65.0631
3320	65.3243
3304	65.2289
3288	65.3391
3272	65.2289
3256	65.2479
3240	65.2365
3224	65.239
3208	65.3289
3192	65.5212
3176	65.1951
3160	65.1871
3144	65.5258
3128	65.249
3112	65.3317
3096	65.3571
3080	65.156
3064	65.3521
3048	65.2497
3032	65.4305
3016	65.2528
3000	65.1158
2984	65.2618
2968	65.0496
2952	65.1194
2936	65.1458
2920	64.8196
2904	65.1672
2888	65.168
2872	65.2426
2856	65.2486
2840	65.3667
2824	65.3873
2808	65.4445
2792	65.291
2776	65.4547
2760	65.3941
2744	65.3867
2728	65.3874
2712	65.5797
2696	65.4238
2680	65.1602
2664	65.5389
2648	65.2672
2632	65.4516
2616	65.4793
2600	65.3768
2584	65.4784
2568	65.2929
2552	65.4465
2536	65.3687
2520	65.5576
2504	65.285
2488	65.5585
2472	65.3423
2456	65.3568
2440	65.4863
2424	64.9101
2408	65.3354
2392	65.2588
2376	65.4678
2360	65.309
2344	65.2757
2328	65.4963
2312	65.4563
2296	65.4448
2280	65.4605
2264	65.4186
2248	65.3468
2232	65.5543
2216	65.4007
2200	65.2831
2184	65.4632
2168	65.3614
2152	65.3587
2136	65.6204
2120	65.3229
2104	65.3746
2088	65.5448
2072	65.2043
2056	65.2344
2040	65.3404
2024	65.4093
2008	65.428
1992	65.2709
1976	65.2923
1960	65.3135
1944	65.341
1928	65.5143
1912	65.4582
1896	65.448
1880	65.328
1864	65.471
1848	65.3623
1832	65.3836
1816	65.688
1800	65.4985
1784	65.3811
1768	65.377
1752	65.3732
1736	65.3369
1720	65.261
1704	65.3287
1688	65.5
1672	65.2797
1656	65.3927
1640	65.3777
1624	65.1936
1608	65.1216
1592	65.2187
1576	65.1237
1560	65.0262
1544	65.1387
1528	65.2267
1512	65.1232
1496	65.2338
1480	65.3439
1464	65.1925
1448	65.0061
1432	65.2761
1416	65.2119
1400	65.1206
1384	65.3332
1368	65.2126
1352	65.2151
1336	65.3131
1320	65.2319
1304	65.1387
1288	65.2308
1272	65.114
1256	65.129
1240	65.1684
1224	65.0592
1208	65.203
1192	64.891
1176	65.0508
1160	64.7479
1144	65.042
1128	64.9179
1112	64.709
1096	65.1316
1080	64.9182
1064	64.9582
1048	64.5325
1032	64.5376
1016	64.8248
1000	64.9555
984	 65.0939
968	 64.7642
952	 65.2412
936	 65.0729
920	 64.7322
904	 64.9319
888	 64.952
872	 64.4516
856	 64.386
840	 64.4775
824	 64.3262
808	 64.5496
792	 64.2336
776	 64.2142
760	 64.4631
744	 64.2704
728	 63.3442
712	 63.6705
696	 63.6685
680	 63.2967
664	 62.9913
648	 63.1912
632	 62.9672
616	 62.13
600	 63.6589
584	 62.8733
568	 62.4694
552	 62.3248
536	 62.4245
520	 62.2818
504	 60.6887
488	 61.399
472	 60.689
456	 60.4245
440	 60.3474
424	 56.5481
408	 61.2549
392	 46.2853
376	 68.18
370	 82.5312