File: Bakgrunnsmateriale/MATLAB/FTIR/ftir_data/subBb/Mapping_121/C-4040-8_t08.asc
PE IR       SPECTRUM    SPECTRUM    ASCII       PEDS        1.60
  -1
C-C52A~1.ASC
17/03/27
15:07:52.00
17/03/27
15:08:19.00
tln
$C-4040-8_t0008$<tbV0>[-5.2,-13.0,8.0,0.0,27,1,0]
27.028
64

2002,4.07
MIRTGS : RIGHTBACK : INTERNAL 2
MIR : ON : INTERNAL 2
OPTKBR

0.200000
8
8.000000
FILLER
RATIO
SPECTRUM
UNLOCKED 256

DOUBLE
64
COMBINED
1
0
0

0.002000
RATIO

1
0
TRUE
51149
0
LEFT NOT FITTED RIGHT NOT FITTED 0
NONE
NONE
15600
12
4.427000
51148
TRUE
1 0 8 72 0 0 0 0

15798

#HDR
-1
-1
#GR
µM
%T
2.38419e-05
0.0
2.000000
0.002000
12515
8
92.1924
25.511
#DATA
2.000000	 63.8279
2.084000	 64.3675
2.168000	 64.2727
2.252000	 66.4017
2.336000	 63.4775
2.420000	 64.1677
2.504000	 64.3163
2.588000	 63.9482
2.672000	 63.9026
2.756000	 63.8091
2.840000	 63.4137
2.924000	 63.0082
3.008000	 62.9919
3.092000	 62.8494
3.176000	 62.6823
3.260000	 62.5245
3.344000	 62.1963
3.428000	 61.8688
3.512000	 61.8175
3.596000	 61.754
3.680000	 61.6045
3.764000	 61.2145
3.848000	 61.0278
3.932000	 60.8569
4.016000	 60.7083
4.100000	 60.5114
4.184000	 60.3961
4.268000	 60.056
4.352000	 59.9754
4.436000	 59.8488
4.520000	 59.77
4.604000	 59.4423
4.688000	 59.2732
4.772000	 59.0562
4.856000	 59.0718
4.940000	 58.6912
5.024000	 58.6257
5.108000	 58.4657
5.192000	 58.3586
5.276000	 58.2316
5.359999	 58.1027
5.444000	 57.7831
5.528000	 57.7307
5.612000	 57.7469
5.696000	 57.6657
5.780000	 57.3897
5.864000	 57.3528
5.948000	 57.2917
6.032000	 57.3106
6.116000	 56.9657
6.200000	 56.7228
6.284000	 56.5806
6.368000	 56.5946
6.452000	 56.4453
6.536000	 56.2835
6.620000	 56.394
6.704000	 55.9873
6.788000	 56.1423
6.872000	 55.8224
6.956000	 55.5848
7.040000	 55.7984
7.124000	 55.4834
7.208000	 55.4015
7.292000	 55.327
7.376000	 55.3336
7.460000	 55.0716
7.544000	 55.1845
7.628000	 54.8903
7.712000	 54.8955
7.796000	 54.7548
7.880000	 54.6944
7.964000	 54.6142
8.048000	 54.5791
8.132000	 54.5496
8.216000	 54.502
8.300000	 54.3991
8.384000	 54.2364
8.468000	 54.2084
8.552000	 54.1383
8.635999	 54.006
8.719999	 54.046
8.804000	 53.8775
8.888000	 53.9467
8.972000	 53.8153
9.056000	 53.7685
9.140000	 53.549
9.224000	 53.44
9.308000	 53.5231
9.391999	 53.5407
9.475999	 53.3927
9.560000	 53.5832
9.644000	 53.486
9.728000	 53.3055
9.812000	 53.1408
9.896000	 53.0876
9.980000	 53.2775
10.064	53.0848
10.148	53.0212
10.232	52.8761
10.316	52.9935
10.4	53.0385
10.484	52.8926
10.568	52.605
10.652	52.5514
10.736	52.3544
10.82	52.3404
10.904	52.8842
10.988	51.8857
11.072	51.6642
11.156	51.6442
11.24	51.6196
11.324	51.9489
11.408	51.9083
11.492	52.272
11.576	52.16
11.66	51.6719
11.744	51.6863
11.828	51.6858
11.912	51.6195
11.996	51.7644
12.08	51.7377
12.164	51.7552
12.248	51.4667
12.332	51.2601
12.416	51.3671
12.5	51.174
12.584	50.9652
12.668	50.9716
12.752	50.855
12.836	50.825
12.92	50.9056
13.004	50.9893
13.088	51.0682
13.172	50.9883
13.256	50.9188
13.34	50.741
13.424	50.7102
13.508	50.9513
13.592	50.9521
13.676	50.7382
13.76	50.5483
13.844	50.3862
13.928	50.1761
14.012	50.197
14.096	50.2055
14.18	49.9806
14.264	49.8733
14.348	49.962
14.432	49.9753
14.516	49.9386
14.6	49.9468
14.684	49.8549
14.768	49.7226
14.852	49.8081
14.936	49.9621
15.02	49.7684
15.104	49.3362
15.188	49.1168
15.272	49.1317
15.356	49.1848
15.44	49.2749
15.524	49.3614
15.608	49.3248
15.692	49.1866
15.776	49.0544
15.86	49.0168
15.944	49.0604
16.028	49.0251
16.112	48.8384
16.196	48.6991
16.28	48.7376
16.364	48.7477
16.448	48.6199
16.532	48.6553
16.616	48.9505
16.7	49.1528
16.784	49.1282
16.868	49.0681
16.952	49.0179
17.036	48.8883
17.12	48.7254
17.204	48.6374
17.288	48.6547
17.372	48.7326
17.456	48.7308
17.54	48.4889
17.624	48.0746
17.708	47.7636
17.792	47.6848
17.876	47.6849
17.96	47.5859
18.044	47.3979
18.128	47.2578
18.212	47.2483
18.296	47.3451
18.38	47.4613
18.464	47.4883
18.548	47.3641
18.632	47.1532
18.716	47.004
18.8	46.982
18.884	46.97
18.968	46.8006
19.052	46.4512
19.136	46.0793
19.22	45.8664
19.304	45.8739
19.388	46.0276
19.472	46.1948
19.556	46.264
19.64	46.1986
19.724	46.0673
19.808	46.0332
19.892	46.2687
19.976	46.7989
20.06	47.4085
20.144	47.752
20.228	47.6133
20.312	47.0724
20.396	46.4368
20.48	46.0081
20.564	45.8983
20.648	46.0121
20.732	46.1775
20.816	46.2849
20.9	46.3049
20.984	46.2165
21.068	45.9733
21.152	45.5456
21.236	44.9899
21.32	44.4425
21.404	44.0297
21.488	43.8037
21.572	43.746
21.656	43.8247
21.74	44.0271
21.824	44.3281
21.908	44.6454
21.992	44.8653
22.076	44.9194
22.16	44.8562
22.244	44.8337
22.328	44.9918
22.412	45.3395
22.496	45.7125
22.58	45.8827
22.664	45.7059
22.748	45.2316
22.832	44.6647
22.916	44.2592
23	44.1663
23.084	44.3843
23.168	44.775
23.252	45.1559
23.336	45.3691
23.42	45.3884
23.504	45.2481
23.588	45.0179
23.672	44.7651
23.756	44.524
23.84	44.3134
23.924	44.1723
24.008	44.1412
24.092	44.245
24.176	44.5249
24.26	44.9682
24.344	45.4999
24.428	46.0441
24.512	46.6003
24.596	47.2344
24.68	47.8627
24.764	48.1137
24.848	47.4379
24.932	45.4148
25.016	42.0747
25.1	37.8954
25.184	33.6276
25.268	29.9477
25.352	27.1933
25.436	25.6813
25.52	25.8139
25.604	28.0356
25.688	32.5246
25.772	38.8413
25.856	45.9104
25.94	52.3033
26.024	56.6926
26.108	58.4209
26.192	57.6229
26.276	55.1043
26.36	52.1057
26.444	49.787
26.528	48.7365
26.612	49.0023
26.696	49.8128
26.78	49.835
26.864	47.5483
26.948	41.8794
27.028	33.2792