File: Bakgrunnsmateriale/MATLAB/FTIR/ftir_data/subBb/Mapping_121/C-4040-8_t40.asc
PE IR       SPECTRUM    SPECTRUM    ASCII       PEDS        1.60
  -1
C-A53A~1.ASC
17/03/27
17:43:54.00
17/03/27
17:44:20.00
tln
$C-4040-8_t0040$<tbV0>[-2.6,-5.2,8.0,0.0,27,1,0]
27.028
64

2002,4.07
MIRTGS : RIGHTBACK : INTERNAL 2
MIR : ON : INTERNAL 2
OPTKBR

0.200000
8
8.000000
FILLER
RATIO
SPECTRUM
UNLOCKED 256

DOUBLE
64
COMBINED
1
0
0

0.002000
RATIO

1
0
TRUE
51149
0
LEFT NOT FITTED RIGHT NOT FITTED 0
NONE
NONE
15600
12
4.427000
51148
TRUE
1 0 8 72 0 0 0 0

15798

#HDR
-1
-1
#GR
µM
%T
2.38419e-05
0.0
2.000000
0.002000
12515
8
66.6639
0.586539
#DATA
2.000000	 63.4793
2.084000	 63.595
2.168000	 63.6746
2.252000	 63.5387
2.336000	 62.9468
2.420000	 62.7995
2.504000	 62.5166
2.588000	 62.1631
2.672000	 61.7188
2.756000	 61.2561
2.840000	 60.6612
2.924000	 60.2834
3.008000	 59.9266
3.092000	 59.3189
3.176000	 58.7272
3.260000	 58.2823
3.344000	 57.7406
3.428000	 56.775
3.512000	 56.5542
3.596000	 56.054
3.680000	 55.3952
3.764000	 54.9235
3.848000	 54.4546
3.932000	 54.0042
4.016000	 53.398
4.100000	 52.7779
4.184000	 52.3142
4.268000	 51.8619
4.352000	 51.4283
4.436000	 50.9302
4.520000	 50.477
4.604000	 50.0714
4.688000	 49.7074
4.772000	 49.2246
4.856000	 48.7733
4.940000	 48.3452
5.024000	 48.0095
5.108000	 47.5945
5.192000	 47.217
5.276000	 46.8351
5.359999	 46.4852
5.444000	 46.2368
5.528000	 45.8406
5.612000	 45.6106
5.696000	 45.2637
5.780000	 44.744
5.864000	 44.6688
5.948000	 44.3117
6.032000	 44.0543
6.116000	 43.7214
6.200000	 43.3898
6.284000	 43.211
6.368000	 42.9782
6.452000	 42.5689
6.536000	 42.352
6.620000	 42.1388
6.704000	 41.9616
6.788000	 41.653
6.872000	 41.6204
6.956000	 41.1461
7.040000	 41.1076
7.124000	 40.841
7.208000	 40.6504
7.292000	 40.4098
7.376000	 40.2382
7.460000	 39.8828
7.544000	 39.8657
7.628000	 39.7639
7.712000	 39.6409
7.796000	 39.3251
7.880000	 39.2159
7.964000	 39.1158
8.048000	 38.9035
8.132000	 38.7116
8.216000	 38.5032
8.300000	 38.3537
8.384000	 38.4176
8.468000	 37.9739
8.552000	 37.9721
8.635999	 37.4715
8.719999	 37.5262
8.804000	 37.1463
8.888000	 37.239
8.972000	 37.4106
9.056000	 37.0176
9.140000	 37.0882
9.224000	 37.1883
9.308000	 36.462
9.391999	 36.2233
9.475999	 36.3274
9.560000	 36.2954
9.644000	 36.1048
9.728000	 35.9888
9.812000	 36.0365
9.896000	 35.6631
9.980000	 35.3534
10.064	35.4251
10.148	35.5263
10.232	35.2831
10.316	35.1016
10.4	34.9804
10.484	35.0594
10.568	34.8593
10.652	34.6298
10.736	34.6201
10.82	34.4654
10.904	34.4035
10.988	34.3015
11.072	34.3386
11.156	34.2497
11.24	33.9759
11.324	33.7604
11.408	33.8042
11.492	33.6224
11.576	33.4336
11.66	33.3788
11.744	33.2805
11.828	33.1416
11.912	33.0788
11.996	33.0078
12.08	32.6997
12.164	32.6344
12.248	32.8846
12.332	32.7675
12.416	32.5722
12.5	32.2548
12.584	32.0786
12.668	31.9845
12.752	32.0614
12.836	32.0813
12.92	31.8619
13.004	31.6297
13.088	31.5959
13.172	31.5904
13.256	31.4626
13.34	31.2658
13.424	31.1357
13.508	31.239
13.592	31.3089
13.676	31.0869
13.76	30.8676
13.844	30.8517
13.928	30.8685
14.012	30.6602
14.096	30.3539
14.18	30.0831
14.264	29.827
14.348	29.7697
14.432	29.7986
14.516	29.6592
14.6	29.6172
14.684	29.6755
14.768	29.4825
14.852	29.1401
14.936	29.0371
15.02	29.1059
15.104	29.0401
15.188	28.8544
15.272	28.6829
15.356	28.5955
15.44	28.5416
15.524	28.4095
15.608	28.3061
15.692	28.3627
15.776	28.4053
15.86	28.3472
15.944	28.3401
16.028	28.3291
16.112	28.1695
16.196	27.9825
16.28	27.9102
16.364	27.8832
16.448	27.8069
16.532	27.7135
16.616	27.617
16.7	27.4521
16.784	27.2259
16.868	27.0196
16.952	26.8526
17.036	26.7082
17.12	26.6054
17.204	26.5636
17.288	26.5988
17.372	26.6846
17.456	26.694
17.54	26.528
17.624	26.2639
17.708	26.0463
17.792	25.9058
17.876	25.7963
17.96	25.731
18.044	25.7686
18.128	25.8988
18.212	25.9935
18.296	25.9089
18.38	25.6367
18.464	25.317
18.548	25.0827
18.632	24.9371
18.716	24.8141
18.8	24.7039
18.884	24.6561
18.968	24.6965
19.052	24.8094
19.136	24.9661
19.22	25.1196
19.304	25.1863
19.388	25.093
19.472	24.8562
19.556	24.5683
19.64	24.3053
19.724	24.0728
19.808	23.8406
19.892	23.5926
19.976	23.3424
20.06	23.1198
20.144	22.9466
20.228	22.8281
20.312	22.7615
20.396	22.7491
20.48	22.8051
20.564	22.9305
20.648	23.0843
20.732	23.1787
20.816	23.135
20.9	22.9419
20.984	22.6632
21.068	22.395
21.152	22.2143
21.236	22.1505
21.32	22.1877
21.404	22.2908
21.488	22.4128
21.572	22.5037
21.656	22.5068
21.74	22.3678
21.824	22.0536
21.908	21.5753
21.992	21.0042
22.076	20.456
22.16	20.0348
22.244	19.7725
22.328	19.615
22.412	19.4888
22.496	19.3669
22.58	19.304
22.664	19.3935
22.748	19.7013
22.832	20.2145
22.916	20.8356
23	21.406
23.084	21.785
23.168	21.8779
23.252	21.6697
23.336	21.2245
23.42	20.6246
23.504	19.97
23.588	19.3308
23.672	18.7303
23.756	18.1681
23.84	17.6411
23.924	17.107
24.008	16.5277
24.092	15.918
24.176	15.3196
24.26	14.7891
24.344	14.4168
24.428	14.3145
24.512	14.5841
24.596	15.3141
24.68	16.5217
24.764	18.104
24.848	19.9049
24.932	21.8275
25.016	23.8747
25.1	26.0982
25.184	28.4246
25.268	30.5357
25.352	31.9054
25.436	31.7695
25.52	29.4828
25.604	24.8783
25.688	18.4104
25.772	11.2863
25.856	5.161781
25.94	1.394690
26.024	0.716910
26.108	3.043024
26.192	7.832270
26.276	14.3799
26.36	22.1506
26.444	30.3282
26.528	37.8025
26.612	43.1379
26.696	45.2924
26.78	44.104
26.864	40.6208
26.948	36.5774
27.028	33.5709