File: Bakgrunnsmateriale/MATLAB/FTIR/ftir_data/subBb/Mapping_121/C-4040-8_t69.asc
PE IR       SPECTRUM    SPECTRUM    ASCII       PEDS        1.60
  -1
C-CD3E~1.ASC
17/03/27
20:12:02.00
17/03/27
20:12:28.00
tln
$C-4040-8_t0069$<tbV0>[7.8,2.6,8.0,0.0,27,1,0]
27.028
64

2002,4.07
MIRTGS : RIGHTBACK : INTERNAL 2
MIR : ON : INTERNAL 2
OPTKBR

0.200000
8
8.000000
FILLER
RATIO
SPECTRUM
UNLOCKED 256

DOUBLE
64
COMBINED
1
0
0

0.002000
RATIO

1
0
TRUE
51149
0
LEFT NOT FITTED RIGHT NOT FITTED 0
NONE
NONE
15600
12
4.427000
51148
TRUE
1 0 8 72 0 0 0 0

15798

#HDR
-1
-1
#GR
µM
%T
2.38419e-05
0.0
2.000000
0.002000
12515
8
82.1702
48.0799
#DATA
2.000000	 65.1887
2.084000	 64.824
2.168000	 64.9991
2.252000	 64.8254
2.336000	 65.0408
2.420000	 65.0146
2.504000	 65.0866
2.588000	 65.1022
2.672000	 65.3291
2.756000	 65.2564
2.840000	 65.1486
2.924000	 65.0462
3.008000	 65.2076
3.092000	 65.2154
3.176000	 65.25
3.260000	 65.2657
3.344000	 65.218
3.428000	 64.7178
3.512000	 65.2472
3.596000	 65.3088
3.680000	 65.3834
3.764000	 65.2249
3.848000	 65.1375
3.932000	 65.2595
4.016000	 65.34
4.100000	 65.4489
4.184000	 65.2524
4.268000	 65.1269
4.352000	 65.2765
4.436000	 65.2842
4.520000	 65.2659
4.604000	 65.3662
4.688000	 65.3619
4.772000	 65.3175
4.856000	 65.2359
4.940000	 65.2608
5.024000	 65.3041
5.108000	 65.2589
5.192000	 65.4174
5.276000	 65.2871
5.359999	 65.1788
5.444000	 65.2928
5.528000	 65.1971
5.612000	 65.303
5.696000	 65.2116
5.780000	 64.99
5.864000	 65.0955
5.948000	 65.2439
6.032000	 65.1538
6.116000	 65.1457
6.200000	 65.2211
6.284000	 65.0542
6.368000	 64.9645
6.452000	 65.0299
6.536000	 65.0556
6.620000	 65.003
6.704000	 65.1164
6.788000	 65.0785
6.872000	 64.8208
6.956000	 65.2513
7.040000	 65.0779
7.124000	 64.9637
7.208000	 65.0765
7.292000	 65.0038
7.376000	 65.1186
7.460000	 64.9849
7.544000	 65.051
7.628000	 64.9513
7.712000	 65.0267
7.796000	 65.0562
7.880000	 64.8246
7.964000	 64.9414
8.048000	 64.8137
8.132000	 64.8682
8.216000	 64.8892
8.300000	 64.9833
8.384000	 64.7832
8.468000	 64.6722
8.552000	 64.6418
8.635999	 64.6159
8.719999	 64.6291
8.804000	 64.7803
8.888000	 64.7814
8.972000	 64.6704
9.056000	 64.6314
9.140000	 64.6459
9.224000	 64.6396
9.308000	 64.789
9.391999	 64.7389
9.475999	 64.8271
9.560000	 64.9061
9.644000	 64.7271
9.728000	 64.6483
9.812000	 64.6021
9.896000	 64.4028
9.980000	 64.5531
10.064	64.9503
10.148	64.6526
10.232	64.5219
10.316	64.8624
10.4	64.6084
10.484	64.8664
10.568	64.9185
10.652	64.7904
10.736	64.6412
10.82	64.744
10.904	64.7476
10.988	64.5349
11.072	64.7468
11.156	64.6151
11.24	64.5241
11.324	64.6141
11.408	64.5521
11.492	64.6337
11.576	64.3057
11.66	63.9124
11.744	64.0563
11.828	64.463
11.912	64.3671
11.996	64.2319
12.08	64.2773
12.164	64.2925
12.248	63.9276
12.332	63.9737
12.416	64.1883
12.5	64.0664
12.584	63.643
12.668	63.6318
12.752	63.9001
12.836	64.0549
12.92	63.9837
13.004	63.8845
13.088	63.7999
13.172	63.7314
13.256	63.8316
13.34	63.6092
13.424	63.5575
13.508	63.5736
13.592	63.4317
13.676	63.5167
13.76	63.4524
13.844	63.5006
13.928	63.6107
14.012	63.4971
14.096	63.3576
14.18	63.2676
14.264	63.289
14.348	63.2497
14.432	63.1876
14.516	63.1608
14.6	62.9618
14.684	62.8404
14.768	62.9008
14.852	62.9104
14.936	62.8806
15.02	62.8508
15.104	62.8275
15.188	62.8495
15.272	62.7804
15.356	62.5667
15.44	62.4296
15.524	62.4793
15.608	62.5104
15.692	62.3258
15.776	62.0825
15.86	61.9815
15.944	61.9572
16.028	61.9319
16.112	61.8772
16.196	61.7736
16.28	61.7834
16.364	62.0189
16.448	62.2859
16.532	62.3579
16.616	62.2119
16.7	61.9373
16.784	61.7099
16.868	61.731
16.952	61.9817
17.036	62.216
17.12	62.2814
17.204	62.2277
17.288	62.0829
17.372	61.8269
17.456	61.5765
17.54	61.5271
17.624	61.6762
17.708	61.8088
17.792	61.7542
17.876	61.5254
17.96	61.2637
18.044	61.1195
18.128	61.143
18.212	61.2239
18.296	61.1933
18.38	61.0073
18.464	60.788
18.548	60.6702
18.632	60.652
18.716	60.628
18.8	60.5105
18.884	60.286
18.968	59.995
19.052	59.7268
19.136	59.6031
19.22	59.7118
19.304	60.0227
19.388	60.3834
19.472	60.6167
19.556	60.6333
19.64	60.4687
19.724	60.2297
19.808	60.0118
19.892	59.8571
19.976	59.7596
20.06	59.6964
20.144	59.6494
20.228	59.6209
20.312	59.6306
20.396	59.6997
20.48	59.8174
20.564	59.9193
20.648	59.9101
20.732	59.7218
20.816	59.3758
20.9	58.9726
20.984	58.6166
21.068	58.3509
21.152	58.1738
21.236	58.0954
21.32	58.1614
21.404	58.4272
21.488	58.8884
21.572	59.4486
21.656	59.9429
21.74	60.2077
21.824	60.1667
21.908	59.873
21.992	59.4666
22.076	59.0886
22.16	58.7969
22.244	58.551
22.328	58.2854
22.412	58.0012
22.496	57.8175
22.58	57.9087
22.664	58.3926
22.748	59.2178
22.832	60.1632
22.916	60.9342
23	61.2966
23.084	61.1753
23.168	60.6458
23.252	59.8501
23.336	58.9304
23.42	57.9847
23.504	57.0829
23.588	56.3125
23.672	55.7767
23.756	55.5405
23.84	55.6
23.924	55.8589
24.008	56.173
24.092	56.4291
24.176	56.6218
24.26	56.818
24.344	57.1387
24.428	57.6823
24.512	58.4304
24.596	59.2625
24.68	60.0333
24.764	60.652
24.848	61.0862
24.932	61.2829
25.016	61.1313
25.1	60.4724
25.184	59.1774
25.268	57.2471
25.352	54.8286
25.436	52.2966
25.52	50.1046
25.604	48.6045
25.688	48.0806
25.772	48.8233
25.856	51.1501
25.94	55.1054
26.024	60.4113
26.108	66.5002
26.192	72.5548
26.276	77.6579
26.36	81.0648
26.444	82.1645
26.528	80.6774
26.612	76.7807
26.696	71.2888
26.78	65.6055
26.864	61.3117
26.948	59.3725
27.028	59.3906