File: Bakgrunnsmateriale/MATLAB/FTIR/ftir_data/subBb/Mapping_121/C-4040-8_t92.asc
PE IR       SPECTRUM    SPECTRUM    ASCII       PEDS        1.60
  -1
C-A942~1.ASC
17/03/27
22:05:15.00
17/03/27
22:05:41.00
tln
$C-4040-8_t0092$<tbV0>[5.2,7.8,8.0,0.0,27,1,0]
27.028
64

2002,4.07
MIRTGS : RIGHTBACK : INTERNAL 2
MIR : ON : INTERNAL 2
OPTKBR

0.200000
8
8.000000
FILLER
RATIO
SPECTRUM
UNLOCKED 256

DOUBLE
64
COMBINED
1
0
0

0.002000
RATIO

1
0
TRUE
51149
0
LEFT NOT FITTED RIGHT NOT FITTED 0
NONE
NONE
15600
12
4.427000
51148
TRUE
1 0 8 72 0 0 0 0

15798

#HDR
-1
-1
#GR
µM
%T
2.38419e-05
0.0
2.000000
0.002000
12515
8
82.3207
10.7249
#DATA
2.000000	 65.2253
2.084000	 65.4546
2.168000	 65.2119
2.252000	 64.2449
2.336000	 64.4212
2.420000	 65.1263
2.504000	 65.0909
2.588000	 64.9735
2.672000	 65.4698
2.756000	 65.2365
2.840000	 65.2025
2.924000	 65.07
3.008000	 65.2559
3.092000	 65.1243
3.176000	 65.2093
3.260000	 65.3536
3.344000	 65.3055
3.428000	 64.8949
3.512000	 64.8603
3.596000	 65.3665
3.680000	 65.4376
3.764000	 65.2974
3.848000	 65.1463
3.932000	 65.3935
4.016000	 65.564
4.100000	 65.1725
4.184000	 65.3639
4.268000	 65.3662
4.352000	 65.277
4.436000	 65.4746
4.520000	 65.2228
4.604000	 65.2478
4.688000	 65.2726
4.772000	 65.318
4.856000	 65.3068
4.940000	 65.3214
5.024000	 65.3228
5.108000	 65.4155
5.192000	 65.3314
5.276000	 65.3458
5.359999	 65.3001
5.444000	 65.4506
5.528000	 65.2965
5.612000	 65.2904
5.696000	 65.2584
5.780000	 65.1929
5.864000	 65.2334
5.948000	 65.1895
6.032000	 65.1901
6.116000	 65.2555
6.200000	 65.2696
6.284000	 65.0947
6.368000	 65.0342
6.452000	 65.218
6.536000	 65.0676
6.620000	 65.0664
6.704000	 65.1449
6.788000	 65.1109
6.872000	 65.1743
6.956000	 65.169
7.040000	 65.2253
7.124000	 65.0884
7.208000	 65.0615
7.292000	 65.0707
7.376000	 65.0838
7.460000	 65.0633
7.544000	 65.0782
7.628000	 64.8279
7.712000	 65.1374
7.796000	 64.9259
7.880000	 64.9629
7.964000	 65.0614
8.048000	 65.1696
8.132000	 65.0023
8.216000	 65.1371
8.300000	 65.0005
8.384000	 65.0755
8.468000	 64.9767
8.552000	 65.032
8.635999	 65.0242
8.719999	 64.7699
8.804000	 64.9703
8.888000	 65.0025
8.972000	 65.0787
9.056000	 64.5295
9.140000	 64.3764
9.224000	 64.8809
9.308000	 64.7537
9.391999	 64.7944
9.475999	 64.7819
9.560000	 65.068
9.644000	 64.8126
9.728000	 64.9878
9.812000	 64.8647
9.896000	 64.3317
9.980000	 64.5507
10.064	64.7161
10.148	64.7957
10.232	64.4185
10.316	64.5329
10.4	64.7828
10.484	64.675
10.568	64.6971
10.652	64.508
10.736	64.3945
10.82	64.8393
10.904	65.4518
10.988	64.8395
11.072	64.1818
11.156	64.2885
11.24	64.4194
11.324	64.4004
11.408	64.2445
11.492	64.2047
11.576	64.2887
11.66	64.3068
11.744	64.4813
11.828	64.4217
11.912	64.4342
11.996	64.3775
12.08	64.5187
12.164	64.3105
12.248	64.4751
12.332	64.577
12.416	64.1623
12.5	63.9544
12.584	63.9954
12.668	63.9526
12.752	63.9067
12.836	64.0147
12.92	63.9639
13.004	64.0465
13.088	64.1665
13.172	63.8982
13.256	63.8663
13.34	64.0596
13.424	63.8225
13.508	63.6633
13.592	63.8532
13.676	63.9454
13.76	63.8635
13.844	63.8056
13.928	63.7645
14.012	63.6306
14.096	63.6074
14.18	63.6829
14.264	63.7139
14.348	63.6977
14.432	63.5944
14.516	63.3855
14.6	63.244
14.684	63.3021
14.768	63.3955
14.852	63.4069
14.936	63.479
15.02	63.5516
15.104	63.3494
15.188	63.0542
15.272	62.9805
15.356	63.0738
15.44	63.1269
15.524	63.0636
15.608	63.0038
15.692	62.9641
15.776	62.9095
15.86	62.96
15.944	63.1088
16.028	63.1548
16.112	62.9864
16.196	62.6924
16.28	62.5291
16.364	62.6165
16.448	62.6865
16.532	62.536
16.616	62.3909
16.7	62.4588
16.784	62.6111
16.868	62.6769
16.952	62.5886
17.036	62.3638
17.12	62.1375
17.204	62.0079
17.288	61.974
17.372	62.0885
17.456	62.3944
17.54	62.7083
17.624	62.7718
17.708	62.5546
17.792	62.2223
17.876	61.9696
17.96	61.8801
18.044	61.8894
18.128	61.8827
18.212	61.8454
18.296	61.838
18.38	61.8453
18.464	61.7816
18.548	61.6148
18.632	61.3813
18.716	61.1615
18.8	61.0759
18.884	61.1819
18.968	61.3642
19.052	61.4093
19.136	61.2539
19.22	61.0572
19.304	60.9846
19.388	61.0265
19.472	61.0893
19.556	61.1618
19.64	61.3054
19.724	61.5254
19.808	61.7299
19.892	61.8101
19.976	61.7193
20.06	61.4706
20.144	61.1319
20.228	60.8321
20.312	60.7153
20.396	60.8217
20.48	61.0248
20.564	61.1207
20.648	60.9989
20.732	60.7318
20.816	60.4981
20.9	60.4157
20.984	60.4509
21.068	60.4787
21.152	60.4086
21.236	60.2429
21.32	60.0205
21.404	59.7431
21.488	59.3906
21.572	58.9852
21.656	58.6164
21.74	58.3935
21.824	58.371
21.908	58.5064
21.992	58.6886
22.076	58.807
22.16	58.8161
22.244	58.753
22.328	58.7155
22.412	58.7865
22.496	58.9728
22.58	59.1896
22.664	59.295
22.748	59.1614
22.832	58.7665
22.916	58.2001
23	57.636
23.084	57.2493
23.168	57.1345
23.252	57.2685
23.336	57.576
23.42	58.0353
23.504	58.6464
23.588	59.4462
23.672	60.4587
23.756	61.5933
23.84	62.6237
23.924	63.2524
24.008	63.2637
24.092	62.6178
24.176	61.4377
24.26	59.9078
24.344	58.2408
24.428	56.6901
24.512	55.6497
24.596	55.6151
24.68	56.8569
24.764	59.0742
24.848	61.3507
24.932	62.4124
25.016	61.2498
25.1	57.4757
25.184	51.6813
25.268	45.3587
25.352	40.3704
25.436	38.1021
25.52	38.718
25.604	41.2458
25.688	44.2677
25.772	46.6704
25.856	48.0749
25.94	48.3063
26.024	47.2951
26.108	45.026
26.192	42.6226
26.276	41.9617
26.36	45.4417
26.444	53.4401
26.528	63.6498
26.612	71.1216
26.696	71.0558
26.78	61.2196
26.864	43.8388
26.948	24.6506
27.028	10.7249