File: Bakgrunnsmateriale/MATLAB/FTIR/ftir_data/subBb/Mapping_121/C-4040-8_t17.asc
PE IR       SPECTRUM    SPECTRUM    ASCII       PEDS        1.60
  -1
C-B926~1.ASC
17/03/27
15:50:00.00
17/03/27
15:50:26.00
tln
$C-4040-8_t0017$<tbV0>[0.0,-10.4,8.0,0.0,27,1,0]
27.028
64

2002,4.07
MIRTGS : RIGHTBACK : INTERNAL 2
MIR : ON : INTERNAL 2
OPTKBR

0.200000
8
8.000000
FILLER
RATIO
SPECTRUM
UNLOCKED 256

DOUBLE
64
COMBINED
1
0
0

0.002000
RATIO

1
0
TRUE
51149
0
LEFT NOT FITTED RIGHT NOT FITTED 0
NONE
NONE
15600
12
4.427000
51148
TRUE
1 0 8 72 0 0 0 0

15798

#HDR
-1
-1
#GR
µM
%T
2.38419e-05
0.0
2.000000
0.002000
12515
8
70.1211
35.0164
#DATA
2.000000	 63.8445
2.084000	 63.8854
2.168000	 63.539
2.252000	 66.9284
2.336000	 63.4337
2.420000	 63.4459
2.504000	 63.7208
2.588000	 63.4488
2.672000	 63.6017
2.756000	 62.9843
2.840000	 62.6976
2.924000	 62.2907
3.008000	 61.9676
3.092000	 61.8131
3.176000	 61.4487
3.260000	 61.2604
3.344000	 60.9489
3.428000	 60.3259
3.512000	 60.3224
3.596000	 60.0315
3.680000	 59.8072
3.764000	 59.5609
3.848000	 59.2588
3.932000	 59.0596
4.016000	 58.721
4.100000	 58.5424
4.184000	 58.1978
4.268000	 58.0729
4.352000	 57.6203
4.436000	 57.4555
4.520000	 57.1319
4.604000	 56.9654
4.688000	 56.7036
4.772000	 56.452
4.856000	 56.332
4.940000	 56.0595
5.024000	 55.8113
5.108000	 55.5484
5.192000	 55.4061
5.276000	 55.2245
5.359999	 54.9589
5.444000	 54.7077
5.528000	 54.6189
5.612000	 54.5145
5.696000	 54.4182
5.780000	 54.2219
5.864000	 54.0627
5.948000	 53.992
6.032000	 53.6924
6.116000	 53.4715
6.200000	 53.4052
6.284000	 53.012
6.368000	 53.0241
6.452000	 52.9555
6.536000	 52.764
6.620000	 52.9309
6.704000	 52.441
6.788000	 52.3577
6.872000	 52.2861
6.956000	 52.1301
7.040000	 51.9646
7.124000	 51.5453
7.208000	 51.6299
7.292000	 51.4709
7.376000	 51.3538
7.460000	 51.1324
7.544000	 51.1117
7.628000	 50.9176
7.712000	 50.7026
7.796000	 50.7384
7.880000	 50.6384
7.964000	 50.4015
8.048000	 50.3413
8.132000	 50.4407
8.216000	 50.27
8.300000	 50.169
8.384000	 50.0505
8.468000	 49.8425
8.552000	 49.9832
8.635999	 49.8521
8.719999	 49.6346
8.804000	 49.3929
8.888000	 49.461
8.972000	 49.3839
9.056000	 49.2453
9.140000	 48.946
9.224000	 49.2676
9.308000	 48.951
9.391999	 49.0353
9.475999	 48.9009
9.560000	 48.6504
9.644000	 48.6373
9.728000	 48.6815
9.812000	 48.6003
9.896000	 48.5409
9.980000	 48.1922
10.064	48.2423
10.148	48.4715
10.232	48.4556
10.316	48.0898
10.4	47.7486
10.484	47.5044
10.568	47.7792
10.652	48.1057
10.736	47.5379
10.82	47.1765
10.904	47.2717
10.988	46.7907
11.072	46.6387
11.156	46.7487
11.24	47.0354
11.324	47.326
11.408	47.2171
11.492	46.8486
11.576	46.8973
11.66	46.8199
11.744	46.5824
11.828	46.4425
11.912	46.3246
11.996	46.1894
12.08	46.3549
12.164	46.6876
12.248	46.5618
12.332	46.3319
12.416	46.2127
12.5	46.0069
12.584	46.0303
12.668	46.1035
12.752	46.1675
12.836	46.0384
12.92	45.8473
13.004	45.687
13.088	45.7149
13.172	45.7878
13.256	45.9006
13.34	45.8295
13.424	45.5377
13.508	45.1499
13.592	45.0204
13.676	45.2608
13.76	45.0963
13.844	44.8727
13.928	45.0027
14.012	45.0043
14.096	44.823
14.18	44.6545
14.264	44.6236
14.348	44.7204
14.432	44.5516
14.516	44.2775
14.6	44.2399
14.684	44.1637
14.768	43.8941
14.852	43.5962
14.936	43.4183
15.02	43.4031
15.104	43.4948
15.188	43.638
15.272	43.7774
15.356	43.7993
15.44	43.67
15.524	43.4761
15.608	43.2612
15.692	43.0782
15.776	42.9672
15.86	42.8602
15.944	42.7931
16.028	42.8422
16.112	42.8945
16.196	42.8288
16.28	42.7154
16.364	42.6988
16.448	42.7825
16.532	42.8058
16.616	42.6913
16.7	42.5497
16.784	42.4738
16.868	42.4623
16.952	42.494
17.036	42.5565
17.12	42.6367
17.204	42.7116
17.288	42.7448
17.372	42.7152
17.456	42.6227
17.54	42.4508
17.624	42.1782
17.708	41.8323
17.792	41.5088
17.876	41.3326
17.96	41.3393
18.044	41.413
18.128	41.4047
18.212	41.2917
18.296	41.1634
18.38	41.0758
18.464	40.9869
18.548	40.8559
18.632	40.7483
18.716	40.7796
18.8	40.9497
18.884	41.075
18.968	40.9607
19.052	40.6133
19.136	40.2287
19.22	39.9728
19.304	39.8401
19.388	39.7293
19.472	39.5873
19.556	39.4396
19.64	39.3235
19.724	39.2679
19.808	39.3272
19.892	39.5713
19.976	39.9813
20.06	40.384
20.144	40.5493
20.228	40.3848
20.312	40.0142
20.396	39.6623
20.48	39.4696
20.564	39.4181
20.648	39.397
20.732	39.3211
20.816	39.1835
20.9	39.0163
20.984	38.8274
21.068	38.5968
21.152	38.3174
21.236	38.0222
21.32	37.7558
21.404	37.52
21.488	37.2758
21.572	36.9933
21.656	36.7076
21.74	36.5078
21.824	36.47
21.908	36.5909
21.992	36.7861
22.076	36.956
22.16	37.0637
22.244	37.1529
22.328	37.2897
22.412	37.4867
22.496	37.672
22.58	37.7442
22.664	37.6452
22.748	37.4001
22.832	37.0779
22.916	36.7322
23	36.362
23.084	35.9451
23.168	35.5036
23.252	35.1407
23.336	35.0192
23.42	35.26
23.504	35.8682
23.588	36.6876
23.672	37.4726
23.756	37.992
23.84	38.124
23.924	37.9146
24.008	37.5062
24.092	37.0402
24.176	36.6174
24.26	36.2643
24.344	35.9586
24.428	35.6763
24.512	35.4349
24.596	35.2822
24.68	35.27
24.764	35.42
24.848	35.7002
24.932	36.0621
25.016	36.4722
25.1	36.9342
25.184	37.4312
25.268	37.9473
25.352	38.5184
25.436	39.2972
25.52	40.536
25.604	42.4813
25.688	45.1954
25.772	48.4264
25.856	51.6575
25.94	54.2106
26.024	55.5039
26.108	55.352
26.192	53.9166
26.276	51.6149
26.36	49.0361
26.444	46.6627
26.528	44.7597
26.612	43.3482
26.696	42.3936
26.78	41.9396
26.864	42.1971
26.948	43.4799
27.028	45.8502