File: Bakgrunnsmateriale/MATLAB/FTIR/ftir_data/subBb/Mapping_121/C-4040-8_t57_cm-1.asc
PE IR       SPECTRUM    SPECTRUM    ASCII       PEDS        1.60
  -1
C-1CEF~1.ASC
17/03/27
19:09:55.00
17/03/27
19:09:55.00
tln
$C-4040-8_t0057$<tbV0>[10.4,0.0,8.0,0.0,27,1,0]
370
64

2002,4.07
MIRTGS : RIGHTBACK : INTERNAL 2
MIR : ON : INTERNAL 2
OPTKBR

0.200000
8
8.000000
FILLER
RATIO
SPECTRUM
UNLOCKED 256

DOUBLE
64
COMBINED
1
0
0

1.000000
RATIO

1
0
TRUE
51149
0
LEFT NOT FITTED RIGHT NOT FITTED 0
NONE
NONE
15600
12
4.427000
51148
TRUE
1 0 8 72 0 0 0 0

15798

#HDR
-1
-1
#GR
CM-1
%T
2.38419e-05
0.0
5000
-1.000000
4631
8
85.5673
19.0304
#DATA
5000	65.1597
4984	65.086
4968	65.6158
4952	65.1706
4936	65.4909
4920	65.3454
4904	65.0569
4888	64.1382
4872	64.5433
4856	64.9405
4840	64.7439
4824	64.8606
4808	64.9027
4792	64.9143
4776	64.7817
4760	64.8144
4744	64.3405
4728	64.5555
4712	64.8235
4696	64.6966
4680	65.1087
4664	64.5275
4648	64.7629
4632	64.9831
4616	64.4734
4600	65.0352
4584	64.9246
4568	64.9008
4552	64.8232
4536	65.2072
4520	65.169
4504	65.0756
4488	65.2065
4472	64.9585
4456	65.2187
4440	65.5145
4424	65.8382
4408	65.8084
4392	64.985
4376	66.0386
4360	57.1508
4344	62.9356
4328	65.8058
4312	65.0398
4296	65.6297
4280	65.8554
4264	65.4871
4248	64.8323
4232	65.1358
4216	65.3536
4200	65.3588
4184	64.655
4168	64.3816
4152	64.6484
4136	65.1264
4120	65.1669
4104	64.8725
4088	65.1425
4072	64.896
4056	64.9209
4040	64.8905
4024	64.8692
4008	64.9034
3992	65.0483
3976	64.8678
3960	64.9849
3944	64.9732
3928	65.0282
3912	65.2467
3896	64.7972
3880	65.0548
3864	65.2031
3848	64.9776
3832	65.1252
3816	65.0637
3800	65.3077
3784	65.185
3768	65.1443
3752	65.0226
3736	65.161
3720	65.1522
3704	64.9579
3688	65.2385
3672	65.1874
3656	64.99
3640	65.063
3624	64.9732
3608	65.2376
3592	65.0703
3576	65.2209
3560	65.201
3544	65.1475
3528	65.0063
3512	65.1027
3496	65.0154
3480	65.108
3464	65.3969
3448	65.0678
3432	65.0117
3416	65.0522
3400	65.1232
3384	65.2004
3368	65.2525
3352	64.9702
3336	65.1929
3320	65.2898
3304	65.1832
3288	65.0603
3272	65.1446
3256	65.3424
3240	65.0421
3224	65.0311
3208	65.1787
3192	65.0117
3176	65.2632
3160	65.2159
3144	64.9198
3128	65.28
3112	64.9302
3096	65.1262
3080	64.9894
3064	65.308
3048	65.1685
3032	65.2825
3016	65.2398
3000	65.1353
2984	65.2237
2968	65.4226
2952	65.186
2936	65.1019
2920	64.8233
2904	65.1665
2888	65.2744
2872	65.0526
2856	65.0232
2840	65.1185
2824	65.03
2808	65.2225
2792	65.2073
2776	65.1642
2760	65.1232
2744	65.1634
2728	65.0392
2712	65.1125
2696	65.0602
2680	65.1592
2664	65.2904
2648	65.3061
2632	65.2553
2616	65.255
2600	65.2831
2584	65.2399
2568	65.253
2552	65.385
2536	65.2225
2520	65.1974
2504	65.1826
2488	65.268
2472	65.2431
2456	65.2426
2440	65.3123
2424	65.4475
2408	65.2555
2392	65.273
2376	65.1317
2360	65.1778
2344	65.1299
2328	65.2924
2312	65.0472
2296	65.2083
2280	65.1915
2264	65.1939
2248	65.3878
2232	65.2694
2216	65.3316
2200	65.2244
2184	65.2789
2168	65.2084
2152	65.2775
2136	65.286
2120	65.396
2104	65.307
2088	65.4134
2072	65.296
2056	65.2576
2040	65.1633
2024	65.2303
2008	65.2546
1992	65.2452
1976	65.277
1960	65.3255
1944	65.2415
1928	65.2981
1912	65.2975
1896	65.2423
1880	65.2759
1864	65.201
1848	65.2536
1832	65.3426
1816	65.1949
1800	65.217
1784	65.1822
1768	65.2261
1752	65.1163
1736	65.0686
1720	64.8867
1704	65.2214
1688	65.0675
1672	65.246
1656	65.1983
1640	65.1605
1624	65.2244
1608	65.0978
1592	65.0737
1576	65.1418
1560	64.9447
1544	65.1108
1528	65.0165
1512	65.0364
1496	65.2424
1480	65.1334
1464	64.9348
1448	65.0119
1432	64.9324
1416	64.9758
1400	65.0985
1384	65.0635
1368	65.0582
1352	64.9716
1336	64.8557
1320	64.9548
1304	64.9229
1288	65.0317
1272	64.8973
1256	64.878
1240	64.9253
1224	64.9041
1208	64.9098
1192	64.9166
1176	64.7437
1160	64.9082
1144	64.9109
1128	64.6314
1112	64.4718
1096	64.5146
1080	64.8412
1064	64.6406
1048	64.688
1032	64.586
1016	64.621
1000	64.8817
984	 64.6469
968	 64.4726
952	 64.6397
936	 64.2362
920	 64.6045
904	 64.4302
888	 64.467
872	 63.8717
856	 64.2061
840	 64.4102
824	 64.2322
808	 64.2014
792	 64.0873
776	 64.0455
760	 63.5686
744	 63.3454
728	 63.4943
712	 63.2624
696	 63.1158
680	 62.6793
664	 62.5849
648	 62.5351
632	 62.0765
616	 62.349
600	 61.6026
584	 61.7007
568	 60.7899
552	 60.5564
536	 61.0653
520	 60.0875
504	 60.577
488	 59.7194
472	 57.7035
456	 58.2473
440	 56.2517
424	 55.0304
408	 58.4081
392	 62.8581
376	 37.1161
370	 26.4903