File: Bakgrunnsmateriale/MATLAB/FTIR/ftir_data/subBb/Mapping_121/C-4040-8_t119_cm-1.asc
PE IR       SPECTRUM    SPECTRUM    ASCII       PEDS        1.60
  -1
C-4E09~1.ASC
17/03/28
00:31:10.00
17/03/28
00:31:10.00
tln
$C-4040-8_t0119$<tbV0>[-7.8,13.0,8.0,0.0,27,1,0]
370
64

2002,4.07
MIRTGS : RIGHTBACK : INTERNAL 2
MIR : ON : INTERNAL 2
OPTKBR

0.200000
8
8.000000
FILLER
RATIO
SPECTRUM
UNLOCKED 256

DOUBLE
64
COMBINED
1
0
0

1.000000
RATIO

1
0
TRUE
51149
0
LEFT NOT FITTED RIGHT NOT FITTED 0
NONE
NONE
15600
12
4.427000
51148
TRUE
1 0 8 72 0 0 0 0

15798

#HDR
-1
-1
#GR
CM-1
%T
2.38419e-05
0.0
5000
-1.000000
4631
8
72.9755
26.0785
#DATA
5000	64.6321
4984	65.3532
4968	64.766
4952	64.6107
4936	64.7684
4920	64.6542
4904	65.3867
4888	65.6356
4872	64.5936
4856	65.1184
4840	64.6642
4824	64.5901
4808	64.7758
4792	64.5178
4776	64.6504
4760	64.7844
4744	65.1
4728	64.5705
4712	65.2517
4696	64.7324
4680	64.4676
4664	64.8941
4648	64.6194
4632	64.6855
4616	64.1194
4600	64.9999
4584	65.0617
4568	64.9497
4552	65.3136
4536	65.5206
4520	64.7332
4504	65.1225
4488	65.2645
4472	65.2247
4456	66.2186
4440	65.1351
4424	65.6245
4408	66.0302
4392	49.0635
4376	66.5357
4360	66.2747
4344	65.7059
4328	65.415
4312	65.4583
4296	65.0847
4280	65.5342
4264	65
4248	65.3062
4232	65.2839
4216	65.4745
4200	64.8564
4184	64.1171
4168	64.4739
4152	64.8542
4136	64.8514
4120	65.0675
4104	64.9436
4088	65.115
4072	65.398
4056	64.8206
4040	64.8389
4024	64.7606
4008	64.9812
3992	65.0034
3976	65.0489
3960	65.0264
3944	65.3186
3928	65.0354
3912	64.8937
3896	65.1077
3880	64.9841
3864	64.8693
3848	65.1212
3832	64.9925
3816	64.9653
3800	65.169
3784	65.47
3768	65.0933
3752	65.0401
3736	65.1125
3720	65.082
3704	65.1401
3688	65.1477
3672	65.0126
3656	65.1134
3640	65.0559
3624	65.155
3608	64.9858
3592	64.928
3576	65.0356
3560	65.0011
3544	65.0183
3528	64.8959
3512	64.9228
3496	65.1405
3480	64.8575
3464	65.1036
3448	65.0436
3432	65.1382
3416	64.9444
3400	65.1857
3384	65.0603
3368	65.2159
3352	64.8519
3336	64.9997
3320	64.8512
3304	64.8731
3288	65.141
3272	64.9493
3256	65.279
3240	64.8515
3224	65.2756
3208	65.0222
3192	64.9868
3176	65.0588
3160	64.9041
3144	64.9151
3128	65.0039
3112	65.2681
3096	65.2287
3080	65.0843
3064	65.0262
3048	65.0992
3032	65.0626
3016	65.1011
3000	65.3117
2984	65.0545
2968	65.0528
2952	64.9373
2936	64.6784
2920	64.7324
2904	65.0179
2888	64.878
2872	65.1133
2856	64.8295
2840	65.0208
2824	65.0063
2808	65.0497
2792	65.0159
2776	65.0817
2760	65.1069
2744	64.9618
2728	65.0142
2712	65.0443
2696	65.0243
2680	65.1678
2664	65.0933
2648	65.0374
2632	64.9846
2616	65.1132
2600	65.1195
2584	65.0997
2568	65.1028
2552	65.2863
2536	65.1303
2520	65.1788
2504	65.1387
2488	65.1602
2472	65.2144
2456	65.1432
2440	65.0651
2424	65.1625
2408	65.3648
2392	65.1302
2376	65.1957
2360	65.2021
2344	65.1667
2328	65.2302
2312	65.0903
2296	65.1187
2280	65.0271
2264	65.2177
2248	65.1194
2232	64.9513
2216	65.1286
2200	65.2123
2184	65.1591
2168	65.1919
2152	65.1965
2136	65.0198
2120	65.0669
2104	65.2354
2088	65.071
2072	65.2356
2056	65.1219
2040	65.1049
2024	65.192
2008	65.1433
1992	64.9804
1976	65.2513
1960	65.1093
1944	65.0302
1928	65.0042
1912	65.154
1896	65.0972
1880	65.1621
1864	64.8078
1848	65.0454
1832	65.0227
1816	64.9683
1800	65.0616
1784	64.8962
1768	65.0262
1752	64.967
1736	64.7763
1720	65.0568
1704	64.9522
1688	64.9604
1672	64.9094
1656	64.9158
1640	64.9131
1624	64.8453
1608	64.8983
1592	64.8589
1576	64.8701
1560	64.8714
1544	64.8755
1528	64.9077
1512	64.8923
1496	64.9722
1480	65.0301
1464	64.9508
1448	65.0157
1432	64.8763
1416	64.7945
1400	64.6215
1384	64.846
1368	64.7783
1352	64.7706
1336	64.8255
1320	64.8384
1304	64.6715
1288	64.6156
1272	64.5587
1256	64.8488
1240	64.6228
1224	64.6343
1208	64.7003
1192	64.5233
1176	64.5824
1160	64.5189
1144	64.6681
1128	64.517
1112	64.5964
1096	64.3445
1080	64.2454
1064	64.3304
1048	64.4005
1032	64.473
1016	64.2087
1000	64.1944
984	 64.4887
968	 64.2977
952	 64.3436
936	 63.9856
920	 64.1553
904	 64.4206
888	 63.8573
872	 63.5979
856	 63.5267
840	 63.7168
824	 63.7885
808	 63.3648
792	 63.4374
776	 63.4408
760	 63.0455
744	 63.8994
728	 63.0027
712	 62.5155
696	 62.6765
680	 62.1777
664	 62.7712
648	 61.9131
632	 61.5655
616	 61.7356
600	 61.597
584	 61.1043
568	 60.7409
552	 60.7054
536	 60.8147
520	 60.1047
504	 59.2095
488	 59.9503
472	 58.8699
456	 59.6138
440	 58.3025
424	 57.3535
408	 64.0042
392	 40.0716
376	 49.7149
370	 40.7348