File: Bakgrunnsmateriale/MATLAB/FTIR/ftir_data/subBb/Mapping_121/C-4040-8_t26.asc
PE IR       SPECTRUM    SPECTRUM    ASCII       PEDS        1.60
  -1
C-BD22~1.ASC
17/03/27
16:38:40.00
17/03/27
16:39:06.00
tln
$C-4040-8_t0026$<tbV0>[5.2,-7.8,8.0,0.0,27,1,0]
27.028
64

2002,4.07
MIRTGS : RIGHTBACK : INTERNAL 2
MIR : ON : INTERNAL 2
OPTKBR

0.200000
8
8.000000
FILLER
RATIO
SPECTRUM
UNLOCKED 256

DOUBLE
64
COMBINED
1
0
0

0.002000
RATIO

1
0
TRUE
51149
0
LEFT NOT FITTED RIGHT NOT FITTED 0
NONE
NONE
15600
12
4.427000
51148
TRUE
1 0 8 72 0 0 0 0

15798

#HDR
-1
-1
#GR
µM
%T
2.38419e-05
0.0
2.000000
0.002000
12515
8
74.3162
-5.959939
#DATA
2.000000	 63.1969
2.084000	 62.7063
2.168000	 62.92
2.252000	 63.134
2.336000	 63.0208
2.420000	 61.9422
2.504000	 61.6698
2.588000	 61.0981
2.672000	 60.7929
2.756000	 60.0168
2.840000	 59.5555
2.924000	 59.0559
3.008000	 58.4073
3.092000	 57.7072
3.176000	 56.878
3.260000	 56.5543
3.344000	 55.7378
3.428000	 54.8859
3.512000	 54.3175
3.596000	 53.6694
3.680000	 53.1751
3.764000	 52.3277
3.848000	 51.7785
3.932000	 51.134
4.016000	 50.4412
4.100000	 49.945
4.184000	 49.372
4.268000	 48.8544
4.352000	 48.1088
4.436000	 47.6995
4.520000	 46.9911
4.604000	 46.6978
4.688000	 46.1541
4.772000	 45.6234
4.856000	 45.1597
4.940000	 44.7097
5.024000	 44.2494
5.108000	 43.7611
5.192000	 43.358
5.276000	 42.9913
5.359999	 42.5642
5.444000	 42.1718
5.528000	 41.6925
5.612000	 41.4003
5.696000	 41.0151
5.780000	 40.5468
5.864000	 40.3693
5.948000	 39.9542
6.032000	 39.7137
6.116000	 39.414
6.200000	 39.1558
6.284000	 38.8619
6.368000	 38.6041
6.452000	 38.2012
6.536000	 37.9941
6.620000	 37.726
6.704000	 37.4702
6.788000	 37.24
6.872000	 37.1082
6.956000	 36.855
7.040000	 36.4927
7.124000	 36.2071
7.208000	 36.1146
7.292000	 35.7455
7.376000	 35.6701
7.460000	 35.4436
7.544000	 35.1466
7.628000	 34.9213
7.712000	 34.8482
7.796000	 34.7479
7.880000	 34.4945
7.964000	 34.3057
8.048000	 34.085
8.132000	 33.834
8.216000	 33.7076
8.300000	 33.7242
8.384000	 33.4499
8.468000	 33.0831
8.552000	 33.012
8.635999	 32.9508
8.719999	 32.7146
8.804000	 32.6776
8.888000	 32.531
8.972000	 32.331
9.056000	 32.3499
9.140000	 32.0882
9.224000	 32.1207
9.308000	 31.594
9.391999	 31.9206
9.475999	 31.8557
9.560000	 31.4812
9.644000	 31.4696
9.728000	 31.0042
9.812000	 31.147
9.896000	 30.8723
9.980000	 30.6229
10.064	30.0663
10.148	30.6517
10.232	30.5128
10.316	30.2063
10.4	30.1042
10.484	29.8738
10.568	29.7248
10.652	29.6165
10.736	29.4862
10.82	29.2583
10.904	29.2633
10.988	29.0654
11.072	28.9858
11.156	28.9032
11.24	28.7044
11.324	28.7643
11.408	28.7563
11.492	28.4999
11.576	28.2359
11.66	28.1134
11.744	27.9613
11.828	28.031
11.912	28.0343
11.996	27.7922
12.08	27.5625
12.164	27.3472
12.248	27.2104
12.332	27.1311
12.416	27.1914
12.5	26.9655
12.584	26.8575
12.668	27.0018
12.752	26.6797
12.836	26.4286
12.92	26.2915
13.004	26.15
13.088	26.3413
13.172	26.3165
13.256	25.7407
13.34	25.2801
13.424	25.4518
13.508	25.5143
13.592	25.5118
13.676	25.5701
13.76	25.2514
13.844	24.8348
13.928	24.8329
14.012	24.9479
14.096	24.917
14.18	24.8582
14.264	24.741
14.348	24.5451
14.432	24.4652
14.516	24.4733
14.6	24.2109
14.684	23.94
14.768	23.9446
14.852	23.9033
14.936	23.8003
15.02	23.7369
15.104	23.6174
15.188	23.4711
15.272	23.3266
15.356	23.1524
15.44	22.9672
15.524	22.8026
15.608	22.6368
15.692	22.3712
15.776	22.0785
15.86	22.0081
15.944	22.1551
16.028	22.3114
16.112	22.4278
16.196	22.5339
16.28	22.5481
16.364	22.3782
16.448	22.1043
16.532	21.9202
16.616	21.8546
16.7	21.7665
16.784	21.6264
16.868	21.5184
16.952	21.4539
17.036	21.379
17.12	21.2755
17.204	21.1784
17.288	21.1565
17.372	21.2217
17.456	21.237
17.54	21.0454
17.624	20.7143
17.708	20.4686
17.792	20.3753
17.876	20.2655
17.96	20.0063
18.044	19.6846
18.128	19.4783
18.212	19.4407
18.296	19.482
18.38	19.4978
18.464	19.4592
18.548	19.3978
18.632	19.3352
18.716	19.2431
18.8	19.0907
18.884	18.9253
18.968	18.8647
19.052	18.9706
19.136	19.1471
19.22	19.2145
19.304	19.0866
19.388	18.8483
19.472	18.6472
19.556	18.5492
19.64	18.5138
19.724	18.4764
19.808	18.4074
19.892	18.2927
19.976	18.109
20.06	17.8586
20.144	17.6062
20.228	17.447
20.312	17.4194
20.396	17.4604
20.48	17.4555
20.564	17.3432
20.648	17.1668
20.732	17.0266
20.816	16.9775
20.9	16.9829
20.984	16.961
21.068	16.8588
21.152	16.6937
21.236	16.5206
21.32	16.3802
21.404	16.2876
21.488	16.2512
21.572	16.2921
21.656	16.4166
21.74	16.589
21.824	16.7441
21.908	16.8281
21.992	16.8236
22.076	16.7356
22.16	16.5563
22.244	16.2484
22.328	15.7944
22.412	15.2398
22.496	14.7226
22.58	14.4102
22.664	14.4167
22.748	14.7437
22.832	15.2936
22.916	15.9097
23	16.4254
23.084	16.7093
23.168	16.6913
23.252	16.3835
23.336	15.8676
23.42	15.283
23.504	14.7942
23.588	14.5424
23.672	14.6164
23.756	15.0423
23.84	15.7334
23.924	16.5211
24.008	17.1911
24.092	17.5251
24.176	17.3884
24.26	16.7987
24.344	15.96
24.428	15.1566
24.512	14.6057
24.596	14.3229
24.68	14.1588
24.764	13.9211
24.848	13.4537
24.932	12.737
25.016	11.9369
25.1	11.2812
25.184	11.1942
25.268	12.156
25.352	14.5124
25.436	18.183
25.52	22.5852
25.604	26.8909
25.688	30.1848
25.772	32.0051
25.856	32.606
25.94	32.6439
26.024	32.825
26.108	33.4936
26.192	34.6991
26.276	36.1814
26.36	37.6634
26.444	38.4523
26.528	37.6108
26.612	34.2074
26.696	27.8553
26.78	19.0596
26.864	9.313210
26.948	0.468560
27.028	-5.959939