File: Bakgrunnsmateriale/MATLAB/FTIR/ftir_data/subBb/Mapping_121/C-4040-8_t47.asc
PE IR       SPECTRUM    SPECTRUM    ASCII       PEDS        1.60
  -1
C-B536~1.ASC
17/03/27
18:23:09.00
17/03/27
18:23:35.00
tln
$C-4040-8_t0047$<tbV0>[7.8,-2.6,8.0,0.0,27,1,0]
27.028
64

2002,4.07
MIRTGS : RIGHTBACK : INTERNAL 2
MIR : ON : INTERNAL 2
OPTKBR

0.200000
8
8.000000
FILLER
RATIO
SPECTRUM
UNLOCKED 256

DOUBLE
64
COMBINED
1
0
0

0.002000
RATIO

1
0
TRUE
51149
0
LEFT NOT FITTED RIGHT NOT FITTED 0
NONE
NONE
15600
12
4.427000
51148
TRUE
1 0 8 72 0 0 0 0

15798

#HDR
-1
-1
#GR
µM
%T
2.38419e-05
0.0
2.000000
0.002000
12515
8
92.2923
40.2928
#DATA
2.000000	 64.7907
2.084000	 64.7542
2.168000	 64.4866
2.252000	 64.7536
2.336000	 65.437
2.420000	 65.0119
2.504000	 64.9044
2.588000	 65.1249
2.672000	 64.9321
2.756000	 64.8844
2.840000	 64.9939
2.924000	 65.1152
3.008000	 65.0274
3.092000	 65.2072
3.176000	 65.0294
3.260000	 65.1605
3.344000	 65.017
3.428000	 64.8701
3.512000	 65.0426
3.596000	 64.9199
3.680000	 64.9695
3.764000	 65.2207
3.848000	 65.2309
3.932000	 65.1373
4.016000	 64.8312
4.100000	 65.1354
4.184000	 65.0973
4.268000	 65.0397
4.352000	 65.1985
4.436000	 65.3
4.520000	 65.1321
4.604000	 65.0886
4.688000	 65.2848
4.772000	 65.1445
4.856000	 65.0224
4.940000	 65.156
5.024000	 65.1078
5.108000	 64.973
5.192000	 65.03
5.276000	 65.1796
5.359999	 65.057
5.444000	 65.0393
5.528000	 65.1402
5.612000	 65.098
5.696000	 65.0317
5.780000	 64.8436
5.864000	 64.9671
5.948000	 65.1236
6.032000	 64.9717
6.116000	 64.9017
6.200000	 64.8579
6.284000	 64.8616
6.368000	 64.9257
6.452000	 64.9527
6.536000	 64.779
6.620000	 64.8298
6.704000	 64.7865
6.788000	 64.8393
6.872000	 64.6261
6.956000	 64.789
7.040000	 64.9519
7.124000	 64.8359
7.208000	 64.9224
7.292000	 64.769
7.376000	 64.7606
7.460000	 64.6704
7.544000	 64.8539
7.628000	 64.8907
7.712000	 64.6988
7.796000	 64.8004
7.880000	 64.8131
7.964000	 64.7574
8.048000	 64.7766
8.132000	 64.562
8.216000	 64.7277
8.300000	 64.7752
8.384000	 64.9492
8.468000	 64.426
8.552000	 64.7509
8.635999	 64.6722
8.719999	 65.02
8.804000	 64.5622
8.888000	 64.4833
8.972000	 64.865
9.056000	 64.0627
9.140000	 64.3195
9.224000	 65.2085
9.308000	 64.5052
9.391999	 64.5836
9.475999	 64.4559
9.560000	 64.3874
9.644000	 64.4389
9.728000	 64.1669
9.812000	 64.3642
9.896000	 64.5441
9.980000	 64.5234
10.064	64.4294
10.148	64.2783
10.232	64.3977
10.316	64.2661
10.4	64.5088
10.484	64.5209
10.568	64.3392
10.652	64.3192
10.736	64.4214
10.82	64.2816
10.904	64.5005
10.988	64.364
11.072	64.2997
11.156	64.1122
11.24	64.1379
11.324	64.2593
11.408	64.2347
11.492	64.1396
11.576	64.3453
11.66	64.4035
11.744	64.3569
11.828	64.3382
11.912	64.0554
11.996	63.8491
12.08	63.8886
12.164	64.1404
12.248	64.0326
12.332	64.0571
12.416	63.8942
12.5	63.7337
12.584	63.9063
12.668	63.8745
12.752	63.7187
12.836	63.6897
12.92	63.7228
13.004	63.7034
13.088	63.7921
13.172	63.9262
13.256	63.6456
13.34	63.8796
13.424	63.8462
13.508	63.4323
13.592	63.352
13.676	63.4966
13.76	63.5036
13.844	63.3183
13.928	63.4601
14.012	63.6634
14.096	63.6543
14.18	63.4404
14.264	63.2391
14.348	63.1929
14.432	63.2882
14.516	63.2922
14.6	62.9615
14.684	62.7426
14.768	62.9451
14.852	63.2001
14.936	63.1787
15.02	63.0285
15.104	62.9352
15.188	62.8882
15.272	62.8669
15.356	62.7913
15.44	62.6177
15.524	62.4413
15.608	62.3638
15.692	62.3554
15.776	62.3969
15.86	62.5935
15.944	62.8165
16.028	62.8125
16.112	62.6848
16.196	62.6713
16.28	62.787
16.364	62.8886
16.448	62.7545
16.532	62.3173
16.616	61.8747
16.7	61.7282
16.784	61.8296
16.868	62.0132
16.952	62.1935
17.036	62.3113
17.12	62.3328
17.204	62.2315
17.288	61.9797
17.372	61.656
17.456	61.4528
17.54	61.4727
17.624	61.6154
17.708	61.7091
17.792	61.6446
17.876	61.4175
17.96	61.1347
18.044	60.9594
18.128	60.9608
18.212	61.0617
18.296	61.1549
18.38	61.2258
18.464	61.3246
18.548	61.4551
18.632	61.5409
18.716	61.5329
18.8	61.5106
18.884	61.6048
18.968	61.801
19.052	61.8866
19.136	61.6893
19.22	61.2971
19.304	60.9746
19.388	60.8711
19.472	60.8964
19.556	60.8651
19.64	60.7014
19.724	60.4898
19.808	60.3641
19.892	60.4004
19.976	60.5751
20.06	60.7842
20.144	60.8938
20.228	60.8147
20.312	60.5715
20.396	60.2876
20.48	60.0741
20.564	59.9445
20.648	59.8262
20.732	59.6597
20.816	59.4619
20.9	59.291
20.984	59.1922
21.068	59.1755
21.152	59.2197
21.236	59.3027
21.32	59.3951
21.404	59.4443
21.488	59.3982
21.572	59.2538
21.656	59.1087
21.74	59.1119
21.824	59.3266
21.908	59.6206
21.992	59.7403
22.076	59.5069
22.16	58.983
22.244	58.4797
22.328	58.3545
22.412	58.7871
22.496	59.6503
22.58	60.583
22.664	61.1841
22.748	61.2043
22.832	60.6424
22.916	59.6928
23	58.6346
23.084	57.7062
23.168	57.0286
23.252	56.5948
23.336	56.3557
23.42	56.2548
23.504	56.3206
23.588	56.6203
23.672	57.1815
23.756	57.9715
23.84	58.9454
23.924	59.9723
24.008	60.9102
24.092	61.6891
24.176	62.2851
24.26	62.6743
24.344	62.8319
24.428	62.7863
24.512	62.6765
24.596	62.7918
24.68	63.4367
24.764	64.7722
24.848	66.6928
24.932	69.2395
25.016	72.6958
25.1	77.4574
25.184	83.2489
25.268	88.7826
25.352	92.0446
25.436	91.2346
25.52	85.8437
25.604	76.8887
25.688	66.2685
25.772	55.9629
25.856	47.409
25.94	41.838
26.024	40.3726
26.108	43.8195
26.192	51.896
26.276	62.9691
26.36	73.9853
26.444	81.7509
26.528	84.1089
26.612	80.82
26.696	73.3195
26.78	64.113
26.864	55.6257
26.948	49.3743
27.028	45.8357