File: Bakgrunnsmateriale/MATLAB/FTIR/ftir_data/subBb/Mapping_121/C-4040-8_t103_cm-1.asc
PE IR       SPECTRUM    SPECTRUM    ASCII       PEDS        1.60
  -1
C-488C~1.ASC
17/03/27
22:56:38.00
17/03/27
22:56:38.00
tln
$C-4040-8_t0103$<tbV0>[5.2,10.4,8.0,0.0,27,1,0]
370
64

2002,4.07
MIRTGS : RIGHTBACK : INTERNAL 2
MIR : ON : INTERNAL 2
OPTKBR

0.200000
8
8.000000
FILLER
RATIO
SPECTRUM
UNLOCKED 256

DOUBLE
64
COMBINED
1
0
0

1.000000
RATIO

1
0
TRUE
51149
0
LEFT NOT FITTED RIGHT NOT FITTED 0
NONE
NONE
15600
12
4.427000
51148
TRUE
1 0 8 72 0 0 0 0

15798

#HDR
-1
-1
#GR
CM-1
%T
2.38419e-05
0.0
5000
-1.000000
4631
8
140.701
2.498269
#DATA
5000	64.6749
4984	64.9411
4968	64.5763
4952	65.3739
4936	64.2599
4920	64.8745
4904	64.777
4888	65.2393
4872	66.0677
4856	64.9107
4840	64.9758
4824	65.2756
4808	65.2471
4792	65.2292
4776	65.4282
4760	65.4563
4744	65.2946
4728	65.5768
4712	65.6934
4696	65.223
4680	65.6068
4664	65.544
4648	65.6581
4632	65.6651
4616	65.3264
4600	65.2635
4584	65.5782
4568	64.9975
4552	65.1246
4536	64.0814
4520	64.4385
4504	63.6306
4488	64.1504
4472	63.7765
4456	63.8389
4440	63.3264
4424	63.4832
4408	62.1857
4392	75.0419
4376	65.3455
4360	64.3179
4344	63.881
4328	64.1808
4312	63.5659
4296	63.8288
4280	64.15
4264	64.8693
4248	64.0053
4232	64.5589
4216	64.559
4200	64.1547
4184	64.483
4168	64.5301
4152	65.4667
4136	65.2407
4120	65.4692
4104	65.5417
4088	65.4982
4072	65.2416
4056	65.5625
4040	65.6648
4024	65.7664
4008	65.4069
3992	65.3028
3976	65.4089
3960	65.3925
3944	65.2203
3928	65.0688
3912	65.1832
3896	65.1428
3880	65.2761
3864	65.4093
3848	65.148
3832	65.0687
3816	65.0813
3800	64.9679
3784	65.3555
3768	65.3159
3752	65.3558
3736	65.1891
3720	65.435
3704	65.315
3688	65.5465
3672	65.4519
3656	65.3537
3640	65.3853
3624	65.695
3608	65.2938
3592	65.4858
3576	65.3718
3560	65.8391
3544	65.1967
3528	65.6663
3512	65.4963
3496	65.3879
3480	65.2249
3464	65.0804
3448	65.247
3432	65.3493
3416	65.3748
3400	65.1185
3384	65.2941
3368	65.1916
3352	65.249
3336	65.0122
3320	65.1711
3304	65.2128
3288	65.2051
3272	65.3683
3256	65.4456
3240	65.1021
3224	65.3336
3208	65.2922
3192	65.0936
3176	65.5608
3160	65.442
3144	65.2799
3128	65.655
3112	65.4723
3096	65.5073
3080	65.2461
3064	65.2508
3048	65.3655
3032	65.2001
3016	65.2575
3000	65.4331
2984	65.2079
2968	65.3512
2952	65.2759
2936	65.08
2920	64.9077
2904	65.2717
2888	65.3325
2872	65.2951
2856	65.2297
2840	65.2277
2824	65.3232
2808	65.3553
2792	65.5246
2776	65.3584
2760	65.3564
2744	65.3368
2728	65.4664
2712	65.4626
2696	65.5141
2680	65.4079
2664	65.4697
2648	65.3483
2632	65.3556
2616	65.4153
2600	65.2795
2584	65.431
2568	65.3388
2552	65.4583
2536	65.462
2520	65.2756
2504	65.3054
2488	65.4648
2472	65.4669
2456	65.3953
2440	65.2283
2424	65.2003
2408	65.4036
2392	65.2952
2376	65.3808
2360	65.3832
2344	65.4362
2328	65.3888
2312	65.4288
2296	65.3967
2280	65.5041
2264	65.4349
2248	65.4132
2232	65.4516
2216	65.4704
2200	65.3037
2184	65.4467
2168	65.3689
2152	65.3747
2136	65.4847
2120	65.324
2104	65.6074
2088	65.2922
2072	65.479
2056	65.0466
2040	65.3749
2024	65.5222
2008	65.5052
1992	65.3548
1976	65.4926
1960	65.3996
1944	65.4811
1928	65.5246
1912	65.3154
1896	65.5529
1880	65.3779
1864	65.3331
1848	65.4216
1832	65.4222
1816	65.4546
1800	65.3487
1784	65.3742
1768	65.4365
1752	65.4072
1736	65.0551
1720	65.2657
1704	65.3624
1688	65.3378
1672	65.3075
1656	65.2735
1640	65.2461
1624	65.2656
1608	65.2469
1592	65.192
1576	65.1355
1560	65.1737
1544	65.2503
1528	65.1592
1512	65.1084
1496	65.2643
1480	65.3136
1464	65.2243
1448	65.0891
1432	65.1383
1416	65.2684
1400	65.2855
1384	65.3646
1368	65.1048
1352	65.1475
1336	65.0359
1320	65.216
1304	65.0293
1288	65.197
1272	65.0643
1256	65.1604
1240	65.1743
1224	65.0744
1208	65.0619
1192	65.047
1176	65.1116
1160	65.0245
1144	64.847
1128	64.8468
1112	65.0705
1096	64.7632
1080	64.7144
1064	64.841
1048	64.859
1032	64.8004
1016	64.4325
1000	64.5476
984	 64.6051
968	 64.7999
952	 64.7202
936	 64.1738
920	 65.5902
904	 64.7262
888	 64.6007
872	 64.5569
856	 65.0432
840	 64.1484
824	 64.1398
808	 64.1154
792	 64.35
776	 63.9594
760	 63.9151
744	 64.3356
728	 63.7955
712	 63.1843
696	 63.4704
680	 63.3681
664	 62.8495
648	 63.2991
632	 62.9483
616	 62.6
600	 62.6364
584	 62.7043
568	 62.5015
552	 62.0637
536	 62.1964
520	 61.4177
504	 60.6123
488	 61.6848
472	 59.5717
456	 58.9692
440	 57.637
424	 58.3593
408	 58.706
392	 47.5176
376	 10.8855
370	 11.2208