File: Bakgrunnsmateriale/MATLAB/FTIR/ftir_data/subBb/Mapping_121/C-4040-8_t36_cm-1.asc
PE IR       SPECTRUM    SPECTRUM    ASCII       PEDS        1.60
  -1
C-1B6E~1.ASC
17/03/27
17:25:27.00
17/03/27
17:25:27.00
tln
$C-4040-8_t0036$<tbV0>[7.8,-5.2,8.0,0.0,27,1,0]
370
64

2002,4.07
MIRTGS : RIGHTBACK : INTERNAL 2
MIR : ON : INTERNAL 2
OPTKBR

0.200000
8
8.000000
FILLER
RATIO
SPECTRUM
UNLOCKED 256

DOUBLE
64
COMBINED
1
0
0

1.000000
RATIO

1
0
TRUE
51149
0
LEFT NOT FITTED RIGHT NOT FITTED 0
NONE
NONE
15600
12
4.427000
51148
TRUE
1 0 8 72 0 0 0 0

15798

#HDR
-1
-1
#GR
CM-1
%T
2.38419e-05
0.0
5000
-1.000000
4631
8
103.776
43.2876
#DATA
5000	64.4344
4984	64.2968
4968	63.6582
4952	64.8317
4936	64.4299
4920	64.1968
4904	64.5244
4888	63.9405
4872	64.4526
4856	64.1683
4840	64.2212
4824	64.5071
4808	64.2022
4792	64.5207
4776	64.2544
4760	64.3396
4744	64.4968
4728	64.3807
4712	64.3286
4696	64.5546
4680	64.2007
4664	64.4499
4648	64.4471
4632	64.1829
4616	64.5842
4600	64.4006
4584	64.199
4568	64.2262
4552	64.1915
4536	63.6228
4520	64.2821
4504	63.9105
4488	64.2559
4472	63.7311
4456	64.1862
4440	63.8758
4424	63.6693
4408	63.8378
4392	64.7608
4376	63.53
4360	68.8425
4344	64.4526
4328	63.5309
4312	64.2944
4296	64.0736
4280	64.1554
4264	63.9051
4248	64.029
4232	64.3119
4216	64.1924
4200	64.2403
4184	63.9041
4168	64.1406
4152	64.1048
4136	64.1315
4120	64.0211
4104	63.7831
4088	64.1182
4072	64.1148
4056	64.3018
4040	64.3291
4024	64.0108
4008	64.0171
3992	64.1106
3976	64.0798
3960	64.1095
3944	63.9712
3928	63.9903
3912	63.8407
3896	64.2127
3880	64.1906
3864	64.0693
3848	63.8725
3832	64.2033
3816	63.9165
3800	63.9005
3784	63.7386
3768	63.8391
3752	64.0058
3736	63.9344
3720	64.202
3704	63.6425
3688	64.0023
3672	63.7501
3656	63.7741
3640	63.7262
3624	63.8356
3608	63.8173
3592	63.7742
3576	63.7694
3560	63.6081
3544	63.4612
3528	63.7899
3512	63.8298
3496	63.6108
3480	63.6618
3464	63.6986
3448	63.713
3432	63.5489
3416	63.4961
3400	63.3589
3384	63.4379
3368	63.5024
3352	63.4356
3336	63.6525
3320	63.4337
3304	63.3318
3288	63.1954
3272	63.4773
3256	63.4496
3240	63.2199
3224	63.1985
3208	63.2024
3192	63.1848
3176	63.1098
3160	63.0701
3144	63.0982
3128	62.7223
3112	63.3462
3096	63.0207
3080	63.0284
3064	62.9617
3048	62.7699
3032	62.9027
3016	62.7407
3000	62.7735
2984	62.7948
2968	62.6926
2952	62.6332
2936	62.5736
2920	62.1845
2904	62.4778
2888	62.4501
2872	62.529
2856	62.4576
2840	62.6232
2824	62.409
2808	62.5835
2792	62.494
2776	62.3343
2760	62.4367
2744	62.3636
2728	62.2938
2712	62.2444
2696	62.3798
2680	62.1056
2664	62.097
2648	62.0604
2632	62.101
2616	61.9701
2600	61.8737
2584	61.8583
2568	61.8804
2552	61.8453
2536	61.7478
2520	61.7773
2504	61.7213
2488	61.6026
2472	61.6395
2456	61.571
2440	61.3925
2424	61.226
2408	61.1682
2392	61.4331
2376	61.2933
2360	61.2531
2344	61.256
2328	61.1331
2312	61.1505
2296	61.0651
2280	61.0622
2264	61.0135
2248	61.044
2232	60.8429
2216	60.7647
2200	60.8556
2184	60.783
2168	60.6279
2152	60.4886
2136	60.5897
2120	60.5937
2104	60.4965
2088	60.6323
2072	60.2896
2056	60.1835
2040	60.2734
2024	60.2323
2008	60.2643
1992	60.2009
1976	60.1569
1960	60.0881
1944	59.9534
1928	60.0188
1912	59.9614
1896	59.8382
1880	59.8253
1864	59.7613
1848	59.8198
1832	59.6875
1816	59.4897
1800	59.5008
1784	59.4374
1768	59.393
1752	59.4451
1736	59.2522
1720	59.2041
1704	59.2458
1688	59.1047
1672	59.067
1656	59.0183
1640	58.8784
1624	58.7355
1608	58.8091
1592	58.7865
1576	58.7179
1560	58.6442
1544	58.5566
1528	58.6192
1512	58.7116
1496	58.5692
1480	58.5764
1464	58.0939
1448	58.4705
1432	58.2956
1416	58.1329
1400	57.9585
1384	58.0751
1368	57.808
1352	57.9371
1336	57.9341
1320	57.8124
1304	57.8584
1288	57.7427
1272	57.6926
1256	57.8177
1240	57.7397
1224	57.6005
1208	57.3953
1192	57.4396
1176	57.4612
1160	57.2846
1144	57.1551
1128	57.3151
1112	57.1279
1096	57.2292
1080	57.3028
1064	56.8592
1048	57.0606
1032	57.0065
1016	56.9954
1000	56.6063
984	 57.0548
968	 56.7439
952	 56.6982
936	 56.5873
920	 56.6953
904	 56.4263
888	 56.4614
872	 56.2954
856	 56.17
840	 55.8821
824	 55.97
808	 55.8854
792	 56.0664
776	 55.7087
760	 55.6416
744	 55.3411
728	 55.4403
712	 55.3643
696	 55.2509
680	 55.0596
664	 54.8293
648	 54.6313
632	 54.7867
616	 54.4147
600	 54.4057
584	 54.0874
568	 53.8506
552	 53.3977
536	 53.5435
520	 53.7129
504	 53.8882
488	 53.3411
472	 53.1493
456	 51.2712
440	 51.1914
424	 50.2339
408	 44.5331
392	 60.5756
376	 103.677
370	 56.5584