File: Bakgrunnsmateriale/MATLAB/FTIR/ftir_data/subBb/Mapping_121/C-4040-8_t15_cm-1.asc
PE IR       SPECTRUM    SPECTRUM    ASCII       PEDS        1.60
  -1
C-1AEE~1.ASC
17/03/27
15:40:46.00
17/03/27
15:40:46.00
tln
$C-4040-8_t0015$<tbV0>[5.2,-10.4,8.0,0.0,27,1,0]
370
64

2002,4.07
MIRTGS : RIGHTBACK : INTERNAL 2
MIR : ON : INTERNAL 2
OPTKBR

0.200000
8
8.000000
FILLER
RATIO
SPECTRUM
UNLOCKED 256

DOUBLE
64
COMBINED
1
0
0

1.000000
RATIO

1
0
TRUE
51149
0
LEFT NOT FITTED RIGHT NOT FITTED 0
NONE
NONE
15600
12
4.427000
51148
TRUE
1 0 8 72 0 0 0 0

15798

#HDR
-1
-1
#GR
CM-1
%T
2.38419e-05
0.0
5000
-1.000000
4631
8
79.1623
0.604295
#DATA
5000	63.2925
4984	63.9683
4968	63.3405
4952	63.1285
4936	63.0406
4920	63.0498
4904	64.1953
4888	63.6007
4872	63.6395
4856	63.5294
4840	63.6924
4824	63.2486
4808	63.1354
4792	63.7989
4776	63.2822
4760	63.5199
4744	63.6444
4728	63.2033
4712	63.6021
4696	63.7684
4680	63.0936
4664	63.2702
4648	63.2079
4632	63.3577
4616	63.6036
4600	63.3325
4584	63.2691
4568	62.8829
4552	63.1836
4536	62.7831
4520	62.6807
4504	62.7737
4488	62.3072
4472	62.9254
4456	64.2911
4440	65.6772
4424	61.0958
4408	61.1621
4392	65.5431
4376	64.6789
4360	62.7501
4344	62.3283
4328	61.9948
4312	62.3956
4296	62.4596
4280	62.3084
4264	62.7314
4248	62.5596
4232	62.4235
4216	62.9366
4200	62.6585
4184	62.573
4168	62.3592
4152	62.5696
4136	62.6743
4120	62.4323
4104	62.543
4088	62.8228
4072	62.6086
4056	62.9249
4040	62.6487
4024	62.7329
4008	62.7949
3992	62.5995
3976	61.9489
3960	62.4678
3944	62.4817
3928	62.2207
3912	62.2323
3896	62.2303
3880	61.9549
3864	62.0942
3848	62.2445
3832	62.1424
3816	62.0202
3800	62.0578
3784	61.6616
3768	61.8294
3752	62.3022
3736	62.0346
3720	61.8797
3704	61.6152
3688	61.8684
3672	61.8412
3656	61.6998
3640	61.2836
3624	61.3039
3608	61.159
3592	61.4144
3576	61.216
3560	61.1134
3544	61.0532
3528	60.9294
3512	60.6533
3496	60.4827
3480	60.8405
3464	60.4095
3448	60.576
3432	60.3811
3416	60.262
3400	59.9872
3384	60.1721
3368	60.0921
3352	59.993
3336	60.069
3320	59.8301
3304	59.8198
3288	59.738
3272	59.6053
3256	59.287
3240	59.3029
3224	59.2484
3208	59.3412
3192	58.9842
3176	58.963
3160	59.0523
3144	58.8061
3128	58.6614
3112	58.8554
3096	58.4224
3080	58.5065
3064	58.4639
3048	58.1894
3032	58.1125
3016	58.1893
3000	57.8676
2984	57.8758
2968	57.5433
2952	57.364
2936	57.3049
2920	57.1541
2904	57.0789
2888	57.1278
2872	56.9482
2856	56.8882
2840	56.8142
2824	56.607
2808	56.5079
2792	56.4252
2776	56.2775
2760	56.141
2744	56.1213
2728	55.9157
2712	55.7612
2696	55.8361
2680	55.5159
2664	55.4317
2648	55.1634
2632	55.1826
2616	54.9046
2600	54.8359
2584	54.6301
2568	54.5117
2552	54.4083
2536	54.2203
2520	54.1574
2504	53.903
2488	53.757
2472	53.6652
2456	53.4556
2440	53.4553
2424	53.2486
2408	53.0861
2392	52.9415
2376	52.8925
2360	52.7133
2344	52.5316
2328	52.213
2312	52.0814
2296	51.8693
2280	51.802
2264	51.6551
2248	51.4314
2232	51.2509
2216	51.2046
2200	51.0419
2184	50.7349
2168	50.5519
2152	50.4429
2136	50.3721
2120	50.1526
2104	49.9898
2088	49.7766
2072	49.5886
2056	49.4138
2040	49.2873
2024	49.1024
2008	48.9626
1992	48.8229
1976	48.5135
1960	48.3623
1944	48.2191
1928	48.0766
1912	47.855
1896	47.6384
1880	47.4289
1864	47.3665
1848	47.1971
1832	47.0043
1816	46.8072
1800	46.6321
1784	46.4954
1768	46.3229
1752	46.0647
1736	46.0117
1720	45.6447
1704	45.6321
1688	45.4551
1672	45.3265
1656	45.2503
1640	44.7931
1624	44.5264
1608	44.3938
1592	44.189
1576	44.0133
1560	44.0871
1544	43.8317
1528	43.5345
1512	43.4931
1496	42.9434
1480	42.8273
1464	42.8453
1448	42.4707
1432	42.384
1416	42.0726
1400	41.9722
1384	41.6651
1368	41.576
1352	41.2925
1336	41.2739
1320	41.0415
1304	40.6594
1288	40.5573
1272	40.242
1256	40.1445
1240	39.9148
1224	39.7104
1208	39.4653
1192	39.4516
1176	39.157
1160	38.868
1144	38.8026
1128	38.4269
1112	38.4343
1096	37.9185
1080	37.9825
1064	37.7507
1048	37.6174
1032	37.2705
1016	37.1772
1000	36.768
984	 36.828
968	 36.1277
952	 36.2344
936	 35.8463
920	 35.7177
904	 34.3625
888	 35.0311
872	 34.7017
856	 34.6426
840	 34.1706
824	 33.8011
808	 33.2657
792	 33.5452
776	 33.0403
760	 32.7344
744	 32.2601
728	 31.6617
712	 31.4416
696	 31.6612
680	 30.7991
664	 30.8238
648	 30.2743
632	 29.6797
616	 28.9345
600	 28.8276
584	 28.5612
568	 27.7436
552	 26.9845
536	 26.7821
520	 25.6973
504	 24.6453
488	 24.3904
472	 24.1788
456	 21.845
440	 20.2056
424	 22.5003
408	 24.5395
392	 6.673121
376	 44.1239
370	 0.604295