File: Bakgrunnsmateriale/MATLAB/FTIR/ftir_data/subBb/Mapping_121/C-4040-8_t101.asc
PE IR       SPECTRUM    SPECTRUM    ASCII       PEDS        1.60
  -1
C-80C6~1.ASC
17/03/27
22:47:24.00
17/03/27
22:47:50.00
tln
$C-4040-8_t0101$<tbV0>[10.4,10.4,8.0,0.0,27,1,0]
27.028
64

2002,4.07
MIRTGS : RIGHTBACK : INTERNAL 2
MIR : ON : INTERNAL 2
OPTKBR

0.200000
8
8.000000
FILLER
RATIO
SPECTRUM
UNLOCKED 256

DOUBLE
64
COMBINED
1
0
0

0.002000
RATIO

1
0
TRUE
51149
0
LEFT NOT FITTED RIGHT NOT FITTED 0
NONE
NONE
15600
12
4.427000
51148
TRUE
1 0 8 72 0 0 0 0

15798

#HDR
-1
-1
#GR
µM
%T
2.38419e-05
0.0
2.000000
0.002000
12515
8
200
41.6779
#DATA
2.000000	 65.4205
2.084000	 65.4382
2.168000	 64.9114
2.252000	 63.7266
2.336000	 64.0589
2.420000	 65.0922
2.504000	 65.1022
2.588000	 65.287
2.672000	 65.266
2.756000	 65.1696
2.840000	 65.1904
2.924000	 65.0173
3.008000	 65.1303
3.092000	 65.0358
3.176000	 65.2084
3.260000	 65.1813
3.344000	 65.3794
3.428000	 64.7645
3.512000	 64.7831
3.596000	 65.2782
3.680000	 65.0847
3.764000	 65.2536
3.848000	 65.2118
3.932000	 65.1029
4.016000	 65.4335
4.100000	 65.0341
4.184000	 65.2677
4.268000	 65.1773
4.352000	 65.2075
4.436000	 65.3392
4.520000	 65.0964
4.604000	 65.2021
4.688000	 65.3204
4.772000	 65.2107
4.856000	 65.1765
4.940000	 65.2599
5.024000	 65.1691
5.108000	 65.2802
5.192000	 65.2644
5.276000	 65.1713
5.359999	 65.2335
5.444000	 65.3627
5.528000	 65.2108
5.612000	 65.1511
5.696000	 65.0549
5.780000	 64.7376
5.864000	 65.2742
5.948000	 65.0776
6.032000	 65.1162
6.116000	 65.1285
6.200000	 65.158
6.284000	 65.0166
6.368000	 64.9242
6.452000	 65.1011
6.536000	 64.9743
6.620000	 64.8945
6.704000	 65.0853
6.788000	 65.1072
6.872000	 64.9431
6.956000	 64.9783
7.040000	 65.0429
7.124000	 65.1905
7.208000	 65.0814
7.292000	 64.9741
7.376000	 65.048
7.460000	 64.9584
7.544000	 64.9825
7.628000	 64.7385
7.712000	 65.0463
7.796000	 64.9734
7.880000	 64.9118
7.964000	 64.9583
8.048000	 65.0131
8.132000	 64.8636
8.216000	 64.9444
8.300000	 64.9555
8.384000	 64.913
8.468000	 64.8378
8.552000	 64.8365
8.635999	 64.8465
8.719999	 64.7607
8.804000	 64.6513
8.888000	 64.7864
8.972000	 64.9179
9.056000	 64.7219
9.140000	 64.7035
9.224000	 64.5637
9.308000	 64.821
9.391999	 64.7282
9.475999	 64.6348
9.560000	 64.7645
9.644000	 64.7103
9.728000	 64.6198
9.812000	 65.0207
9.896000	 64.6112
9.980000	 64.6253
10.064	64.7483
10.148	64.8925
10.232	64.5513
10.316	64.5583
10.4	64.7437
10.484	64.6588
10.568	64.5801
10.652	64.5137
10.736	64.9207
10.82	65.0277
10.904	65.0658
10.988	64.9835
11.072	64.2936
11.156	63.9664
11.24	64.4445
11.324	64.5352
11.408	64.1355
11.492	64.4828
11.576	64.682
11.66	64.7132
11.744	64.6935
11.828	64.5169
11.912	64.3704
11.996	64.2639
12.08	64.3449
12.164	64.2934
12.248	64.0723
12.332	64.2553
12.416	64.2976
12.5	64.1517
12.584	64.2301
12.668	64.0829
12.752	63.7812
12.836	63.7932
12.92	64.0292
13.004	64.1266
13.088	63.9611
13.172	63.9585
13.256	64.0946
13.34	64.1026
13.424	64.281
13.508	64.0186
13.592	63.1241
13.676	63.0788
13.76	63.7898
13.844	64.1264
13.928	63.8253
14.012	63.4229
14.096	63.4185
14.18	63.4844
14.264	63.4543
14.348	63.2458
14.432	63.058
14.516	63.3154
14.6	63.5941
14.684	63.4851
14.768	63.2854
14.852	63.2099
14.936	63.197
15.02	63.1474
15.104	62.9397
15.188	62.6962
15.272	62.7324
15.356	62.9696
15.44	63.083
15.524	63.0268
15.608	63.0118
15.692	63.151
15.776	63.2976
15.86	63.3432
15.944	63.331
16.028	63.2555
16.112	63.0858
16.196	62.8687
16.28	62.6849
16.364	62.6179
16.448	62.7154
16.532	62.9441
16.616	63.1536
16.7	63.1404
16.784	62.8773
16.868	62.5803
16.952	62.42
17.036	62.348
17.12	62.2647
17.204	62.1597
17.288	62.0937
17.372	62.1431
17.456	62.3459
17.54	62.6506
17.624	62.9095
17.708	62.9551
17.792	62.7581
17.876	62.5252
17.96	62.4956
18.044	62.6574
18.128	62.7894
18.212	62.734
18.296	62.5265
18.38	62.313
18.464	62.2152
18.548	62.2421
18.632	62.2755
18.716	62.1816
18.8	61.9382
18.884	61.6249
18.968	61.3217
19.052	61.0764
19.136	60.9313
19.22	60.9142
19.304	61.0022
19.388	61.141
19.472	61.308
19.556	61.51
19.64	61.7074
19.724	61.7845
19.808	61.6518
19.892	61.3654
19.976	61.1197
20.06	61.0937
20.144	61.3094
20.228	61.6368
20.312	61.9144
20.396	62.0533
20.48	62.0541
20.564	61.9653
20.648	61.8424
20.732	61.7376
20.816	61.6952
20.9	61.724
20.984	61.7795
21.068	61.7802
21.152	61.6594
21.236	61.4007
21.32	61.0331
21.404	60.5935
21.488	60.1349
21.572	59.7365
21.656	59.4992
21.74	59.5038
21.824	59.7461
21.908	60.1118
21.992	60.4274
22.076	60.5425
22.16	60.4156
22.244	60.1435
22.328	59.8713
22.412	59.6769
22.496	59.5001
22.58	59.1845
22.664	58.5908
22.748	57.7233
22.832	56.7609
22.916	55.9839
23	55.6804
23.084	55.9989
23.168	56.9003
23.252	58.1722
23.336	59.4748
23.42	60.4833
23.504	60.9543
23.588	60.823
23.672	60.2167
23.756	59.4218
23.84	58.7289
23.924	58.3926
24.008	58.5095
24.092	58.9415
24.176	59.3904
24.26	59.5269
24.344	59.0613
24.428	57.8588
24.512	55.9579
24.596	53.6151
24.68	51.165
24.764	48.8488
24.848	46.9415
24.932	45.4994
25.016	44.3332
25.1	43.2571
25.184	42.2732
25.268	41.7017
25.352	42.11
25.436	44.1294
25.52	48.121
25.604	53.9631
25.688	60.9694
25.772	67.7751
25.856	72.6679
25.94	74.3137
26.024	72.2985
26.108	67.4978
26.192	61.546
26.276	56.5751
26.36	54.4503
26.444	57.3891
26.528	67.3597
26.612	85.8287
26.696	112.054
26.78	142.419
26.864	170.928
26.948	191.753
27.028	200