File: Bakgrunnsmateriale/MATLAB/FTIR/ftir_data/subBb/Mapping_121/C-4040-8_t09_cm-1.asc
PE IR       SPECTRUM    SPECTRUM    ASCII       PEDS        1.60
  -1
C-99E0~1.ASC
17/03/27
15:12:29.00
17/03/27
15:12:29.00
tln
$C-4040-8_t0009$<tbV0>[-7.8,-13.0,8.0,0.0,27,1,0]
370
64

2002,4.07
MIRTGS : RIGHTBACK : INTERNAL 2
MIR : ON : INTERNAL 2
OPTKBR

0.200000
8
8.000000
FILLER
RATIO
SPECTRUM
UNLOCKED 256

DOUBLE
64
COMBINED
1
0
0

1.000000
RATIO

1
0
TRUE
51149
0
LEFT NOT FITTED RIGHT NOT FITTED 0
NONE
NONE
15600
12
4.427000
51148
TRUE
1 0 8 72 0 0 0 0

15798

#HDR
-1
-1
#GR
CM-1
%T
2.38419e-05
0.0
5000
-1.000000
4631
8
80.5619
22.2258
#DATA
5000	63.9547
4984	64.2576
4968	64.1328
4952	63.7763
4936	63.3391
4920	63.9989
4904	65.1384
4888	64.3805
4872	64.4553
4856	64.1956
4840	64.5982
4824	64.0626
4808	64.3568
4792	63.9846
4776	64.5563
4760	64.2984
4744	64.4958
4728	64.2308
4712	64.6108
4696	64.2522
4680	64.8204
4664	64.1887
4648	64.4591
4632	64.4419
4616	64.3677
4600	64.184
4584	63.8531
4568	63.7178
4552	63.9243
4536	63.5962
4520	63.6486
4504	64.2047
4488	63.2982
4472	63.6974
4456	65.2253
4440	66.8472
4424	62.2266
4408	62.5638
4392	69.1966
4376	68.1637
4360	64.3758
4344	64.2142
4328	63.8082
4312	63.2607
4296	63.3851
4280	63.8421
4264	63.7663
4248	63.7896
4232	63.9964
4216	63.7655
4200	63.9772
4184	63.5065
4168	63.2219
4152	64.33
4136	63.8478
4120	64.1798
4104	63.9582
4088	64.084
4072	64.1399
4056	64.4902
4040	64.3179
4024	64.2482
4008	64.2729
3992	64.1438
3976	63.7038
3960	64.2547
3944	64.1458
3928	63.9403
3912	63.8581
3896	64.1351
3880	64.0458
3864	63.9816
3848	64.2916
3832	63.641
3816	63.7137
3800	64.148
3784	63.61
3768	63.9732
3752	64.0016
3736	64.0603
3720	63.9941
3704	63.5798
3688	63.8689
3672	64.1797
3656	63.712
3640	63.5758
3624	63.7444
3608	63.6684
3592	63.592
3576	63.5509
3560	63.6622
3544	63.2222
3528	63.4083
3512	63.1105
3496	63.4225
3480	63.1882
3464	63.5112
3448	63.1791
3432	63.2252
3416	63.0942
3400	62.9652
3384	63.0512
3368	63.0898
3352	62.8687
3336	63.0094
3320	62.9565
3304	62.8677
3288	62.7135
3272	62.7763
3256	62.7198
3240	62.7887
3224	62.6011
3208	62.7578
3192	62.3577
3176	62.5494
3160	62.4758
3144	62.3111
3128	62.362
3112	62.3556
3096	62.3968
3080	62.2871
3064	62.3062
3048	62.2549
3032	62.135
3016	62.0079
3000	62.0888
2984	61.8772
2968	61.8065
2952	61.5804
2936	61.6884
2920	61.3909
2904	61.51
2888	61.4334
2872	61.4235
2856	61.4781
2840	61.4946
2824	61.4476
2808	61.3283
2792	61.1722
2776	61.1891
2760	61.0928
2744	61.1619
2728	60.9881
2712	60.9278
2696	60.8972
2680	60.874
2664	60.7608
2648	60.6213
2632	60.5877
2616	60.5039
2600	60.407
2584	60.4481
2568	60.2661
2552	60.2708
2536	60.162
2520	60.2434
2504	60.1672
2488	59.8332
2472	59.8948
2456	59.7936
2440	59.99
2424	59.4723
2408	59.4347
2392	59.5805
2376	59.3981
2360	59.4583
2344	59.2496
2328	59.2077
2312	58.9816
2296	58.9849
2280	58.9757
2264	58.94
2248	58.796
2232	58.6426
2216	58.4683
2200	58.434
2184	58.3657
2168	58.3517
2152	58.1993
2136	58.276
2120	58.1005
2104	58.007
2088	57.9777
2072	57.9343
2056	57.5563
2040	57.6949
2024	57.4844
2008	57.5197
1992	57.3932
1976	57.1913
1960	57.1404
1944	57.0477
1928	56.8969
1912	56.8193
1896	56.7865
1880	56.6316
1864	56.3943
1848	56.4888
1832	56.3129
1816	56.2889
1800	56.151
1784	56.1385
1768	55.9791
1752	55.9141
1736	55.71
1720	55.7536
1704	55.701
1688	55.7015
1672	55.433
1656	55.5664
1640	55.117
1624	55.0547
1608	54.9468
1592	54.6176
1576	54.7
1560	54.8852
1544	54.67
1528	54.459
1512	54.4642
1496	54.3336
1480	54.0312
1464	53.8934
1448	53.9777
1432	53.7172
1416	53.6248
1400	53.3754
1384	53.3029
1368	53.0795
1352	53.0958
1336	52.8941
1320	52.9308
1304	52.6175
1288	52.6352
1272	52.3342
1256	52.4464
1240	52.1806
1224	52.2101
1208	51.9067
1192	51.9078
1176	51.8317
1160	51.6994
1144	51.603
1128	51.3404
1112	51.3746
1096	51.2498
1080	50.8062
1064	50.8364
1048	51.0164
1032	50.7243
1016	50.6917
1000	50.5459
984	 50.2858
968	 50.1552
952	 50.0992
936	 49.7077
920	 49.3515
904	 49.6834
888	 50.1898
872	 49.0351
856	 49.0046
840	 49.0702
824	 48.5012
808	 48.3994
792	 48.4251
776	 48.0728
760	 47.8761
744	 47.9516
728	 47.394
712	 47.3663
696	 46.5145
680	 46.4663
664	 46.4706
648	 46.1353
632	 45.9374
616	 45.5768
600	 45.0594
584	 44.6785
568	 44.2617
552	 44.0062
536	 42.9591
520	 42.0537
504	 43.0554
488	 41.8567
472	 41.7456
456	 40.7135
440	 40.7247
424	 38.1174
408	 37.4428
392	 39.1583
376	 22.7954
370	 37.3578