File: Bakgrunnsmateriale/MATLAB/FTIR/ftir_data/subBb/Mapping_121/C-4040-8_t62_cm-1.asc
PE IR       SPECTRUM    SPECTRUM    ASCII       PEDS        1.60
  -1
C-9C64~1.ASC
17/03/27
19:32:59.00
17/03/27
19:32:59.00
tln
$C-4040-8_t0062$<tbV0>[-2.6,0.0,8.0,0.0,27,1,0]
370
64

2002,4.07
MIRTGS : RIGHTBACK : INTERNAL 2
MIR : ON : INTERNAL 2
OPTKBR

0.200000
8
8.000000
FILLER
RATIO
SPECTRUM
UNLOCKED 256

DOUBLE
64
COMBINED
1
0
0

1.000000
RATIO

1
0
TRUE
51149
0
LEFT NOT FITTED RIGHT NOT FITTED 0
NONE
NONE
15600
12
4.427000
51148
TRUE
1 0 8 72 0 0 0 0

15798

#HDR
-1
-1
#GR
CM-1
%T
2.38419e-05
0.0
5000
-1.000000
4631
8
103.177
41.5972
#DATA
5000	64.9519
4984	65.0908
4968	64.8573
4952	65.1197
4936	65.3976
4920	65.1801
4904	65.2623
4888	64.8165
4872	65.0561
4856	65.0651
4840	64.9164
4824	65.2167
4808	64.9044
4792	64.6714
4776	64.5868
4760	64.3315
4744	64.4019
4728	64.155
4712	64.4017
4696	64.8726
4680	64.3601
4664	64.4057
4648	64.2605
4632	65.0322
4616	64.4613
4600	64.5064
4584	64.7034
4568	64.8519
4552	64.6573
4536	64.9761
4520	65.4264
4504	65.6406
4488	65.4006
4472	65.9485
4456	66.4484
4440	66.0351
4424	66.4508
4408	66.6603
4392	65.9176
4376	62.5713
4360	45.001
4344	66.1708
4328	66.1452
4312	65.7907
4296	66.4608
4280	66.3319
4264	66.0483
4248	65.7851
4232	65.7349
4216	65.7119
4200	65.0705
4184	65.2198
4168	65.2519
4152	65.1085
4136	65.1742
4120	64.9532
4104	64.9185
4088	64.7444
4072	65.0148
4056	64.8037
4040	64.6912
4024	64.692
4008	64.9188
3992	65.1037
3976	64.6855
3960	64.9947
3944	65.0154
3928	65.0169
3912	65.0156
3896	65.2816
3880	65.31
3864	65.4495
3848	65.3718
3832	65.0695
3816	64.9852
3800	65.1566
3784	65.5525
3768	65.2785
3752	65.0888
3736	65.1525
3720	65.0523
3704	65.092
3688	65.2117
3672	65.1798
3656	65.323
3640	65.0597
3624	65.0445
3608	64.7318
3592	64.935
3576	65.0869
3560	64.909
3544	64.8988
3528	65.1941
3512	64.9176
3496	64.9504
3480	65.0005
3464	65.1808
3448	65.0195
3432	65.2031
3416	65.0884
3400	65.191
3384	65.2187
3368	65.2138
3352	65.0604
3336	65.3017
3320	65.3441
3304	64.9448
3288	65.3083
3272	65.2544
3256	65.2544
3240	65.0017
3224	65.1206
3208	65.0996
3192	65.1053
3176	65.2022
3160	65.0014
3144	65.0442
3128	65.3141
3112	65.2323
3096	65.1548
3080	65.0985
3064	65.1971
3048	65.0148
3032	65.1634
3016	65.0061
3000	65.1715
2984	65.2036
2968	65.2644
2952	65.0673
2936	64.9273
2920	64.834
2904	64.9482
2888	65.0467
2872	65.1917
2856	64.9226
2840	65.168
2824	65.0532
2808	65.2159
2792	65.1025
2776	65.2024
2760	65.1128
2744	65.1235
2728	65.1892
2712	65.0292
2696	65.0971
2680	65.1422
2664	65.1891
2648	65.2239
2632	65.1691
2616	65.2616
2600	65.1131
2584	65.1519
2568	65.095
2552	65.2991
2536	65.1798
2520	65.1174
2504	65.0728
2488	65.2702
2472	65.1978
2456	65.2041
2440	65.0584
2424	65.5504
2408	65.5427
2392	65.216
2376	65.1625
2360	65.2479
2344	65.1029
2328	65.1272
2312	64.953
2296	65.2598
2280	65.0763
2264	65.2433
2248	65.4272
2232	65.3185
2216	65.2379
2200	65.0591
2184	65.103
2168	65.1293
2152	65.1173
2136	65.3359
2120	65.0742
2104	65.3458
2088	65.1179
2072	64.9593
2056	65.1955
2040	65.1827
2024	65.308
2008	65.2958
1992	65.1958
1976	65.2704
1960	65.1969
1944	65.1966
1928	65.2848
1912	65.2691
1896	65.1546
1880	65.168
1864	65.192
1848	65.165
1832	65.2356
1816	65.2283
1800	65.1512
1784	64.979
1768	65.1048
1752	65.054
1736	64.8978
1720	64.9529
1704	65.1522
1688	65.0333
1672	65.0702
1656	65.1173
1640	64.9418
1624	65.123
1608	65.0364
1592	64.9316
1576	65.0447
1560	64.8625
1544	64.9784
1528	64.9571
1512	65.1249
1496	64.9436
1480	65.0999
1464	64.9615
1448	64.8448
1432	65.0293
1416	65.1474
1400	65.0143
1384	65.0881
1368	64.9035
1352	64.8338
1336	64.8232
1320	64.933
1304	64.9899
1288	64.8453
1272	64.8207
1256	65.0232
1240	64.9811
1224	64.8859
1208	64.8315
1192	64.7781
1176	64.8497
1160	64.867
1144	64.9327
1128	64.7715
1112	64.6181
1096	64.4717
1080	64.7297
1064	64.9563
1048	64.0982
1032	64.3804
1016	64.7261
1000	65.3883
984	 64.4346
968	 64.4249
952	 64.6429
936	 64.2463
920	 64.639
904	 64.5597
888	 64.3586
872	 64.1027
856	 64.3868
840	 63.9509
824	 64.201
808	 64.5275
792	 64.1029
776	 63.8122
760	 63.9067
744	 63.9696
728	 63.2735
712	 63.5194
696	 63.8465
680	 63.2315
664	 62.7663
648	 62.8184
632	 62.0014
616	 63.031
600	 61.7353
584	 62.385
568	 61.9839
552	 62.7667
536	 61.7089
520	 61.5381
504	 61.0667
488	 61.2377
472	 59.495
456	 57.9467
440	 59.0785
424	 56.1697
408	 59.1111
392	 103.177
376	 86.6412
370	 67.2722