File: Bakgrunnsmateriale/MATLAB/FTIR/ftir_data/subBb/Mapping_121/C-4040-8_t25.asc
PE IR       SPECTRUM    SPECTRUM    ASCII       PEDS        1.60
  -1
C-BD2E~1.ASC
17/03/27
16:34:03.00
17/03/27
16:34:29.00
tln
$C-4040-8_t0025$<tbV0>[7.8,-7.8,8.0,0.0,27,1,0]
27.028
64

2002,4.07
MIRTGS : RIGHTBACK : INTERNAL 2
MIR : ON : INTERNAL 2
OPTKBR

0.200000
8
8.000000
FILLER
RATIO
SPECTRUM
UNLOCKED 256

DOUBLE
64
COMBINED
1
0
0

0.002000
RATIO

1
0
TRUE
51149
0
LEFT NOT FITTED RIGHT NOT FITTED 0
NONE
NONE
15600
12
4.427000
51148
TRUE
1 0 8 72 0 0 0 0

15798

#HDR
-1
-1
#GR
µM
%T
2.38419e-05
0.0
2.000000
0.002000
12515
8
71.6589
2.845668
#DATA
2.000000	 62.5867
2.084000	 62.4927
2.168000	 62.0037
2.252000	 62.605
2.336000	 61.8306
2.420000	 61.1354
2.504000	 60.5152
2.588000	 60.1937
2.672000	 59.5385
2.756000	 58.8667
2.840000	 58.1729
2.924000	 57.394
3.008000	 56.7775
3.092000	 56.1382
3.176000	 55.3255
3.260000	 54.5232
3.344000	 53.8077
3.428000	 52.8433
3.512000	 52.2947
3.596000	 51.6222
3.680000	 50.9346
3.764000	 50.1832
3.848000	 49.4646
3.932000	 48.9064
4.016000	 48.1184
4.100000	 47.4061
4.184000	 46.8707
4.268000	 46.2609
4.352000	 45.567
4.436000	 45.1132
4.520000	 44.5822
4.604000	 43.8465
4.688000	 43.4062
4.772000	 42.9668
4.856000	 42.539
4.940000	 42.0301
5.024000	 41.6241
5.108000	 40.9518
5.192000	 40.6149
5.276000	 40.056
5.359999	 39.8067
5.444000	 39.3445
5.528000	 38.932
5.612000	 38.5716
5.696000	 38.1832
5.780000	 37.7171
5.864000	 37.3556
5.948000	 37.1067
6.032000	 36.8951
6.116000	 36.6265
6.200000	 36.2508
6.284000	 35.9327
6.368000	 35.6628
6.452000	 35.3847
6.536000	 35.0539
6.620000	 34.8403
6.704000	 34.5694
6.788000	 34.2609
6.872000	 34.0906
6.956000	 33.8375
7.040000	 33.5379
7.124000	 33.3469
7.208000	 33.1808
7.292000	 32.8566
7.376000	 32.673
7.460000	 32.5457
7.544000	 32.2994
7.628000	 32.1236
7.712000	 31.8992
7.796000	 31.6713
7.880000	 31.5938
7.964000	 31.6072
8.048000	 31.2049
8.132000	 31.0458
8.216000	 30.9109
8.300000	 30.6636
8.384000	 30.5591
8.468000	 30.4252
8.552000	 30.3154
8.635999	 30.113
8.719999	 30.0046
8.804000	 29.9552
8.888000	 29.7429
8.972000	 29.3474
9.056000	 29.1629
9.140000	 29.2014
9.224000	 29.0693
9.308000	 28.8247
9.391999	 28.7228
9.475999	 28.4136
9.560000	 28.6314
9.644000	 28.3787
9.728000	 28.4234
9.812000	 28.4025
9.896000	 27.6603
9.980000	 27.9657
10.064	27.9167
10.148	27.9206
10.232	27.8903
10.316	27.5945
10.4	27.3195
10.484	27.1321
10.568	27.6945
10.652	27.08
10.736	26.8609
10.82	26.6703
10.904	26.464
10.988	26.2559
11.072	26.0497
11.156	26.1655
11.24	26.1453
11.324	26.076
11.408	26.1
11.492	25.861
11.576	25.7336
11.66	25.6287
11.744	25.3855
11.828	25.1925
11.912	24.9401
11.996	24.9858
12.08	24.7973
12.164	24.7001
12.248	24.5084
12.332	24.3583
12.416	24.4036
12.5	24.2525
12.584	24.1992
12.668	24.1438
12.752	24.1672
12.836	23.99
12.92	23.7386
13.004	23.6613
13.088	23.6839
13.172	23.5291
13.256	23.3372
13.34	23.2983
13.424	23.1842
13.508	23.0583
13.592	22.9256
13.676	22.9725
13.76	23.034
13.844	23.0668
13.928	22.9747
14.012	22.5903
14.096	22.372
14.18	22.3114
14.264	22.2643
14.348	22.2585
14.432	22.1679
14.516	22.0769
14.6	21.9838
14.684	21.7736
14.768	21.5025
14.852	21.3291
14.936	21.3056
15.02	21.3433
15.104	21.3255
15.188	21.1508
15.272	20.8321
15.356	20.5328
15.44	20.4424
15.524	20.5274
15.608	20.5733
15.692	20.5566
15.776	20.5952
15.86	20.6254
15.944	20.4716
16.028	20.1279
16.112	19.7738
16.196	19.5805
16.28	19.5385
16.364	19.4867
16.448	19.3551
16.532	19.2607
16.616	19.2558
16.7	19.2373
16.784	19.2082
16.868	19.2688
16.952	19.3318
17.036	19.2267
17.12	19.01
17.204	18.8259
17.288	18.6271
17.372	18.332
17.456	18.0428
17.54	17.8824
17.624	17.8193
17.708	17.7744
17.792	17.723
17.876	17.6361
17.96	17.4842
18.044	17.3186
18.128	17.2464
18.212	17.3292
18.296	17.5333
18.38	17.7244
18.464	17.74
18.548	17.5282
18.632	17.2059
18.716	16.9393
18.8	16.7871
18.884	16.6982
18.968	16.6214
19.052	16.5565
19.136	16.5328
19.22	16.5687
19.304	16.6409
19.388	16.6894
19.472	16.6564
19.556	16.528
19.64	16.3465
19.724	16.1848
19.808	16.0999
19.892	16.0957
19.976	16.1148
20.06	16.0721
20.144	15.9295
20.228	15.7339
20.312	15.5632
20.396	15.4401
20.48	15.3188
20.564	15.1476
20.648	14.9342
20.732	14.7313
20.816	14.5752
20.9	14.4538
20.984	14.3446
21.068	14.2605
21.152	14.2489
21.236	14.3433
21.32	14.5324
21.404	14.7629
21.488	14.9625
21.572	15.0677
21.656	15.038
21.74	14.87
21.824	14.6013
21.908	14.3031
21.992	14.0493
22.076	13.877
22.16	13.77
22.244	13.6637
22.328	13.4936
22.412	13.2259
22.496	12.8898
22.58	12.5657
22.664	12.3476
22.748	12.2988
22.832	12.4131
22.916	12.6155
23	12.8241
23.084	12.977
23.168	13.0714
23.252	13.159
23.336	13.292
23.42	13.4777
23.504	13.6841
23.588	13.8644
23.672	14.01
23.756	14.1871
23.84	14.4439
23.924	14.8287
24.008	15.339
24.092	15.878
24.176	16.2954
24.26	16.4242
24.344	16.0839
24.428	15.1369
24.512	13.5303
24.596	11.3354
24.68	8.799766
24.764	6.339991
24.848	4.368579
24.932	3.222612
25.016	3.044998
25.1	3.737161
25.184	5.197439
25.268	7.442807
25.352	10.5944
25.436	14.8409
25.52	20.2125
25.604	26.4162
25.688	32.7054
25.772	38.0599
25.856	41.5513
25.94	42.5689
26.024	40.9968
26.108	37.2942
26.192	32.3268
26.276	27.0861
26.36	22.5641
26.444	19.2332
26.528	16.9643
26.612	15.3736
26.696	13.9036
26.78	12.034
26.864	9.524293
26.948	6.384585
27.028	2.845668