File: Bakgrunnsmateriale/MATLAB/FTIR/ftir_data/subBb/Mapping_121/C-4040-8_t93_cm-1.asc
PE IR       SPECTRUM    SPECTRUM    ASCII       PEDS        1.60
  -1
C-1EE1~1.ASC
17/03/27
22:09:52.00
17/03/27
22:09:52.00
tln
$C-4040-8_t0093$<tbV0>[2.6,7.8,8.0,0.0,27,1,0]
370
64

2002,4.07
MIRTGS : RIGHTBACK : INTERNAL 2
MIR : ON : INTERNAL 2
OPTKBR

0.200000
8
8.000000
FILLER
RATIO
SPECTRUM
UNLOCKED 256

DOUBLE
64
COMBINED
1
0
0

1.000000
RATIO

1
0
TRUE
51149
0
LEFT NOT FITTED RIGHT NOT FITTED 0
NONE
NONE
15600
12
4.427000
51148
TRUE
1 0 8 72 0 0 0 0

15798

#HDR
-1
-1
#GR
CM-1
%T
2.38419e-05
0.0
5000
-1.000000
4631
8
142.756
45.3149
#DATA
5000	65.4424
4984	64.8639
4968	64.5284
4952	65.1191
4936	64.9213
4920	65.2553
4904	64.9592
4888	65.523
4872	64.9848
4856	65.0692
4840	65.3492
4824	65.0541
4808	65.164
4792	65.4409
4776	65.1447
4760	65.0621
4744	65.5016
4728	65.3744
4712	65.4082
4696	65.4864
4680	65.1633
4664	65.1355
4648	65.7702
4632	65.4472
4616	65.417
4600	64.8988
4584	65.5833
4568	64.936
4552	65.1665
4536	64.4393
4520	64.8043
4504	64.7038
4488	65.0559
4472	64.7944
4456	64.5245
4440	63.8226
4424	64.4732
4408	64.2658
4392	65.4992
4376	66.5829
4360	65.6322
4344	64.5097
4328	64.8377
4312	64.9008
4296	64.6826
4280	64.9836
4264	65.1307
4248	64.2774
4232	64.9302
4216	64.7696
4200	64.8859
4184	64.1435
4168	64.4681
4152	64.9663
4136	65.5442
4120	64.9834
4104	65.1511
4088	64.9206
4072	65.0548
4056	65.1895
4040	65.172
4024	65.4824
4008	65.2932
3992	65.3324
3976	65.1307
3960	65.1104
3944	65.0332
3928	64.9763
3912	65.1523
3896	65.1057
3880	64.9108
3864	65.0697
3848	65.0007
3832	65.0582
3816	65.2105
3800	65.0459
3784	65.0657
3768	65.192
3752	65.2954
3736	65.2138
3720	65.156
3704	65.1768
3688	65.2758
3672	65.434
3656	65.1922
3640	65.4126
3624	65.336
3608	65.1286
3592	65.5792
3576	65.3027
3560	65.4883
3544	65.0696
3528	65.1711
3512	65.4245
3496	65.082
3480	64.9767
3464	65.5852
3448	65.0009
3432	65.2953
3416	65.0062
3400	65.1914
3384	65.2997
3368	65.114
3352	65.2418
3336	65.1987
3320	65.1752
3304	65.2348
3288	65.0609
3272	65.3127
3256	65.5128
3240	65.2998
3224	65.2391
3208	65.5334
3192	65.0959
3176	65.3568
3160	65.3
3144	65.2789
3128	65.362
3112	65.2464
3096	65.4042
3080	65.1589
3064	65.184
3048	65.3239
3032	65.3576
3016	65.2505
3000	65.238
2984	65.2535
2968	65.1293
2952	65.1801
2936	65.0762
2920	64.8479
2904	65.3363
2888	65.1318
2872	65.3313
2856	65.142
2840	65.1787
2824	65.2298
2808	65.3289
2792	65.4917
2776	65.3214
2760	65.3411
2744	65.2947
2728	65.3231
2712	65.4905
2696	65.3231
2680	65.3681
2664	65.4748
2648	65.4083
2632	65.4293
2616	65.3076
2600	65.2547
2584	65.3699
2568	65.35
2552	65.3753
2536	65.434
2520	65.4206
2504	65.3193
2488	65.5275
2472	65.5694
2456	65.4339
2440	65.1359
2424	65.2009
2408	65.2537
2392	65.2816
2376	65.3071
2360	65.3813
2344	65.3751
2328	65.2476
2312	65.3764
2296	65.3908
2280	65.4079
2264	65.4021
2248	65.2801
2232	65.2203
2216	65.4109
2200	65.2305
2184	65.3683
2168	65.2332
2152	65.537
2136	65.4988
2120	65.3919
2104	65.3292
2088	65.3235
2072	65.7703
2056	65.3066
2040	65.4029
2024	65.4223
2008	65.3745
1992	65.5386
1976	65.3772
1960	65.4473
1944	65.3925
1928	65.3135
1912	65.2999
1896	65.2007
1880	65.3141
1864	65.3157
1848	65.3543
1832	65.4851
1816	65.4253
1800	65.3192
1784	65.293
1768	65.3678
1752	65.1856
1736	65.1058
1720	65.0858
1704	65.2898
1688	65.2374
1672	65.2742
1656	65.1963
1640	65.3895
1624	65.1881
1608	65.1342
1592	65.2159
1576	65.0496
1560	64.9437
1544	65.0841
1528	65.203
1512	65.1789
1496	65.2255
1480	65.1558
1464	65.1245
1448	65.348
1432	65.1461
1416	65.0796
1400	65.119
1384	65.2369
1368	65.0952
1352	65.2687
1336	65.0857
1320	65.1467
1304	65.0475
1288	65.0907
1272	65.0137
1256	65.0621
1240	65.0735
1224	65.0638
1208	65.1399
1192	65.0705
1176	64.9663
1160	64.9
1144	64.8735
1128	64.8149
1112	64.9338
1096	64.6855
1080	64.6487
1064	64.812
1048	64.719
1032	64.6005
1016	64.5469
1000	64.5338
984	 64.5879
968	 64.8777
952	 64.7816
936	 64.1816
920	 64.9797
904	 64.554
888	 64.2166
872	 64.8564
856	 64.9015
840	 64.5208
824	 64.4452
808	 64.3114
792	 64.2336
776	 63.9983
760	 63.8653
744	 63.6418
728	 64.0491
712	 63.5818
696	 63.4722
680	 63.7265
664	 63.0584
648	 63.0052
632	 62.9999
616	 62.9009
600	 62.7764
584	 62.9362
568	 62.6556
552	 62.4346
536	 61.6695
520	 61.4117
504	 61.9774
488	 61.0575
472	 60.5899
456	 59.7453
440	 60.4498
424	 61.5315
408	 56.9645
392	 45.986
376	 135.791
370	 117.792