File: Bakgrunnsmateriale/MATLAB/FTIR/ftir_data/subBb/Mapping_121/C-4040-8_t22_cm-1.asc
PE IR       SPECTRUM    SPECTRUM    ASCII       PEDS        1.60
  -1
C-9A64~1.ASC
17/03/27
16:13:04.00
17/03/27
16:13:04.00
tln
$C-4040-8_t0022$<tbV0>[-13.0,-10.4,8.0,0.0,27,1,0]
370
64

2002,4.07
MIRTGS : RIGHTBACK : INTERNAL 2
MIR : ON : INTERNAL 2
OPTKBR

0.200000
8
8.000000
FILLER
RATIO
SPECTRUM
UNLOCKED 256

DOUBLE
64
COMBINED
1
0
0

1.000000
RATIO

1
0
TRUE
51149
0
LEFT NOT FITTED RIGHT NOT FITTED 0
NONE
NONE
15600
12
4.427000
51148
TRUE
1 0 8 72 0 0 0 0

15798

#HDR
-1
-1
#GR
CM-1
%T
2.38419e-05
0.0
5000
-1.000000
4631
8
100.757
44.7296
#DATA
5000	64.3334
4984	65.8259
4968	64.7513
4952	64.4849
4936	64.6617
4920	64.5087
4904	65.6918
4888	65.489
4872	64.7717
4856	65.0486
4840	65.7924
4824	64.7726
4808	64.8093
4792	64.832
4776	65.1216
4760	64.5867
4744	65.4101
4728	64.7533
4712	64.8677
4696	64.8281
4680	65.0437
4664	64.7529
4648	64.8142
4632	65.1657
4616	65.3992
4600	65.1213
4584	64.7261
4568	64.8363
4552	64.7305
4536	64.5786
4520	65.5986
4504	65.2553
4488	64.5741
4472	65.4768
4456	67.069
4440	68.5175
4424	63.959
4408	64.5276
4392	62.5267
4376	62.7638
4360	68.2275
4344	65.5824
4328	65.4454
4312	64.7939
4296	64.9544
4280	64.8397
4264	64.5441
4248	65.0391
4232	65.2822
4216	65.2184
4200	65.0442
4184	64.2618
4168	64.7981
4152	64.7897
4136	64.8491
4120	65.218
4104	64.8428
4088	65.1915
4072	65.0424
4056	65.2153
4040	65.2419
4024	65.5432
4008	65.3251
3992	65.218
3976	64.5937
3960	65.3193
3944	65.1542
3928	65.1503
3912	65.246
3896	65.3804
3880	65.1547
3864	65.2896
3848	65.5161
3832	65.2124
3816	65.3111
3800	65.5336
3784	65.195
3768	65.3674
3752	65.7363
3736	65.8241
3720	65.3186
3704	65.4588
3688	65.5025
3672	65.7569
3656	65.3072
3640	65.1903
3624	65.3899
3608	65.2529
3592	65.4354
3576	65.271
3560	65.1716
3544	65.2304
3528	65.3885
3512	65.1216
3496	65.2292
3480	65.4667
3464	65.5202
3448	65.3739
3432	65.2127
3416	65.1655
3400	65.2282
3384	65.3249
3368	65.2147
3352	65.2751
3336	65.2736
3320	65.1652
3304	65.1719
3288	65.2632
3272	65.3166
3256	65.0108
3240	65.2803
3224	65.1946
3208	65.1992
3192	65.0671
3176	65.2553
3160	65.1636
3144	65.2018
3128	65.1432
3112	65.421
3096	65.0827
3080	65.3705
3064	65.3042
3048	65.2746
3032	65.3432
3016	65.366
3000	65.292
2984	65.1795
2968	65.0834
2952	65.0986
2936	65.2332
2920	65.0085
2904	65.0118
2888	65.2522
2872	65.1238
2856	65.1209
2840	65.399
2824	65.2841
2808	65.4657
2792	65.2046
2776	65.2916
2760	65.3149
2744	65.3662
2728	65.5277
2712	65.2138
2696	65.4135
2680	65.2798
2664	65.2808
2648	65.3792
2632	65.2569
2616	65.2584
2600	65.2952
2584	65.238
2568	65.3013
2552	65.409
2536	65.2034
2520	65.4149
2504	65.1348
2488	65.3437
2472	65.2773
2456	65.285
2440	65.4374
2424	65.4004
2408	65.0913
2392	65.406
2376	65.382
2360	65.5072
2344	65.384
2328	65.4751
2312	65.467
2296	65.3925
2280	65.3868
2264	65.4225
2248	65.4296
2232	65.3864
2216	65.3592
2200	65.3574
2184	65.4008
2168	65.4051
2152	65.362
2136	65.4807
2120	65.5236
2104	65.3455
2088	65.4299
2072	65.2027
2056	65.3543
2040	65.3371
2024	65.3396
2008	65.4677
1992	65.5851
1976	65.3389
1960	65.3485
1944	65.3636
1928	65.3445
1912	65.4183
1896	65.3444
1880	65.3537
1864	65.4334
1848	65.4003
1832	65.4683
1816	65.4673
1800	65.3435
1784	65.4659
1768	65.6156
1752	65.4403
1736	65.5099
1720	65.4065
1704	65.6023
1688	65.626
1672	65.6048
1656	65.8885
1640	65.4999
1624	65.4509
1608	65.3355
1592	65.241
1576	65.4695
1560	65.7848
1544	65.6809
1528	65.5645
1512	65.6518
1496	65.5233
1480	65.2714
1464	65.3067
1448	65.3022
1432	65.4082
1416	65.2421
1400	65.1995
1384	65.1821
1368	65.1721
1352	65.1403
1336	65.1896
1320	65.2222
1304	65.1345
1288	65.127
1272	65.0569
1256	65.106
1240	65.0055
1224	65.0799
1208	65.0892
1192	65.0529
1176	64.9579
1160	65.0975
1144	65.0345
1128	65.0329
1112	65.0246
1096	65.1637
1080	64.8776
1064	64.8463
1048	64.7986
1032	65.3821
1016	65.1785
1000	65.1098
984	 65.0527
968	 64.6775
952	 64.5973
936	 64.6412
920	 64.7155
904	 64.5145
888	 64.6201
872	 64.7182
856	 64.6088
840	 64.6405
824	 64.1879
808	 64.2926
792	 64.3502
776	 64.3513
760	 64.584
744	 64.3095
728	 63.8582
712	 63.7437
696	 63.6881
680	 63.4103
664	 63.3913
648	 63.5626
632	 63.3406
616	 63.1897
600	 63.0607
584	 62.9313
568	 62.7228
552	 62.5378
536	 61.9161
520	 61.6283
504	 61.5422
488	 61.8183
472	 61.1549
456	 61.6395
440	 60.7598
424	 60.5525
408	 59.3291
392	 45.7754
376	 65.4256
370	 100.757