File: Bakgrunnsmateriale/MATLAB/FTIR/ftir_data/subBb/Mapping_121/C-4040-8_t44_cm-1.asc
PE IR       SPECTRUM    SPECTRUM    ASCII       PEDS        1.60
  -1
C-9B6F~1.ASC
17/03/27
18:02:21.00
17/03/27
18:02:21.00
tln
$C-4040-8_t0044$<tbV0>[-13.0,-5.2,8.0,0.0,27,1,0]
370
64

2002,4.07
MIRTGS : RIGHTBACK : INTERNAL 2
MIR : ON : INTERNAL 2
OPTKBR

0.200000
8
8.000000
FILLER
RATIO
SPECTRUM
UNLOCKED 256

DOUBLE
64
COMBINED
1
0
0

1.000000
RATIO

1
0
TRUE
51149
0
LEFT NOT FITTED RIGHT NOT FITTED 0
NONE
NONE
15600
12
4.427000
51148
TRUE
1 0 8 72 0 0 0 0

15798

#HDR
-1
-1
#GR
CM-1
%T
2.38419e-05
0.0
5000
-1.000000
4631
8
77.6596
26.1243
#DATA
5000	64.718
4984	64.2763
4968	65.0281
4952	65.1168
4936	64.8528
4920	64.6432
4904	65.0775
4888	64.7627
4872	65.4465
4856	64.6413
4840	64.8615
4824	65.1415
4808	65.1317
4792	65.0103
4776	64.9044
4760	64.8937
4744	65.1804
4728	64.7973
4712	65.3264
4696	64.7364
4680	64.8459
4664	64.8065
4648	65.1318
4632	64.8584
4616	64.9772
4600	64.6778
4584	65.0124
4568	64.8126
4552	65.1394
4536	64.9911
4520	64.6384
4504	64.9227
4488	64.9556
4472	65.1142
4456	65.5203
4440	65.4959
4424	64.4824
4408	65.0627
4392	65.3902
4376	66.6125
4360	60.2813
4344	65.6901
4328	64.8646
4312	65.0303
4296	65.4874
4280	65.2344
4264	65.3335
4248	64.781
4232	65.164
4216	64.9983
4200	65.0797
4184	65.1293
4168	64.7188
4152	65.2447
4136	65.41
4120	65.1184
4104	64.9318
4088	65.0368
4072	65.1195
4056	64.7836
4040	65.0485
4024	65.1769
4008	65.0737
3992	64.9612
3976	64.9957
3960	65.1771
3944	64.8362
3928	65.1871
3912	64.9406
3896	65.1057
3880	65.2809
3864	65.0192
3848	65.0378
3832	64.8797
3816	65.0464
3800	65.1979
3784	65.1964
3768	65.0964
3752	65.2312
3736	65.1059
3720	65.3286
3704	65.1318
3688	65.0058
3672	65.0816
3656	64.993
3640	65.1323
3624	65.2466
3608	65.0597
3592	65.1394
3576	65.0895
3560	65.1049
3544	65.1141
3528	65.0286
3512	65.3798
3496	65.3541
3480	65.0354
3464	65.1045
3448	65.2507
3432	65.3808
3416	65.1854
3400	64.9764
3384	65.2484
3368	65.2967
3352	65.284
3336	65.1907
3320	65.2222
3304	65.2369
3288	65.1186
3272	65.1325
3256	65.1512
3240	65.4577
3224	65.2652
3208	64.9634
3192	65.2721
3176	65.2449
3160	65.0024
3144	65.2142
3128	65.5042
3112	65.1853
3096	65.1248
3080	65.2893
3064	65.1745
3048	65.0773
3032	65.243
3016	65.1619
3000	65.1091
2984	65.2383
2968	65.1977
2952	65.1629
2936	65.1428
2920	64.9359
2904	65.2226
2888	65.3035
2872	65.1111
2856	65.1951
2840	65.1736
2824	65.2469
2808	65.2983
2792	65.1795
2776	65.4397
2760	65.3103
2744	65.2698
2728	65.2554
2712	65.3592
2696	65.29
2680	65.126
2664	65.3131
2648	65.293
2632	65.3402
2616	65.1878
2600	65.2061
2584	65.3308
2568	65.1174
2552	65.3171
2536	65.3754
2520	65.2997
2504	65.2142
2488	65.1728
2472	65.1934
2456	65.3305
2440	65.0235
2424	65.3415
2408	65.2874
2392	65.4032
2376	65.1936
2360	65.3842
2344	65.1418
2328	65.2814
2312	65.3463
2296	65.2045
2280	65.258
2264	65.2611
2248	65.3978
2232	65.3707
2216	65.2327
2200	65.3463
2184	65.4432
2168	65.4675
2152	64.8576
2136	65.3653
2120	65.3225
2104	65.3312
2088	65.4493
2072	65.5317
2056	65.3653
2040	65.2486
2024	65.3126
2008	65.4132
1992	65.4542
1976	65.2622
1960	65.3645
1944	65.3013
1928	65.4287
1912	65.2737
1896	65.3061
1880	65.2982
1864	65.4088
1848	65.2121
1832	65.4705
1816	65.3298
1800	65.3634
1784	65.1454
1768	65.2614
1752	65.3423
1736	65.2389
1720	65.0503
1704	65.3189
1688	65.323
1672	65.2704
1656	65.2424
1640	65.2498
1624	65.3144
1608	65.3658
1592	65.323
1576	65.0706
1560	65.0547
1544	65.1553
1528	65.1052
1512	65.1513
1496	65.3869
1480	65.2531
1464	65.0479
1448	65.3328
1432	65.2829
1416	65.261
1400	65.0567
1384	65.0206
1368	64.9282
1352	65.0948
1336	65.325
1320	65.1888
1304	65.1967
1288	65.096
1272	65.1065
1256	65.0237
1240	65.0791
1224	65.0987
1208	65.066
1192	64.9246
1176	65.0045
1160	64.9862
1144	64.9571
1128	64.913
1112	64.9943
1096	65.3221
1080	64.6804
1064	64.6563
1048	65.2358
1032	65.2015
1016	65.366
1000	64.9086
984	 65.2044
968	 64.9009
952	 65.0172
936	 64.5666
920	 64.8853
904	 64.8684
888	 64.8108
872	 64.7491
856	 64.9068
840	 64.5863
824	 64.4639
808	 64.3764
792	 64.532
776	 64.2177
760	 63.6503
744	 63.8754
728	 64.2773
712	 63.6317
696	 63.4578
680	 63.526
664	 63.2466
648	 63.1775
632	 63.0495
616	 63.0797
600	 63.2165
584	 63.1064
568	 62.5994
552	 62.7263
536	 62.0505
520	 62.5222
504	 62.7276
488	 61.1441
472	 60.7735
456	 60.2708
440	 60.173
424	 59.7623
408	 47.2697
392	 66.0414
376	 66.9924
370	 75.187