File: Bakgrunnsmateriale/MATLAB/FTIR/ftir_data/subBb/Mapping_121/C-4040-8_t79_cm-1.asc
PE IR       SPECTRUM    SPECTRUM    ASCII       PEDS        1.60
  -1
C-1DE0~1.ASC
17/03/27
20:58:48.00
17/03/27
20:58:48.00
tln
$C-4040-8_t0079$<tbV0>[10.4,5.2,8.0,0.0,27,1,0]
370
64

2002,4.07
MIRTGS : RIGHTBACK : INTERNAL 2
MIR : ON : INTERNAL 2
OPTKBR

0.200000
8
8.000000
FILLER
RATIO
SPECTRUM
UNLOCKED 256

DOUBLE
64
COMBINED
1
0
0

1.000000
RATIO

1
0
TRUE
51149
0
LEFT NOT FITTED RIGHT NOT FITTED 0
NONE
NONE
15600
12
4.427000
51148
TRUE
1 0 8 72 0 0 0 0

15798

#HDR
-1
-1
#GR
CM-1
%T
2.38419e-05
0.0
5000
-1.000000
4631
8
101.737
43.0727
#DATA
5000	65.1883
4984	65.2277
4968	64.3059
4952	65.3604
4936	64.8751
4920	64.7969
4904	64.3157
4888	64.2523
4872	65.0737
4856	64.5727
4840	65.1183
4824	65.0026
4808	64.9042
4792	64.8084
4776	64.9804
4760	65.5016
4744	65.4767
4728	65.3961
4712	65.0284
4696	64.9306
4680	65.4683
4664	65.1703
4648	65.2265
4632	65.3923
4616	65.065
4600	64.7768
4584	65.0077
4568	64.859
4552	64.8324
4536	64.2935
4520	65.4274
4504	64.4975
4488	64.6644
4472	64.0513
4456	64.1866
4440	63.9069
4424	64.0229
4408	63.7288
4392	58.6364
4376	72.4765
4360	64.7623
4344	65.1712
4328	64.466
4312	65.1847
4296	64.8673
4280	64.6827
4264	64.6415
4248	64.5907
4232	64.8375
4216	64.8638
4200	64.6814
4184	65.7227
4168	65.0721
4152	64.8794
4136	65.283
4120	64.9668
4104	64.9329
4088	65.1578
4072	64.9429
4056	65.2488
4040	65.1365
4024	65.2764
4008	65.4253
3992	65.0136
3976	64.9667
3960	65.0825
3944	64.9276
3928	65.1715
3912	65.1049
3896	65.107
3880	64.9761
3864	65.4048
3848	64.849
3832	64.7621
3816	65.2683
3800	65.069
3784	65.0144
3768	65.272
3752	65.0803
3736	65.2764
3720	65.223
3704	65.0286
3688	65.1568
3672	65.1489
3656	65.2218
3640	65.4246
3624	65.2297
3608	65.0389
3592	65.3023
3576	65.3261
3560	64.9882
3544	65.2673
3528	65.2255
3512	65.1668
3496	65.2944
3480	65.2071
3464	65.5751
3448	65.3459
3432	65.0294
3416	65.1657
3400	65.1178
3384	65.2206
3368	65.2426
3352	64.9277
3336	65.1244
3320	65.2384
3304	65.1223
3288	65.1385
3272	65.3334
3256	65.1762
3240	65.098
3224	64.9487
3208	65.045
3192	65.025
3176	65.1062
3160	65.0038
3144	65.4234
3128	65.4594
3112	65.2092
3096	65.0901
3080	65.1842
3064	65.3356
3048	65.0824
3032	65.4026
3016	65.0793
3000	65.0002
2984	65.1216
2968	64.9962
2952	65.0363
2936	64.9671
2920	64.7686
2904	65.0801
2888	65.2447
2872	65.1013
2856	64.9295
2840	65.1101
2824	65.1636
2808	65.1794
2792	65.1877
2776	65.2852
2760	65.1405
2744	65.2744
2728	65.2761
2712	65.3198
2696	65.3461
2680	65.201
2664	65.2434
2648	65.0944
2632	65.3452
2616	65.1561
2600	65.1789
2584	65.3161
2568	65.1496
2552	65.3126
2536	65.2264
2520	65.1654
2504	65.2717
2488	65.3528
2472	65.1755
2456	65.378
2440	65.2078
2424	64.9316
2408	65.3115
2392	65.2157
2376	65.1801
2360	65.3819
2344	65.3655
2328	65.3328
2312	65.3454
2296	65.2822
2280	65.2758
2264	65.1378
2248	65.3421
2232	65.3917
2216	65.3744
2200	65.2622
2184	65.2755
2168	65.0504
2152	65.0855
2136	65.0368
2120	65.3273
2104	65.2666
2088	65.3372
2072	65.8398
2056	65.1182
2040	65.3342
2024	65.3304
2008	65.2449
1992	65.2974
1976	65.2119
1960	65.432
1944	65.2777
1928	65.4281
1912	65.2736
1896	65.4178
1880	65.2414
1864	65.2579
1848	65.1693
1832	65.2679
1816	65.4484
1800	65.2725
1784	65.388
1768	65.1978
1752	65.1554
1736	65.1425
1720	65.1113
1704	65.0715
1688	65.4382
1672	65.3538
1656	65.2056
1640	65.211
1624	65.0353
1608	65.0589
1592	65.0607
1576	65.0264
1560	65.1067
1544	65.081
1528	65.0006
1512	64.8899
1496	65.1925
1480	65.1493
1464	65.0273
1448	64.7804
1432	65.0368
1416	65.0336
1400	65.0818
1384	65.067
1368	65.0356
1352	64.9785
1336	65.1546
1320	65.2121
1304	65.0733
1288	65.0302
1272	65.0169
1256	64.9204
1240	64.9976
1224	65.0501
1208	65.1121
1192	64.8581
1176	64.8354
1160	64.8567
1144	64.8168
1128	64.9343
1112	64.8447
1096	64.4949
1080	64.9003
1064	64.6212
1048	64.768
1032	64.4964
1016	64.1136
1000	64.7124
984	 64.5588
968	 64.7534
952	 64.9042
936	 64.3202
920	 65.0615
904	 64.7048
888	 64.5723
872	 64.8028
856	 64.3404
840	 64.3337
824	 64.5563
808	 64.3108
792	 64.2552
776	 64.0263
760	 64.0314
744	 63.5053
728	 63.7943
712	 63.3894
696	 63.3698
680	 63.2172
664	 62.5308
648	 62.885
632	 62.7144
616	 62.1151
600	 62.1806
584	 62.3448
568	 62.1419
552	 61.8406
536	 62.107
520	 60.4786
504	 61.0311
488	 61.7767
472	 59.9873
456	 61.2929
440	 58.1751
424	 51.757
408	 60.6452
392	 95.2321
376	 44.6625
370	 43.6233