File: Bakgrunnsmateriale/MATLAB/FTIR/ftir_data/subBb/Mapping_121/C-4040-8_t43_cm-1.asc
PE IR       SPECTRUM    SPECTRUM    ASCII       PEDS        1.60
  -1
C-9BE1~1.ASC
17/03/27
17:57:44.00
17/03/27
17:57:44.00
tln
$C-4040-8_t0043$<tbV0>[-10.4,-5.2,8.0,0.0,27,1,0]
370
64

2002,4.07
MIRTGS : RIGHTBACK : INTERNAL 2
MIR : ON : INTERNAL 2
OPTKBR

0.200000
8
8.000000
FILLER
RATIO
SPECTRUM
UNLOCKED 256

DOUBLE
64
COMBINED
1
0
0

1.000000
RATIO

1
0
TRUE
51149
0
LEFT NOT FITTED RIGHT NOT FITTED 0
NONE
NONE
15600
12
4.427000
51148
TRUE
1 0 8 72 0 0 0 0

15798

#HDR
-1
-1
#GR
CM-1
%T
2.38419e-05
0.0
5000
-1.000000
4631
8
76.0872
41.0396
#DATA
5000	64.6763
4984	64.1686
4968	64.4926
4952	64.2302
4936	64.5446
4920	64.3888
4904	64.1644
4888	64.9295
4872	64.9474
4856	64.6642
4840	64.6411
4824	65.1386
4808	64.9481
4792	64.7802
4776	64.4784
4760	65.053
4744	65.0345
4728	64.9488
4712	65.011
4696	64.9944
4680	64.9132
4664	64.6907
4648	64.6027
4632	64.9336
4616	64.7168
4600	65.1011
4584	64.9841
4568	65.1362
4552	65.3766
4536	64.7358
4520	65.2559
4504	64.508
4488	64.6168
4472	64.7342
4456	64.9273
4440	64.9342
4424	64.9661
4408	64.7277
4392	65.7496
4376	65.9347
4360	75.6021
4344	59.6909
4328	65.549
4312	65.1983
4296	65.3262
4280	65.0054
4264	64.9145
4248	65.0503
4232	65.1428
4216	65.1312
4200	64.9338
4184	65.26
4168	65.4932
4152	64.8194
4136	65.245
4120	65.0788
4104	64.8739
4088	65.0078
4072	64.8959
4056	64.9154
4040	64.7807
4024	65.1161
4008	65.1793
3992	64.8182
3976	65.2065
3960	64.8127
3944	64.9299
3928	64.9548
3912	65.119
3896	64.9125
3880	65.4164
3864	64.8363
3848	65.195
3832	64.8813
3816	65.4136
3800	65.1031
3784	64.9022
3768	65.0364
3752	65.2349
3736	65.221
3720	65.2021
3704	65.1102
3688	65.1056
3672	65.009
3656	65.1627
3640	65.252
3624	65.127
3608	65.0879
3592	65.1152
3576	65.1608
3560	64.9088
3544	65.0651
3528	64.9951
3512	65.2212
3496	65.3767
3480	65.2805
3464	65.243
3448	65.1856
3432	65.265
3416	65.093
3400	64.9186
3384	65.1198
3368	65.0709
3352	65.2221
3336	65.1342
3320	65.2169
3304	65.2014
3288	65.2298
3272	65.1829
3256	65.1453
3240	65.35
3224	64.711
3208	65.045
3192	65.3245
3176	65.2863
3160	65.0014
3144	65.0058
3128	65.1131
3112	65.7773
3096	65.0041
3080	65.1009
3064	65.2614
3048	65.0923
3032	65.4447
3016	65.1233
3000	64.9997
2984	65.145
2968	65.2237
2952	65.0936
2936	65.0084
2920	64.77
2904	65.1023
2888	65.1685
2872	65.1973
2856	64.8638
2840	65.3811
2824	65.1084
2808	65.3659
2792	65.3273
2776	65.2099
2760	65.2797
2744	65.4515
2728	65.2719
2712	65.2075
2696	65.2207
2680	65.261
2664	65.1748
2648	65.1212
2632	65.1833
2616	65.2521
2600	65.3193
2584	65.254
2568	65.3735
2552	65.2119
2536	65.2375
2520	65.414
2504	65.3968
2488	65.1454
2472	65.0827
2456	65.2766
2440	65.1208
2424	64.828
2408	65.0253
2392	65.3558
2376	65.2426
2360	65.3468
2344	65.2438
2328	65.2303
2312	65.3768
2296	65.2713
2280	65.3113
2264	65.2882
2248	65.2199
2232	65.3389
2216	65.1622
2200	65.3424
2184	65.4509
2168	65.2236
2152	65.2401
2136	65.3421
2120	65.3218
2104	65.2491
2088	65.4135
2072	65.1134
2056	65.243
2040	65.2334
2024	65.3853
2008	65.3094
1992	65.3811
1976	65.2566
1960	65.3382
1944	65.1634
1928	65.3378
1912	65.3181
1896	65.3033
1880	65.2228
1864	65.2238
1848	65.2472
1832	65.3426
1816	65.273
1800	65.2179
1784	65.3079
1768	65.2223
1752	65.2385
1736	65.1273
1720	65.0165
1704	65.372
1688	65.2588
1672	65.1209
1656	65.1532
1640	65.1862
1624	65.1333
1608	65.0961
1592	65.1974
1576	65.0663
1560	65.0674
1544	65.1109
1528	65.2313
1512	65.3099
1496	65.1855
1480	65.2297
1464	65.0121
1448	65.1087
1432	65.0852
1416	65.2218
1400	65.06
1384	65.077
1368	65.0043
1352	65.0758
1336	65.0802
1320	65.1021
1304	65.1101
1288	65.0012
1272	64.9058
1256	65.0277
1240	65.035
1224	65.03
1208	64.969
1192	65.0538
1176	64.7205
1160	64.5609
1144	64.7951
1128	64.9063
1112	64.5858
1096	65.078
1080	64.8745
1064	64.6762
1048	65.1057
1032	64.6379
1016	65.0125
1000	64.2915
984	 64.7173
968	 64.6407
952	 64.7972
936	 64.3925
920	 64.4796
904	 64.648
888	 64.7074
872	 64.5562
856	 64.3378
840	 64.4468
824	 64.1835
808	 64.1013
792	 64.2879
776	 64.2784
760	 64.0649
744	 64.6522
728	 63.7847
712	 63.7316
696	 63.5785
680	 63.1779
664	 63.3561
648	 63.1014
632	 62.3737
616	 62.6321
600	 63.3855
584	 62.4905
568	 62.4945
552	 62.2558
536	 62.1329
520	 61.6499
504	 62.1993
488	 60.5728
472	 59.9543
456	 59.4748
440	 60.6015
424	 58.881
408	 63.4664
392	 74.6825
376	 56.7158
370	 42.9446