File: Bakgrunnsmateriale/MATLAB/FTIR/ftir_data/subBb/Mapping_121/C-4040-8_t117_cm-1.asc
PE IR       SPECTRUM    SPECTRUM    ASCII       PEDS        1.60
  -1
C-4C09~1.ASC
17/03/28
00:21:56.00
17/03/28
00:21:56.00
tln
$C-4040-8_t0117$<tbV0>[-2.6,13.0,8.0,0.0,27,1,0]
370
64

2002,4.07
MIRTGS : RIGHTBACK : INTERNAL 2
MIR : ON : INTERNAL 2
OPTKBR

0.200000
8
8.000000
FILLER
RATIO
SPECTRUM
UNLOCKED 256

DOUBLE
64
COMBINED
1
0
0

1.000000
RATIO

1
0
TRUE
51149
0
LEFT NOT FITTED RIGHT NOT FITTED 0
NONE
NONE
15600
12
4.427000
51148
TRUE
1 0 8 72 0 0 0 0

15798

#HDR
-1
-1
#GR
CM-1
%T
2.38419e-05
0.0
5000
-1.000000
4631
8
89.6954
22.7828
#DATA
5000	64.5975
4984	65.0164
4968	65.7763
4952	64.1492
4936	65.2261
4920	64.6158
4904	64.7817
4888	64.1768
4872	64.0788
4856	64.8735
4840	64.6087
4824	64.4637
4808	65.0466
4792	64.9798
4776	65.131
4760	64.7006
4744	65.0432
4728	64.7802
4712	65.2864
4696	64.899
4680	65.0107
4664	65.0993
4648	64.8429
4632	64.7338
4616	64.4582
4600	64.9258
4584	65.2003
4568	65.1259
4552	64.8878
4536	64.7408
4520	65.0302
4504	64.8501
4488	65.1682
4472	64.9308
4456	65.3946
4440	65.9116
4424	65.3894
4408	65.2931
4392	60.818
4376	66.1901
4360	66.2238
4344	64.8706
4328	65.1559
4312	64.9361
4296	65.3039
4280	64.9005
4264	65.3723
4248	64.9585
4232	64.7693
4216	65.2594
4200	65.1072
4184	64.3061
4168	65.4016
4152	64.7289
4136	64.8244
4120	64.9849
4104	64.8418
4088	65.232
4072	65.3902
4056	65.2015
4040	64.9638
4024	65.1495
4008	64.819
3992	65.1814
3976	65.2566
3960	65.1894
3944	65.2212
3928	65.1397
3912	65.1926
3896	64.9227
3880	65.1333
3864	65.3321
3848	65.2086
3832	64.7645
3816	64.9063
3800	65.1087
3784	65.4782
3768	65.2962
3752	65.2507
3736	65.1867
3720	65.0879
3704	65.0118
3688	65.2872
3672	65.2487
3656	65.1284
3640	65.1741
3624	65.1722
3608	65.2687
3592	65.204
3576	65.2783
3560	65.0428
3544	65.2452
3528	65.2171
3512	65.1552
3496	65.0853
3480	65.047
3464	65.3929
3448	65.1075
3432	64.9355
3416	65.1872
3400	65.2197
3384	65.263
3368	64.941
3352	65.0046
3336	65.0673
3320	65.0503
3304	65.2469
3288	65.3616
3272	64.9727
3256	65.3989
3240	65.1016
3224	65.0983
3208	65.1474
3192	65.116
3176	65.1404
3160	64.9197
3144	65.1393
3128	65.2049
3112	65.3389
3096	65.3413
3080	65.3372
3064	65.2961
3048	65.1776
3032	65.2696
3016	65.1407
3000	65.3446
2984	65.1607
2968	65.133
2952	65.1778
2936	64.9454
2920	64.6481
2904	65.0472
2888	65.1273
2872	65.138
2856	64.7705
2840	65.2242
2824	65.206
2808	65.1455
2792	65.0946
2776	65.1368
2760	65.258
2744	65.1016
2728	65.1907
2712	65.2668
2696	65.262
2680	65.2285
2664	65.1305
2648	65.1464
2632	65.0521
2616	65.1425
2600	65.1753
2584	65.0767
2568	65.1794
2552	65.3477
2536	65.368
2520	65.4367
2504	65.2365
2488	65.1273
2472	65.2097
2456	65.098
2440	65.1403
2424	64.9994
2408	65.4131
2392	65.3733
2376	65.1786
2360	65.2099
2344	65.3337
2328	65.3604
2312	65.2272
2296	65.3294
2280	65.2493
2264	65.4277
2248	65.3533
2232	65.2819
2216	65.3019
2200	65.3584
2184	65.2354
2168	65.4217
2152	65.1608
2136	65.1829
2120	65.2912
2104	65.2722
2088	65.0772
2072	65.464
2056	65.1747
2040	65.2142
2024	65.234
2008	65.2928
1992	65.1014
1976	65.2795
1960	65.2939
1944	65.2642
1928	65.1583
1912	65.2811
1896	65.1589
1880	65.1847
1864	65.127
1848	65.1793
1832	65.1704
1816	65.0902
1800	65.2718
1784	65.2397
1768	65.1766
1752	65.073
1736	64.8025
1720	65.0486
1704	64.9467
1688	65.0674
1672	65.2391
1656	65.1006
1640	64.9894
1624	64.9527
1608	64.9797
1592	65.0374
1576	64.977
1560	64.9184
1544	64.9204
1528	65.2257
1512	65.0688
1496	65.1422
1480	65.0857
1464	65.0112
1448	64.981
1432	65.3273
1416	64.7957
1400	64.9488
1384	64.9215
1368	64.9261
1352	64.9317
1336	65.0026
1320	65.0115
1304	64.8934
1288	64.879
1272	64.8181
1256	64.8236
1240	64.8231
1224	64.9773
1208	64.7108
1192	64.7977
1176	64.7558
1160	64.7431
1144	64.6605
1128	64.7163
1112	64.909
1096	65.0209
1080	64.7528
1064	64.6909
1048	65.0214
1032	64.5634
1016	64.6465
1000	64.5389
984	 64.6816
968	 64.1934
952	 64.5772
936	 64.3574
920	 64.6214
904	 64.4471
888	 64.014
872	 64.2198
856	 63.8633
840	 64.1666
824	 63.0919
808	 64.7365
792	 64.2593
776	 63.8654
760	 63.5513
744	 64.2354
728	 63.1172
712	 63.1113
696	 63.0348
680	 63.0451
664	 62.4644
648	 62.742
632	 63.0255
616	 62.3204
600	 61.9585
584	 61.1079
568	 61.9749
552	 61.7804
536	 61.3598
520	 60.8922
504	 59.5581
488	 59.9328
472	 59.7358
456	 59.1377
440	 59.2999
424	 59.5641
408	 61.5231
392	 35.3389
376	 82.331
370	 73.6132