File: Bakgrunnsmateriale/MATLAB/FTIR/ftir_data/subBb/Mapping_121/C-4040-8_t85_cm-1.asc
PE IR       SPECTRUM    SPECTRUM    ASCII       PEDS        1.60
  -1
C-9DEE~1.ASC
17/03/27
21:26:29.00
17/03/27
21:26:29.00
tln
$C-4040-8_t0085$<tbV0>[-5.2,5.2,8.0,0.0,27,1,0]
370
64

2002,4.07
MIRTGS : RIGHTBACK : INTERNAL 2
MIR : ON : INTERNAL 2
OPTKBR

0.200000
8
8.000000
FILLER
RATIO
SPECTRUM
UNLOCKED 256

DOUBLE
64
COMBINED
1
0
0

1.000000
RATIO

1
0
TRUE
51149
0
LEFT NOT FITTED RIGHT NOT FITTED 0
NONE
NONE
15600
12
4.427000
51148
TRUE
1 0 8 72 0 0 0 0

15798

#HDR
-1
-1
#GR
CM-1
%T
2.38419e-05
0.0
5000
-1.000000
4631
8
73.1815
7.049942
#DATA
5000	65.412
4984	65.0473
4968	65.0122
4952	66.0214
4936	64.7516
4920	65.203
4904	65.2719
4888	64.0096
4872	65.3916
4856	65.3012
4840	65.1937
4824	64.7543
4808	64.9902
4792	64.533
4776	64.6152
4760	64.7305
4744	64.7281
4728	64.783
4712	65.0246
4696	64.487
4680	64.7312
4664	64.724
4648	64.8593
4632	65.1634
4616	64.7058
4600	64.9839
4584	65.2332
4568	65.175
4552	65.4654
4536	65.8271
4520	65.7898
4504	65.6088
4488	65.8993
4472	65.8201
4456	65.9674
4440	65.937
4424	65.5161
4408	65.7318
4392	62.7369
4376	70.805
4360	65.2559
4344	66.0239
4328	66.4783
4312	66.1348
4296	66.5216
4280	66.0484
4264	65.5312
4248	65.6632
4232	65.5017
4216	65.2875
4200	65.2705
4184	65.3265
4168	64.7094
4152	64.7509
4136	65.1813
4120	65.0193
4104	64.7556
4088	64.8546
4072	64.8427
4056	64.9268
4040	64.9528
4024	65.1389
4008	65.1762
3992	65.1991
3976	65.1661
3960	65.054
3944	65.0063
3928	65.4057
3912	65.3287
3896	65.2066
3880	65.1011
3864	65.4752
3848	65.0889
3832	65.0741
3816	65.4915
3800	65.202
3784	65.2852
3768	65.122
3752	65.148
3736	65.1638
3720	65.2515
3704	65.3327
3688	65.1812
3672	65.2549
3656	65.0575
3640	65.1959
3624	65.2714
3608	64.962
3592	65.1349
3576	65.2658
3560	65.1926
3544	65.2168
3528	65.2762
3512	65.1757
3496	65.1795
3480	65.326
3464	65.5812
3448	65.2948
3432	65.3756
3416	65.3611
3400	65.025
3384	65.481
3368	65.3662
3352	65.1581
3336	65.3105
3320	65.3535
3304	65.2681
3288	65.2221
3272	65.3081
3256	65.2005
3240	65.017
3224	65.0765
3208	65.1559
3192	65.1143
3176	64.9348
3160	65.2523
3144	65.2033
3128	65.1755
3112	64.9232
3096	65.1138
3080	65.2441
3064	65.1801
3048	65.3294
3032	65.3321
3016	65.1116
3000	65.113
2984	65.1867
2968	64.942
2952	65.0032
2936	65.1263
2920	64.9297
2904	65.1678
2888	65.0817
2872	65.3815
2856	65.1372
2840	65.1517
2824	65.2526
2808	65.2886
2792	65.2434
2776	65.3198
2760	65.2188
2744	65.3573
2728	65.2306
2712	65.4399
2696	65.3914
2680	65.3747
2664	65.3002
2648	65.2195
2632	65.3424
2616	65.2384
2600	65.162
2584	65.2623
2568	65.229
2552	65.285
2536	65.2431
2520	65.3064
2504	65.171
2488	65.3012
2472	65.4728
2456	65.3942
2440	65.3536
2424	65.231
2408	65.3101
2392	65.3826
2376	65.5002
2360	65.3168
2344	65.4249
2328	65.4118
2312	65.4356
2296	65.3177
2280	65.4233
2264	65.3232
2248	65.4013
2232	65.3891
2216	65.483
2200	65.2762
2184	65.3171
2168	65.3718
2152	65.1928
2136	65.1534
2120	65.4215
2104	65.3599
2088	65.3097
2072	65.2878
2056	65.3567
2040	65.3744
2024	65.2443
2008	65.4
1992	65.4143
1976	65.3861
1960	65.3769
1944	65.4049
1928	65.3214
1912	65.3763
1896	65.3274
1880	65.3491
1864	65.3102
1848	65.2055
1832	65.2922
1816	65.4205
1800	65.3052
1784	65.4122
1768	65.1777
1752	65.3642
1736	65.2321
1720	65.2053
1704	65.2121
1688	65.269
1672	65.3053
1656	65.205
1640	65.3456
1624	65.2234
1608	65.1262
1592	65.104
1576	65.0054
1560	65.0405
1544	65.138
1528	65.1357
1512	65.1712
1496	65.1116
1480	65.1901
1464	65.0988
1448	64.5502
1432	65.0206
1416	65.1025
1400	65.0176
1384	65.0675
1368	64.9773
1352	65.0116
1336	65.0187
1320	65.0546
1304	65.1245
1288	65.2761
1272	65.1963
1256	65.2731
1240	65.112
1224	64.9329
1208	65.0126
1192	64.8654
1176	64.9536
1160	64.8921
1144	64.8562
1128	64.8552
1112	64.8842
1096	64.5894
1080	64.8897
1064	64.89
1048	65.017
1032	64.7412
1016	64.8593
1000	64.713
984	 64.8407
968	 64.8697
952	 64.716
936	 64.8336
920	 64.5638
904	 64.3149
888	 64.2512
872	 64.4651
856	 64.4315
840	 64.2782
824	 64.4531
808	 64.3478
792	 64.2895
776	 64.0984
760	 64.338
744	 63.3506
728	 63.6647
712	 63.7094
696	 64.225
680	 63.4664
664	 63.2716
648	 63.0968
632	 62.5948
616	 62.358
600	 63.1011
584	 62.7268
568	 61.921
552	 63.01
536	 61.4238
520	 61.7978
504	 61.0804
488	 60.0452
472	 60.2354
456	 58.5321
440	 59.6709
424	 57.0469
408	 55.9589
392	 21.5067
376	 7.847976
370	 32.2693