File: Bakgrunnsmateriale/MATLAB/FTIR/ftir_data/subBb/Mapping_121/C-4040-8_t38.asc
PE IR       SPECTRUM    SPECTRUM    ASCII       PEDS        1.60
  -1
C-C13A~1.ASC
17/03/27
17:34:40.00
17/03/27
17:35:06.00
tln
$C-4040-8_t0038$<tbV0>[2.6,-5.2,8.0,0.0,27,1,0]
27.028
64

2002,4.07
MIRTGS : RIGHTBACK : INTERNAL 2
MIR : ON : INTERNAL 2
OPTKBR

0.200000
8
8.000000
FILLER
RATIO
SPECTRUM
UNLOCKED 256

DOUBLE
64
COMBINED
1
0
0

0.002000
RATIO

1
0
TRUE
51149
0
LEFT NOT FITTED RIGHT NOT FITTED 0
NONE
NONE
15600
12
4.427000
51148
TRUE
1 0 8 72 0 0 0 0

15798

#HDR
-1
-1
#GR
µM
%T
2.38419e-05
0.0
2.000000
0.002000
12515
8
75.844
3.986572
#DATA
2.000000	 63.8367
2.084000	 62.7659
2.168000	 63.4196
2.252000	 62.3405
2.336000	 62.0377
2.420000	 61.949
2.504000	 61.7037
2.588000	 61.1831
2.672000	 60.6311
2.756000	 60.0494
2.840000	 59.3676
2.924000	 58.8023
3.008000	 58.1655
3.092000	 57.499
3.176000	 56.8405
3.260000	 56.3581
3.344000	 55.5903
3.428000	 54.449
3.512000	 54.0218
3.596000	 53.5113
3.680000	 52.9053
3.764000	 52.2128
3.848000	 51.4458
3.932000	 50.9897
4.016000	 50.2455
4.100000	 49.585
4.184000	 49.0936
4.268000	 48.5059
4.352000	 47.7541
4.436000	 47.3408
4.520000	 46.7347
4.604000	 46.2369
4.688000	 45.7436
4.772000	 45.1709
4.856000	 44.958
4.940000	 44.2936
5.024000	 43.7744
5.108000	 43.4434
5.192000	 42.9768
5.276000	 42.3466
5.359999	 42.115
5.444000	 41.7094
5.528000	 41.3284
5.612000	 40.8697
5.696000	 40.6543
5.780000	 40.1502
5.864000	 39.8313
5.948000	 39.5693
6.032000	 39.2065
6.116000	 38.9382
6.200000	 38.5456
6.284000	 38.2634
6.368000	 37.9411
6.452000	 37.5913
6.536000	 37.3201
6.620000	 37.1804
6.704000	 36.7852
6.788000	 36.4986
6.872000	 36.3361
6.956000	 36.0166
7.040000	 35.8672
7.124000	 35.6177
7.208000	 35.4337
7.292000	 35.1258
7.376000	 34.9195
7.460000	 34.8326
7.544000	 34.4688
7.628000	 34.3323
7.712000	 34.2145
7.796000	 34.0665
7.880000	 33.7492
7.964000	 33.6871
8.048000	 33.4187
8.132000	 33.2135
8.216000	 32.9122
8.300000	 32.7755
8.384000	 32.7113
8.468000	 32.6236
8.552000	 32.3744
8.635999	 32.1107
8.719999	 32.1146
8.804000	 31.722
8.888000	 31.6926
8.972000	 31.3229
9.056000	 31.7062
9.140000	 31.3945
9.224000	 31.016
9.308000	 30.8889
9.391999	 30.8429
9.475999	 30.6691
9.560000	 30.7011
9.644000	 30.3678
9.728000	 30.3732
9.812000	 30.1064
9.896000	 29.9668
9.980000	 29.8118
10.064	29.493
10.148	29.6199
10.232	29.6405
10.316	29.4779
10.4	29.1487
10.484	28.9691
10.568	28.9792
10.652	28.7391
10.736	28.6954
10.82	28.5246
10.904	28.513
10.988	28.194
11.072	28.2397
11.156	28.1499
11.24	27.9874
11.324	27.837
11.408	28.0001
11.492	27.875
11.576	27.5301
11.66	27.3923
11.744	27.0364
11.828	27.2076
11.912	27.2022
11.996	27.0674
12.08	26.8445
12.164	26.744
12.248	26.7406
12.332	26.6981
12.416	26.521
12.5	26.3788
12.584	26.2712
12.668	26.3289
12.752	26.2807
12.836	26.0303
12.92	25.7618
13.004	25.5169
13.088	25.3964
13.172	25.3984
13.256	25.2498
13.34	25.0599
13.424	25.0522
13.508	24.9459
13.592	24.9918
13.676	25.0724
13.76	24.7541
13.844	24.653
13.928	24.9172
14.012	24.9367
14.096	24.6445
14.18	24.3075
14.264	24.0959
14.348	23.935
14.432	23.772
14.516	23.5288
14.6	23.2716
14.684	23.1956
14.768	23.1733
14.852	23.0796
14.936	23.0673
15.02	23.0891
15.104	22.8973
15.188	22.6184
15.272	22.5605
15.356	22.6505
15.44	22.648
15.524	22.5474
15.608	22.4765
15.692	22.4659
15.776	22.3719
15.86	22.1093
15.944	21.8818
16.028	21.8572
16.112	21.858
16.196	21.6904
16.28	21.4515
16.364	21.289
16.448	21.1595
16.532	20.9921
16.616	20.8283
16.7	20.744
16.784	20.7971
16.868	20.9623
16.952	21.0495
17.036	20.8758
17.12	20.5206
17.204	20.2056
17.288	19.9998
17.372	19.835
17.456	19.7028
17.54	19.65
17.624	19.654
17.708	19.6714
17.792	19.7286
17.876	19.8199
17.96	19.8365
18.044	19.7293
18.128	19.624
18.212	19.627
18.296	19.6307
18.38	19.4341
18.464	19.0031
18.548	18.5243
18.632	18.2355
18.716	18.2276
18.8	18.3958
18.884	18.5652
18.968	18.6551
19.052	18.7217
19.136	18.8204
19.22	18.8831
19.304	18.7779
19.388	18.4817
19.472	18.1338
19.556	17.9095
19.64	17.8629
19.724	17.9074
19.808	17.9197
19.892	17.8323
19.976	17.652
20.06	17.4295
20.144	17.2167
20.228	17.0388
20.312	16.8941
20.396	16.7741
20.48	16.686
20.564	16.6426
20.648	16.629
20.732	16.589
20.816	16.4553
20.9	16.2138
20.984	15.934
21.068	15.7275
21.152	15.6654
21.236	15.723
21.32	15.7977
21.404	15.7806
21.488	15.6187
21.572	15.3397
21.656	15.0178
21.74	14.7434
21.824	14.5883
21.908	14.5749
21.992	14.6728
22.076	14.8121
22.16	14.9095
22.244	14.9198
22.328	14.8486
22.412	14.74
22.496	14.6429
22.58	14.5721
22.664	14.5185
22.748	14.5019
22.832	14.6075
22.916	14.9526
23	15.6202
23.084	16.5539
23.168	17.5343
23.252	18.2822
23.336	18.5464
23.42	18.212
23.504	17.3507
23.588	16.187
23.672	14.9961
23.756	14.0468
23.84	13.5014
23.924	13.3959
24.008	13.6609
24.092	14.148
24.176	14.6579
24.26	14.9643
24.344	14.8236
24.428	14.0569
24.512	12.5794
24.596	10.4928
24.68	8.111831
24.764	5.919322
24.848	4.398810
24.932	4.016882
25.016	5.046093
25.1	7.446756
25.184	10.8689
25.268	14.7284
25.352	18.36
25.436	21.1754
25.52	22.8465
25.604	23.3372
25.688	22.8018
25.772	21.5901
25.856	20.1869
25.94	18.9475
26.024	18.1274
26.108	17.9375
26.192	18.5292
26.276	19.972
26.36	22.3473
26.444	25.2992
26.528	28.0549
26.612	29.6752
26.696	29.4383
26.78	27.1756
26.864	23.414
26.948	19.0554
27.028	15.0346