File: Bakgrunnsmateriale/MATLAB/FTIR/ftir_data/subBb/Mapping_121/C-4040-8_t69_cm-1.asc
PE IR       SPECTRUM    SPECTRUM    ASCII       PEDS        1.60
  -1
C-9CE0~1.ASC
17/03/27
20:12:02.00
17/03/27
20:12:02.00
tln
$C-4040-8_t0069$<tbV0>[7.8,2.6,8.0,0.0,27,1,0]
370
64

2002,4.07
MIRTGS : RIGHTBACK : INTERNAL 2
MIR : ON : INTERNAL 2
OPTKBR

0.200000
8
8.000000
FILLER
RATIO
SPECTRUM
UNLOCKED 256

DOUBLE
64
COMBINED
1
0
0

1.000000
RATIO

1
0
TRUE
51149
0
LEFT NOT FITTED RIGHT NOT FITTED 0
NONE
NONE
15600
12
4.427000
51148
TRUE
1 0 8 72 0 0 0 0

15798

#HDR
-1
-1
#GR
CM-1
%T
2.38419e-05
0.0
5000
-1.000000
4631
8
82.1178
48.128
#DATA
5000	65.1887
4984	65.3427
4968	64.4523
4952	65.2236
4936	64.6471
4920	64.896
4904	65.2232
4888	64.7874
4872	66.3588
4856	64.9897
4840	64.8032
4824	64.9758
4808	65.1161
4792	64.7113
4776	64.8509
4760	64.911
4744	65.1517
4728	65.0693
4712	64.9284
4696	64.77
4680	65.3626
4664	65.2924
4648	65.2597
4632	65.2784
4616	64.806
4600	64.8466
4584	65.2487
4568	64.8537
4552	64.7668
4536	65.0858
4520	65.0978
4504	64.6726
4488	65.0418
4472	64.8228
4456	64.3875
4440	64.904
4424	64.9918
4408	63.9117
4392	64.485
4376	65.4084
4360	63.6413
4344	64.8766
4328	65.3765
4312	65.3335
4296	65.1046
4280	65.0383
4264	64.2885
4248	65.2442
4232	64.8041
4216	64.6634
4200	65.0838
4184	65.5885
4168	65.7182
4152	64.9844
4136	65.1722
4120	65.0561
4104	65.051
4088	65.0362
4072	64.783
4056	65.1626
4040	65.0733
4024	65.1198
4008	65.2249
3992	65.1191
3976	65.3385
3960	65.1687
3944	65.1208
3928	65.0981
3912	65.326
3896	65.0751
3880	65.0082
3864	65.1025
3848	65.0194
3832	65.1208
3816	65.1999
3800	65.0271
3784	65.2134
3768	65.207
3752	65.2261
3736	65.2389
3720	65.1962
3704	65.0945
3688	65.1557
3672	65.0329
3656	65.2444
3640	65.3093
3624	65.2483
3608	65.106
3592	65.1538
3576	65.3445
3560	64.9472
3544	65.2884
3528	65.2695
3512	65.1484
3496	65.2349
3480	65.1941
3464	65.295
3448	65.2645
3432	65.1732
3416	65.2809
3400	64.9527
3384	65.0388
3368	65.0702
3352	64.9324
3336	65.4052
3320	65.2513
3304	65.0798
3288	65.2189
3272	65.1149
3256	65.3095
3240	65.2126
3224	64.9954
3208	65.0987
3192	65.1004
3176	65.0196
3160	65.111
3144	65.5182
3128	65.0483
3112	65.2983
3096	65.3961
3080	65.1967
3064	65.2139
3048	65.0344
3032	65.2202
3016	65.1755
3000	65.2966
2984	65.2345
2968	65.0001
2952	64.922
2936	65.0108
2920	64.6915
2904	65.0288
2888	65.1642
2872	65.0987
2856	65.3323
2840	65.0316
2824	65.154
2808	65.1348
2792	65.196
2776	65.3141
2760	65.3233
2744	65.3297
2728	65.3617
2712	65.3813
2696	65.2218
2680	65.1938
2664	65.213
2648	65.25
2632	65.3161
2616	65.3002
2600	65.1556
2584	65.2895
2568	65.2404
2552	65.3055
2536	65.2584
2520	65.3701
2504	65.0522
2488	65.3066
2472	65.3672
2456	65.3413
2440	65.4165
2424	65.213
2408	65.4749
2392	65.2252
2376	65.3616
2360	65.2841
2344	65.1227
2328	65.3055
2312	65.2424
2296	65.2556
2280	65.283
2264	65.2475
2248	65.3197
2232	65.2971
2216	65.2759
2200	65.2783
2184	65.3243
2168	65.3227
2152	65.0376
2136	65.3152
2120	65.3164
2104	65.3385
2088	65.3897
2072	65.3087
2056	65.2693
2040	65.2109
2024	65.2557
2008	65.4038
1992	65.3114
1976	65.2076
1960	65.273
1944	65.258
1928	65.3885
1912	65.3684
1896	65.2736
1880	65.2387
1864	65.2083
1848	65.1904
1832	65.296
1816	65.3619
1800	65.2578
1784	65.2877
1768	65.3864
1752	65.1909
1736	65.0596
1720	65.1529
1704	65.0978
1688	65.2552
1672	65.2929
1656	65.1377
1640	65.1541
1624	65.1549
1608	65.0871
1592	65.042
1576	64.994
1560	64.9539
1544	65.0737
1528	65.0734
1512	64.9799
1496	65.1545
1480	65.1183
1464	64.9583
1448	64.7348
1432	65.1831
1416	65.1234
1400	64.9186
1384	64.9975
1368	65.0402
1352	65.0874
1336	65.0167
1320	65.0011
1304	64.9253
1288	65.0267
1272	64.8808
1256	64.9422
1240	64.7764
1224	64.8324
1208	65.0551
1192	64.785
1176	64.6387
1160	64.636
1144	64.6404
1128	64.7863
1112	64.6599
1096	64.6868
1080	64.6626
1064	64.7302
1048	64.7929
1032	64.5077
1016	64.5076
1000	64.5927
984	 64.5925
968	 64.8407
952	 64.8001
936	 64.7098
920	 64.779
904	 64.7198
888	 64.5594
872	 64.6341
856	 63.8862
840	 64.38
824	 64.3522
808	 64.1021
792	 63.5675
776	 64.0346
760	 63.724
744	 63.5839
728	 63.4813
712	 63.4385
696	 63.2271
680	 62.8484
664	 62.8343
648	 62.4338
632	 62.0083
616	 61.7508
600	 62.0527
584	 62.2811
568	 61.6362
552	 61.1322
536	 60.6509
520	 59.7424
504	 59.9425
488	 59.8346
472	 58.1277
456	 59.7715
440	 58.9924
424	 56.3371
408	 58.4094
392	 50.3287
376	 77.6904
370	 59.3906