File: Bakgrunnsmateriale/MATLAB/FTIR/ftir_data/subBb/Mapping_121/C-4040-8_t83_cm-1.asc
PE IR       SPECTRUM    SPECTRUM    ASCII       PEDS        1.60
  -1
C-9DE1~1.ASC
17/03/27
21:17:15.00
17/03/27
21:17:15.00
tln
$C-4040-8_t0083$<tbV0>[0.0,5.2,8.0,0.0,27,1,0]
370
64

2002,4.07
MIRTGS : RIGHTBACK : INTERNAL 2
MIR : ON : INTERNAL 2
OPTKBR

0.200000
8
8.000000
FILLER
RATIO
SPECTRUM
UNLOCKED 256

DOUBLE
64
COMBINED
1
0
0

1.000000
RATIO

1
0
TRUE
51149
0
LEFT NOT FITTED RIGHT NOT FITTED 0
NONE
NONE
15600
12
4.427000
51148
TRUE
1 0 8 72 0 0 0 0

15798

#HDR
-1
-1
#GR
CM-1
%T
2.38419e-05
0.0
5000
-1.000000
4631
8
99.1874
39.4419
#DATA
5000	65.1747
4984	65.2862
4968	64.1862
4952	65.752
4936	64.852
4920	64.4023
4904	65.2305
4888	65.1092
4872	65.7249
4856	64.9838
4840	65.2313
4824	65.3964
4808	65.075
4792	64.7058
4776	65.3436
4760	65.3097
4744	65.5097
4728	64.7701
4712	65.6377
4696	65.3685
4680	65.3904
4664	65.1975
4648	65.2469
4632	65.6396
4616	65.1108
4600	64.853
4584	65.5681
4568	65.1451
4552	65.1795
4536	65.0764
4520	64.965
4504	64.5271
4488	64.9976
4472	64.7092
4456	64.1761
4440	64.6387
4424	64.3634
4408	64.3603
4392	63.649
4376	78.4196
4360	63.9618
4344	64.9049
4328	65.0748
4312	64.8608
4296	64.8772
4280	64.8852
4264	65.0289
4248	64.739
4232	64.7123
4216	64.8932
4200	64.9239
4184	65.3061
4168	65.3051
4152	64.9734
4136	65.2347
4120	65.1258
4104	65.1083
4088	65.2067
4072	65.1499
4056	65.2921
4040	65.3611
4024	65.2562
4008	65.2633
3992	65.2452
3976	65.3243
3960	65.0531
3944	65.2485
3928	65.0575
3912	65.4645
3896	65.4142
3880	64.9633
3864	65.5555
3848	65.2326
3832	65.1173
3816	65.3149
3800	65.2467
3784	65.2451
3768	65.1207
3752	65.2794
3736	65.0632
3720	65.2365
3704	65.2674
3688	65.3231
3672	65.2267
3656	65.4506
3640	65.3714
3624	65.409
3608	65.1609
3592	65.4218
3576	65.1534
3560	65.2896
3544	65.147
3528	65.3426
3512	65.2858
3496	65.3144
3480	65.3652
3464	65.0348
3448	65.4499
3432	65.3309
3416	65.5195
3400	65.1174
3384	65.4574
3368	65.0811
3352	65.2216
3336	65.3452
3320	65.2433
3304	65.3465
3288	65.3519
3272	65.2338
3256	65.3586
3240	65.2495
3224	65.3923
3208	65.3962
3192	65.2945
3176	65.091
3160	65.3065
3144	65.4305
3128	65.2989
3112	65.2825
3096	65.3786
3080	65.0968
3064	65.232
3048	65.2524
3032	65.3307
3016	65.2815
3000	65.1055
2984	65.2122
2968	65.1195
2952	65.1777
2936	65.0433
2920	64.9382
2904	65.2112
2888	65.2717
2872	65.1664
2856	65.1337
2840	65.2401
2824	65.2987
2808	65.2707
2792	65.2602
2776	65.4486
2760	65.3559
2744	65.3528
2728	65.2995
2712	65.3904
2696	65.2578
2680	65.3481
2664	65.3505
2648	65.3957
2632	65.3164
2616	65.2526
2600	65.2917
2584	65.2895
2568	65.2456
2552	65.3873
2536	65.3093
2520	65.3274
2504	65.2489
2488	65.5409
2472	65.4284
2456	65.5081
2440	65.2243
2424	65.5903
2408	65.2876
2392	65.5287
2376	65.4587
2360	65.3484
2344	65.3824
2328	65.2841
2312	65.4357
2296	65.4474
2280	65.4348
2264	65.3025
2248	65.4001
2232	65.461
2216	65.4001
2200	65.4239
2184	65.3639
2168	65.1975
2152	65.3902
2136	65.177
2120	65.4627
2104	65.3492
2088	65.4588
2072	65.4939
2056	65.14
2040	65.3999
2024	65.5267
2008	65.3306
1992	65.4203
1976	65.2468
1960	65.2152
1944	65.3197
1928	65.4377
1912	65.3075
1896	65.2789
1880	65.4227
1864	65.4312
1848	65.3479
1832	65.3823
1816	65.4833
1800	65.4525
1784	65.3738
1768	65.3044
1752	65.2981
1736	65.1402
1720	65.1132
1704	65.1381
1688	65.3322
1672	65.3487
1656	65.4032
1640	65.2392
1624	65.2593
1608	65.0144
1592	65.1889
1576	65.0563
1560	65.0933
1544	65.1051
1528	65.2371
1512	65.1619
1496	65.0651
1480	65.189
1464	65.1392
1448	65.0516
1432	65.3055
1416	65.2923
1400	65.1564
1384	65.1845
1368	65.1261
1352	64.9795
1336	65.2112
1320	65.0807
1304	65.0908
1288	65.1649
1272	65.0976
1256	64.9409
1240	64.94
1224	64.9104
1208	65.1727
1192	65.1408
1176	64.8565
1160	65.1199
1144	64.7216
1128	65.1038
1112	64.7057
1096	64.9002
1080	64.8433
1064	64.7171
1048	64.6782
1032	64.9215
1016	64.6702
1000	64.6855
984	 64.7088
968	 64.9076
952	 65.0018
936	 65.1582
920	 65.0206
904	 64.7509
888	 64.3646
872	 64.3868
856	 64.3756
840	 65.0548
824	 64.6511
808	 64.3707
792	 64.0725
776	 64.3234
760	 64.0205
744	 64.1467
728	 64.1405
712	 63.5288
696	 63.9067
680	 63.5169
664	 63.6056
648	 63.3696
632	 63.0366
616	 62.9044
600	 63.4358
584	 63.346
568	 63.0922
552	 62.0374
536	 61.8538
520	 61.7975
504	 61.4692
488	 60.7632
472	 59.9048
456	 58.9083
440	 58.7255
424	 55.1719
408	 58.4869
392	 42.4829
376	 67.4737
370	 92.7982