File: Bakgrunnsmateriale/MATLAB/FTIR/ftir_data/subBb/Mapping_121/C-4040-8_e125_cm-1.asc
PE IR       SPECTRUM    SPECTRUM    ASCII       PEDS        1.60
  -1
C-3ACF~1.ASC
17/03/27
19:57:10.00
17/03/27
19:57:10.00
tln
$C-4040-8_e0125$<ebV0>[-23.3,12.1,10.0,0.0,27,1,0]
370
64

2002,4.07
MIRTGS : RIGHTBACK : INTERNAL 2
MIR : ON : INTERNAL 2
OPTKBR

0.200000
8
8.000000
FILLER
SINGLE
SPECTRUM
UNLOCKED 256

DOUBLE

COMBINED
1
0
0

1.000000
BACKG

1
0
TRUE
51149
0
LEFT NOT FITTED RIGHT NOT FITTED 0
NONE
NONE
15600
12
4.427000
51148
TRUE
1 0 8 72 0 0 0 0

15798

#HDR
-1
-1
#GR
CM-1
EGY
2.38419e-05
0.0
5000
-1.000000
4631
8
2.460193
0.008773
#DATA
5000	0.764894
4984	0.773930
4968	0.786256
4952	0.781011
4936	0.795555
4920	0.799202
4904	0.802326
4888	0.813245
4872	0.813961
4856	0.826811
4840	0.836753
4824	0.847268
4808	0.857591
4792	0.869822
4776	0.876641
4760	0.882983
4744	0.888466
4728	0.895237
4712	0.895524
4696	0.901675
4680	0.901341
4664	0.905418
4648	0.908422
4632	0.912642
4616	0.924348
4600	0.936079
4584	0.946879
4568	0.958538
4552	0.968980
4536	0.980567
4520	0.991225
4504	1.001095
4488	1.006507
4472	1.013636
4456	1.014447
4440	1.012444
4424	1.017618
4408	1.024293
4392	1.016163
4376	0.890302
4360	1.070880
4344	1.072335
4328	1.087594
4312	1.105809
4296	1.122093
4280	1.141214
4264	1.156544
4248	1.168990
4232	1.177263
4216	1.188707
4200	1.192665
4184	1.194095
4168	1.201701
4152	1.213335
4136	1.225495
4120	1.237535
4104	1.254892
4088	1.273512
4072	1.297521
4056	1.318550
4040	1.338696
4024	1.358056
4008	1.374435
3992	1.387786
3976	1.398563
3960	1.407599
3944	1.414203
3928	1.417040
3912	1.421117
3896	1.427006
3880	1.438355
3864	1.443743
3848	1.462244
3832	1.477956
3816	1.492547
3800	1.512789
3784	1.537060
3768	1.548433
3752	1.543116
3736	1.557016
3720	1.568102
3704	1.572775
3688	1.567196
3672	1.562142
3656	1.567673
3640	1.574254
3624	1.574230
3608	1.583766
3592	1.590323
3576	1.601099
3560	1.613688
3544	1.620197
3528	1.619911
3512	1.625561
3496	1.620030
3480	1.610374
3464	1.604199
3448	1.590633
3432	1.585245
3416	1.582288
3400	1.600241
3384	1.603412
3368	1.621651
3352	1.646208
3336	1.668071
3320	1.691770
3304	1.713132
3288	1.735687
3272	1.753544
3256	1.766633
3240	1.780796
3224	1.786136
3208	1.787853
3192	1.789951
3176	1.797580
3160	1.802873
3144	1.811408
3128	1.831483
3112	1.857757
3096	1.882576
3080	1.916575
3064	1.935982
3048	1.964235
3032	1.974797
3016	1.965665
3000	2.025794
2984	2.025675
2968	1.962089
2952	1.920914
2936	1.813316
2920	1.804304
2904	1.945304
2888	1.995587
2872	1.983785
2856	1.926565
2840	2.068901
2824	2.128338
2808	2.164959
2792	2.193832
2776	2.220273
2760	2.240324
2744	2.249121
2728	2.254605
2712	2.245998
2696	2.239060
2680	2.232742
2664	2.221226
2648	2.217221
2632	2.213883
2616	2.219223
2600	2.225947
2584	2.238154
2568	2.266001
2552	2.283143
2536	2.304291
2520	2.317285
2504	2.326393
2488	2.325224
2472	2.316546
2456	2.302265
2440	2.284955
2424	2.279114
2408	2.256703
2392	2.248835
2376	2.238726
2360	2.237439
2344	2.263021
2328	2.283668
2312	2.316260
2296	2.343630
2280	2.361750
2264	2.374768
2248	2.379393
2232	2.377676
2216	2.370834
2200	2.359938
2184	2.346086
2168	2.337455
2152	2.336597
2136	2.334594
2120	2.336788
2104	2.337551
2088	2.337694
2072	2.354145
2056	2.393651
2040	2.422618
2024	2.441525
2008	2.453970
1992	2.457046
1976	2.447247
1960	2.431082
1944	2.418947
1928	2.403283
1912	2.387094
1896	2.371978
1880	2.376103
1864	2.383828
1848	2.396321
1832	2.407622
1816	2.420902
1800	2.431249
1784	2.429127
1768	2.415060
1752	2.385210
1736	2.326679
1720	2.308535
1704	2.278184
1688	2.248859
1672	2.224946
1656	2.179718
1640	2.154517
1624	2.107119
1608	1.976037
1592	2.018260
1576	1.985931
1560	1.935124
1544	1.959657
1528	2.108478
1512	2.093553
1496	1.703882
1480	1.959156
1464	1.936340
1448	1.787710
1432	1.867222
1416	1.841640
1400	1.731538
1384	1.783919
1368	1.816725
1352	1.815247
1336	1.823949
1320	1.852250
1304	1.855826
1288	1.852917
1272	1.803898
1256	1.756238
1240	1.835083
1224	1.813769
1208	1.745462
1192	1.740312
1176	1.699304
1160	1.630210
1144	1.599597
1128	1.539611
1112	1.458311
1096	1.426863
1080	1.427197
1064	1.438140
1048	1.309108
1032	1.379966
1016	1.370215
1000	1.400351
984	 1.383543
968	 1.341438
952	 1.281499
936	 1.249289
920	 1.210427
904	 1.157331
888	 1.115727
872	 1.035094
856	 1.093530
840	 1.055312
824	 0.845432
808	 0.947737
792	 0.962138
776	 0.975680
760	 0.962495
744	 0.940871
728	 0.903511
712	 0.856614
696	 0.790381
680	 0.734496
664	 0.709700
648	 0.666475
632	 0.625205
616	 0.580167
600	 0.522279
584	 0.506949
568	 0.492906
552	 0.466442
536	 0.438189
520	 0.400638
504	 0.360965
488	 0.305342
472	 0.252056
456	 0.194239
440	 0.150370
424	 0.103425
408	 0.057482
392	 0.030612
376	 0.011491
370	 0.008773