File: Bakgrunnsmateriale/MATLAB/FTIR/ftir_data/subBb/Mapping_121/C-4040-8_t28_cm-1.asc
PE IR       SPECTRUM    SPECTRUM    ASCII       PEDS        1.60
  -1
C-9A65~1.ASC
17/03/27
16:47:54.00
17/03/27
16:47:54.00
tln
$C-4040-8_t0028$<tbV0>[0.0,-7.8,8.0,0.0,27,1,0]
370
64

2002,4.07
MIRTGS : RIGHTBACK : INTERNAL 2
MIR : ON : INTERNAL 2
OPTKBR

0.200000
8
8.000000
FILLER
RATIO
SPECTRUM
UNLOCKED 256

DOUBLE
64
COMBINED
1
0
0

1.000000
RATIO

1
0
TRUE
51149
0
LEFT NOT FITTED RIGHT NOT FITTED 0
NONE
NONE
15600
12
4.427000
51148
TRUE
1 0 8 72 0 0 0 0

15798

#HDR
-1
-1
#GR
CM-1
%T
2.38419e-05
0.0
5000
-1.000000
4631
8
68.9335
22.8392
#DATA
5000	63.6191
4984	63.5829
4968	63.4886
4952	63.7856
4936	64.0574
4920	63.7556
4904	63.7412
4888	63.8406
4872	63.6988
4856	63.504
4840	63.1611
4824	64.1489
4808	63.6693
4792	63.5448
4776	63.3871
4760	63.7449
4744	63.7257
4728	63.2826
4712	63.675
4696	63.585
4680	63.9122
4664	64.2073
4648	63.5066
4632	63.9039
4616	63.9511
4600	63.95
4584	63.5339
4568	63.7686
4552	63.445
4536	63.3429
4520	64.2136
4504	63.8049
4488	63.3139
4472	63.2067
4456	63.6118
4440	63.5201
4424	63.6736
4408	62.7592
4392	63.2102
4376	62.4567
4360	65.7457
4344	63.7401
4328	63.89
4312	63.2972
4296	63.8681
4280	63.7967
4264	63.7297
4248	62.8313
4232	63.3776
4216	63.2776
4200	63.127
4184	63.2236
4168	63.305
4152	63.2745
4136	63.3567
4120	63.2085
4104	62.9575
4088	63.3475
4072	63.2155
4056	63.1958
4040	62.9589
4024	63.2054
4008	63.0015
3992	62.9241
3976	63.0221
3960	63.092
3944	62.8782
3928	63.0235
3912	62.9009
3896	62.9234
3880	62.9373
3864	62.8131
3848	62.6369
3832	62.5277
3816	62.8747
3800	62.7771
3784	62.5094
3768	62.4355
3752	62.7016
3736	62.5607
3720	62.6169
3704	62.6168
3688	62.5777
3672	62.5395
3656	62.3056
3640	62.4194
3624	62.4387
3608	62.3113
3592	62.4082
3576	62.1583
3560	62.1299
3544	62.2119
3528	62.2266
3512	62.2746
3496	62.1211
3480	62.1058
3464	62.0432
3448	61.9353
3432	61.8963
3416	61.8254
3400	61.7225
3384	61.5911
3368	61.6097
3352	61.6353
3336	61.2415
3320	61.3259
3304	61.4218
3288	61.424
3272	61.2033
3256	61.0555
3240	61.147
3224	60.9174
3208	60.8823
3192	60.7518
3176	60.9464
3160	60.703
3144	60.6883
3128	60.6635
3112	60.709
3096	60.3544
3080	60.4232
3064	60.2956
3048	60.1791
3032	60.3519
3016	60.1185
3000	59.9057
2984	59.9832
2968	60.0882
2952	59.6419
2936	59.4586
2920	59.2717
2904	59.3735
2888	59.4434
2872	59.3881
2856	59.1748
2840	59.23
2824	59.1471
2808	59.2352
2792	59.0236
2776	58.9041
2760	58.7823
2744	58.8075
2728	58.5396
2712	58.5248
2696	58.4747
2680	58.2495
2664	58.2615
2648	58.0727
2632	58.0414
2616	57.9046
2600	57.7633
2584	57.7545
2568	57.689
2552	57.54
2536	57.3791
2520	57.3546
2504	57.1041
2488	56.9989
2472	56.9742
2456	56.7454
2440	56.7301
2424	56.5233
2408	56.5074
2392	56.4353
2376	56.3126
2360	56.2129
2344	56.0381
2328	55.9203
2312	55.8608
2296	55.6981
2280	55.6813
2264	55.444
2248	55.5023
2232	55.2879
2216	55.0799
2200	55.0271
2184	54.8572
2168	54.8127
2152	54.5416
2136	54.5493
2120	54.4598
2104	54.2995
2088	54.1651
2072	53.8598
2056	53.9567
2040	53.657
2024	53.5138
2008	53.4136
1992	53.3867
1976	53.0816
1960	53.0073
1944	52.8585
1928	52.8114
1912	52.5555
1896	52.4587
1880	52.2764
1864	52.1882
1848	51.9805
1832	51.9149
1816	51.8121
1800	51.6286
1784	51.3575
1768	51.3451
1752	51.0705
1736	50.8882
1720	50.5032
1704	50.7119
1688	50.5619
1672	50.5442
1656	50.2776
1640	50.1106
1624	49.9945
1608	49.8768
1592	49.724
1576	49.5092
1560	49.4529
1544	49.0268
1528	49.1161
1512	48.9606
1496	48.8996
1480	48.6835
1464	48.5551
1448	48.4028
1432	48.3831
1416	47.9843
1400	47.8391
1384	47.652
1368	47.5919
1352	47.3775
1336	47.2898
1320	47.0562
1304	46.9335
1288	46.7044
1272	46.4676
1256	46.5931
1240	46.3794
1224	46.2199
1208	46.0766
1192	45.9326
1176	45.6945
1160	45.4949
1144	45.225
1128	45.1538
1112	45.0333
1096	45.0482
1080	45.0154
1064	43.9839
1048	44.9337
1032	44.3323
1016	44.5389
1000	43.844
984	 43.8663
968	 43.4158
952	 43.2447
936	 43.0316
920	 42.9436
904	 42.6185
888	 42.5773
872	 42.391
856	 41.8782
840	 41.7476
824	 41.62
808	 41.506
792	 41.0161
776	 40.4807
760	 40.4492
744	 39.9828
728	 39.8687
712	 39.6251
696	 38.8626
680	 38.2624
664	 38.4943
648	 37.8151
632	 37.4858
616	 37.451
600	 37.3555
584	 36.4259
568	 36.3687
552	 34.7015
536	 35.3097
520	 34.5057
504	 33.3184
488	 31.8203
472	 31.0084
456	 31.6844
440	 30.5073
424	 28.7759
408	 27.2024
392	 49.6618
376	 47.8309
370	 38.9755