File: Bakgrunnsmateriale/MATLAB/FTIR/ftir_data/subBb/Mapping_121/C-4040-8_t05_cm-1.asc
PE IR       SPECTRUM    SPECTRUM    ASCII       PEDS        1.60
  -1
C-99EE~1.ASC
17/03/27
14:54:02.00
17/03/27
14:54:02.00
tln
$C-4040-8_t0005$<tbV0>[2.6,-13.0,8.0,0.0,27,1,0]
370
64

2002,4.07
MIRTGS : RIGHTBACK : INTERNAL 2
MIR : ON : INTERNAL 2
OPTKBR

0.200000
8
8.000000
FILLER
RATIO
SPECTRUM
UNLOCKED 256

DOUBLE
64
COMBINED
1
0
0

1.000000
RATIO

1
0
TRUE
51149
0
LEFT NOT FITTED RIGHT NOT FITTED 0
NONE
NONE
15600
12
4.427000
51148
TRUE
1 0 8 72 0 0 0 0

15798

#HDR
-1
-1
#GR
CM-1
%T
2.38419e-05
0.0
5000
-1.000000
4631
8
70.4488
16.997
#DATA
5000	63.3142
4984	63.8811
4968	63.8256
4952	63.4072
4936	62.9945
4920	63.4508
4904	64.6278
4888	63.2759
4872	63.5288
4856	63.9899
4840	63.4878
4824	63.1753
4808	63.2612
4792	63.0666
4776	63.7427
4760	62.9088
4744	63.589
4728	62.9801
4712	63.3653
4696	63.4044
4680	63.3091
4664	63.0658
4648	63.6903
4632	63.7449
4616	63.8345
4600	63.8542
4584	64.1421
4568	63.7303
4552	63.7911
4536	63.7911
4520	63.7574
4504	63.6963
4488	63.5541
4472	64.1748
4456	65.0048
4440	67.2169
4424	63.8055
4408	58.082
4392	59.2633
4376	65.4197
4360	64.2967
4344	64.2225
4328	63.7467
4312	63.6072
4296	63.5009
4280	63.6569
4264	63.6535
4248	63.272
4232	63.467
4216	63.4047
4200	63.3454
4184	62.9989
4168	62.2797
4152	62.7532
4136	63.1601
4120	63.1122
4104	63.0859
4088	63.4503
4072	62.9943
4056	63.305
4040	63.3676
4024	63.2333
4008	63.2491
3992	63.0197
3976	62.7833
3960	63.189
3944	63.2418
3928	63.109
3912	63.163
3896	63.1361
3880	62.7214
3864	63.2353
3848	63.2159
3832	62.9326
3816	62.6994
3800	63.0382
3784	62.8237
3768	62.7421
3752	63.0463
3736	63.186
3720	62.8488
3704	62.6294
3688	62.8408
3672	62.7395
3656	62.7192
3640	62.2353
3624	62.513
3608	62.5959
3592	62.41
3576	62.2982
3560	62.4495
3544	62.2021
3528	62.164
3512	62.0187
3496	62.1068
3480	62.0319
3464	62.0507
3448	62.1436
3432	61.7707
3416	61.7971
3400	61.7263
3384	61.8281
3368	61.6769
3352	61.6587
3336	61.6587
3320	61.2856
3304	61.4172
3288	61.3321
3272	61.3975
3256	61.2378
3240	61.0609
3224	61.065
3208	61.2679
3192	60.893
3176	60.9484
3160	60.864
3144	60.8744
3128	60.7343
3112	60.7792
3096	60.716
3080	60.657
3064	60.662
3048	60.6
3032	60.4482
3016	60.5401
3000	60.3072
2984	60.2311
2968	60.0999
2952	59.8762
2936	60.0257
2920	59.8033
2904	59.6582
2888	59.6793
2872	59.688
2856	59.6057
2840	59.6407
2824	59.5294
2808	59.366
2792	59.3377
2776	59.1789
2760	59.1136
2744	59.0683
2728	58.9987
2712	58.8039
2696	58.9887
2680	58.7273
2664	58.5314
2648	58.4779
2632	58.4646
2616	58.2685
2600	58.1669
2584	58.1485
2568	58.0138
2552	58.0167
2536	57.8849
2520	57.7768
2504	57.7239
2488	57.4776
2472	57.5426
2456	57.337
2440	57.3072
2424	56.8843
2408	56.8002
2392	57.0435
2376	56.992
2360	56.7906
2344	56.7018
2328	56.5837
2312	56.4982
2296	56.3987
2280	56.1526
2264	56.2502
2248	55.9971
2232	55.9366
2216	55.8164
2200	55.6209
2184	55.6215
2168	55.4762
2152	55.378
2136	55.4187
2120	55.1468
2104	55.1203
2088	55.0483
2072	54.8438
2056	54.6441
2040	54.7966
2024	54.3836
2008	54.3896
1992	54.3747
1976	54.0926
1960	54.0583
1944	53.8732
1928	53.7922
1912	53.7662
1896	53.6587
1880	53.3981
1864	53.3229
1848	53.2479
1832	53.0874
1816	53.014
1800	52.8855
1784	52.738
1768	52.5835
1752	52.5587
1736	52.4068
1720	52.3077
1704	52.1801
1688	52.0935
1672	51.9762
1656	52.0499
1640	51.6622
1624	51.4153
1608	51.375
1592	51.0831
1576	51.2072
1560	51.1838
1544	51.092
1528	50.8056
1512	50.696
1496	50.544
1480	50.3184
1464	50.2829
1448	49.9536
1432	49.8225
1416	49.8496
1400	49.5375
1384	49.5167
1368	49.2108
1352	49.105
1336	48.9363
1320	48.9482
1304	48.6885
1288	48.5491
1272	48.4259
1256	48.3215
1240	48.1497
1224	48.1367
1208	47.9168
1192	47.79
1176	47.5039
1160	47.5184
1144	47.3318
1128	47.2726
1112	46.9087
1096	46.9818
1080	46.7489
1064	46.669
1048	46.5543
1032	46.3159
1016	46.2454
1000	46.1032
984	 45.8793
968	 45.584
952	 45.3144
936	 45.3372
920	 45.1207
904	 44.7576
888	 44.6259
872	 44.3115
856	 44.456
840	 43.8862
824	 44.2236
808	 43.4941
792	 43.0305
776	 43.5529
760	 42.6939
744	 42.9248
728	 42.3367
712	 42.0793
696	 41.8786
680	 41.0577
664	 41.0806
648	 40.9113
632	 40.5347
616	 40.1035
600	 39.4717
584	 38.7709
568	 38.394
552	 37.5809
536	 37.7438
520	 36.2788
504	 35.9079
488	 34.3417
472	 35.1802
456	 33.8337
440	 33.3474
424	 35.1204
408	 26.3823
392	 21.1794
376	 39.7163
370	 30.4032