File: Bakgrunnsmateriale/MATLAB/FTIR/ftir_data/subBb/Mapping_121/C-4040-8_t49.asc
PE IR       SPECTRUM    SPECTRUM    ASCII       PEDS        1.60
  -1
C-C53E~1.ASC
17/03/27
18:32:22.00
17/03/27
18:32:49.00
tln
$C-4040-8_t0049$<tbV0>[2.6,-2.6,8.0,0.0,27,1,0]
27.028
64

2002,4.07
MIRTGS : RIGHTBACK : INTERNAL 2
MIR : ON : INTERNAL 2
OPTKBR

0.200000
8
8.000000
FILLER
RATIO
SPECTRUM
UNLOCKED 256

DOUBLE
64
COMBINED
1
0
0

0.002000
RATIO

1
0
TRUE
51149
0
LEFT NOT FITTED RIGHT NOT FITTED 0
NONE
NONE
15600
12
4.427000
51148
TRUE
1 0 8 72 0 0 0 0

15798

#HDR
-1
-1
#GR
µM
%T
2.38419e-05
0.0
2.000000
0.002000
12515
8
75.5944
21.3385
#DATA
2.000000	 64.0359
2.084000	 64.5691
2.168000	 63.994
2.252000	 64.2137
2.336000	 64.2801
2.420000	 63.223
2.504000	 63.8651
2.588000	 63.6918
2.672000	 63.457
2.756000	 63.2307
2.840000	 62.9149
2.924000	 62.8843
3.008000	 62.7279
3.092000	 62.5724
3.176000	 62.128
3.260000	 61.9062
3.344000	 61.5294
3.428000	 61.0498
3.512000	 60.903
3.596000	 60.7662
3.680000	 60.6175
3.764000	 60.3835
3.848000	 59.9669
3.932000	 59.9571
4.016000	 59.6419
4.100000	 59.6421
4.184000	 59.3665
4.268000	 58.908
4.352000	 58.7411
4.436000	 58.6543
4.520000	 58.4424
4.604000	 58.1846
4.688000	 58.0584
4.772000	 57.7457
4.856000	 57.3032
4.940000	 57.4755
5.024000	 57.4094
5.108000	 57.1785
5.192000	 56.938
5.276000	 56.8196
5.359999	 56.6413
5.444000	 56.4705
5.528000	 56.4111
5.612000	 56.247
5.696000	 56.0667
5.780000	 55.6895
5.864000	 55.863
5.948000	 55.7495
6.032000	 55.5539
6.116000	 55.358
6.200000	 55.2315
6.284000	 55.036
6.368000	 55.1524
6.452000	 54.8325
6.536000	 54.7995
6.620000	 54.8713
6.704000	 54.8018
6.788000	 54.4856
6.872000	 54.2442
6.956000	 54.2576
7.040000	 54.2948
7.124000	 54.0775
7.208000	 54.2229
7.292000	 54.0898
7.376000	 53.8653
7.460000	 53.7291
7.544000	 53.8537
7.628000	 53.5412
7.712000	 53.7858
7.796000	 53.5323
7.880000	 53.4853
7.964000	 53.3155
8.048000	 53.3435
8.132000	 53.1958
8.216000	 53.2606
8.300000	 53.3469
8.384000	 53.0213
8.468000	 52.8521
8.552000	 53.0195
8.635999	 52.9917
8.719999	 52.9443
8.804000	 52.5162
8.888000	 52.8522
8.972000	 52.7108
9.056000	 52.5678
9.140000	 52.2861
9.224000	 52.7519
9.308000	 52.2213
9.391999	 52.3539
9.475999	 52.1925
9.560000	 52.3724
9.644000	 52.2024
9.728000	 51.9117
9.812000	 52.0656
9.896000	 52.1452
9.980000	 52.1073
10.064	52.0387
10.148	52.084
10.232	51.821
10.316	52.0053
10.4	51.7405
10.484	51.5857
10.568	51.7081
10.652	51.5875
10.736	51.338
10.82	51.3213
10.904	51.2829
10.988	51.354
11.072	51.3443
11.156	51.1219
11.24	51.2887
11.324	51.4441
11.408	50.9164
11.492	50.7539
11.576	51.0966
11.66	50.9678
11.744	50.8497
11.828	50.7912
11.912	50.7581
11.996	50.6295
12.08	50.4957
12.164	50.6918
12.248	50.7336
12.332	50.7993
12.416	50.4556
12.5	50.3352
12.584	50.4372
12.668	50.2862
12.752	50.2391
12.836	50.17
12.92	50.2603
13.004	50.3447
13.088	50.4585
13.172	50.0289
13.256	49.0464
13.34	49.2433
13.424	49.9157
13.508	50.2875
13.592	50.2691
13.676	49.6887
13.76	49.2288
13.844	49.2787
13.928	49.625
14.012	49.9156
14.096	49.9025
14.18	49.6744
14.264	49.5559
14.348	49.475
14.432	49.185
14.516	48.8228
14.6	48.5638
14.684	48.4895
14.768	48.6572
14.852	48.7947
14.936	48.7109
15.02	48.5768
15.104	48.5288
15.188	48.5652
15.272	48.5719
15.356	48.4855
15.44	48.3469
15.524	48.2264
15.608	48.2198
15.692	48.1744
15.776	48.0093
15.86	48.0467
15.944	48.2589
16.028	48.2324
16.112	48.0431
16.196	48.0978
16.28	48.4084
16.364	48.6215
16.448	48.515
16.532	48.2289
16.616	47.9547
16.7	47.6617
16.784	47.3386
16.868	47.1318
16.952	47.1018
17.036	47.1876
17.12	47.3241
17.204	47.34
17.288	47.0815
17.372	46.7307
17.456	46.6482
17.54	46.8894
17.624	47.1508
17.708	47.1702
17.792	46.9469
17.876	46.6538
17.96	46.4488
18.044	46.3763
18.128	46.3769
18.212	46.3451
18.296	46.2133
18.38	46.0355
18.464	45.9451
18.548	46.0027
18.632	46.1149
18.716	46.1417
18.8	46.0599
18.884	45.9748
18.968	45.9789
19.052	46.0471
19.136	46.0969
19.22	46.0918
19.304	46.0524
19.388	45.9836
19.472	45.8509
19.556	45.6466
19.64	45.442
19.724	45.3392
19.808	45.3739
19.892	45.4802
19.976	45.5354
20.06	45.4408
20.144	45.1825
20.228	44.8411
20.312	44.5482
20.396	44.4026
20.48	44.397
20.564	44.4302
20.648	44.3961
20.732	44.2823
20.816	44.1621
20.9	44.1183
20.984	44.1806
21.068	44.3171
21.152	44.4767
21.236	44.626
21.32	44.7648
21.404	44.9026
21.488	45.021
21.572	45.0917
21.656	45.1289
21.74	45.2165
21.824	45.4644
21.908	45.9097
21.992	46.4498
22.076	46.8763
22.16	46.9843
22.244	46.6925
22.328	46.0847
22.412	45.3515
22.496	44.6947
22.58	44.2621
22.664	44.1244
22.748	44.2655
22.832	44.608
22.916	45.0072
23	45.3204
23.084	45.4692
23.168	45.4648
23.252	45.3937
23.336	45.3822
23.42	45.5333
23.504	45.9154
23.588	46.4703
23.672	47.0282
23.756	47.4005
23.84	47.4361
23.924	47.0301
24.008	46.1193
24.092	44.6812
24.176	42.7691
24.26	40.4804
24.344	38.0398
24.428	35.8065
24.512	34.2719
24.596	33.7766
24.68	34.3471
24.764	35.6623
24.848	37.1372
24.932	38.4236
25.016	39.7409
25.1	41.8469
25.184	45.3835
25.268	50.2702
25.352	55.6071
25.436	59.9542
25.52	62.1074
25.604	61.7311
25.688	59.3877
25.772	56.3561
25.856	54.0501
25.94	53.7415
26.024	56.082
26.108	60.7238
26.192	66.2159
26.276	70.3855
26.36	70.9052
26.444	66.373
26.528	57.0378
26.612	44.745
26.696	32.5843
26.78	23.9364
26.864	21.3977
26.948	25.9683
27.028	36.0611