File: Bakgrunnsmateriale/MATLAB/FTIR/ftir_data/subBb/Mapping_121/C-4040-8_t06.asc
PE IR       SPECTRUM    SPECTRUM    ASCII       PEDS        1.60
  -1
C-B522~1.ASC
17/03/27
14:58:38.00
17/03/27
14:59:05.00
tln
$C-4040-8_t0006$<tbV0>[0.0,-13.0,8.0,0.0,27,1,0]
27.028
64

2002,4.07
MIRTGS : RIGHTBACK : INTERNAL 2
MIR : ON : INTERNAL 2
OPTKBR

0.200000
8
8.000000
FILLER
RATIO
SPECTRUM
UNLOCKED 256

DOUBLE
64
COMBINED
1
0
0

0.002000
RATIO

1
0
TRUE
51149
0
LEFT NOT FITTED RIGHT NOT FITTED 0
NONE
NONE
15600
12
4.427000
51148
TRUE
1 0 8 72 0 0 0 0

15798

#HDR
-1
-1
#GR
µM
%T
2.38419e-05
0.0
2.000000
0.002000
12515
8
70.5742
-7.871649
#DATA
2.000000	 64.118
2.084000	 63.7429
2.168000	 64.1176
2.252000	 67.6489
2.336000	 63.547
2.420000	 63.5829
2.504000	 63.4411
2.588000	 63.4949
2.672000	 63.4157
2.756000	 63.1456
2.840000	 62.6962
2.924000	 62.4453
3.008000	 62.2719
3.092000	 61.972
3.176000	 61.7832
3.260000	 61.5124
3.344000	 61.2972
3.428000	 60.8352
3.512000	 60.8412
3.596000	 60.3709
3.680000	 60.2686
3.764000	 59.9127
3.848000	 59.6441
3.932000	 59.5466
4.016000	 59.344
4.100000	 59.1786
4.184000	 58.7924
4.268000	 58.469
4.352000	 58.3838
4.436000	 58.1521
4.520000	 57.8079
4.604000	 57.5565
4.688000	 57.3539
4.772000	 57.3013
4.856000	 56.9948
4.940000	 56.6823
5.024000	 56.6179
5.108000	 56.4177
5.192000	 56.2945
5.276000	 56.1286
5.359999	 55.8496
5.444000	 55.5744
5.528000	 55.5351
5.612000	 55.4753
5.696000	 55.37
5.780000	 55.1891
5.864000	 55.0729
5.948000	 54.9812
6.032000	 54.9124
6.116000	 54.5439
6.200000	 54.3114
6.284000	 54.2132
6.368000	 54.145
6.452000	 54.0902
6.536000	 53.8661
6.620000	 53.9689
6.704000	 53.6926
6.788000	 53.5575
6.872000	 53.493
6.956000	 53.2288
7.040000	 53.0022
7.124000	 52.8283
7.208000	 52.7922
7.292000	 52.6632
7.376000	 52.5248
7.460000	 52.4336
7.544000	 52.4254
7.628000	 52.2629
7.712000	 52.1107
7.796000	 52.0819
7.880000	 51.842
7.964000	 51.8901
8.048000	 51.6569
8.132000	 51.6711
8.216000	 51.5873
8.300000	 51.5155
8.384000	 51.3849
8.468000	 51.3149
8.552000	 51.2962
8.635999	 51.2139
8.719999	 51.2113
8.804000	 51.1334
8.888000	 50.9425
8.972000	 50.7839
9.056000	 50.6572
9.140000	 50.6616
9.224000	 50.5751
9.308000	 50.3829
9.391999	 50.442
9.475999	 50.4558
9.560000	 50.3593
9.644000	 50.2524
9.728000	 50.2263
9.812000	 50.3263
9.896000	 49.9416
9.980000	 49.9128
10.064	49.8662
10.148	49.9799
10.232	49.8415
10.316	49.5986
10.4	49.4329
10.484	49.4935
10.568	49.3538
10.652	49.3124
10.736	49.1462
10.82	49.0151
10.904	48.9771
10.988	48.8685
11.072	48.9968
11.156	49.1443
11.24	49.1768
11.324	49.1009
11.408	48.6592
11.492	48.8841
11.576	49.0078
11.66	48.8708
11.744	48.5533
11.828	48.3967
11.912	48.2597
11.996	48.502
12.08	48.2146
12.164	47.5547
12.248	47.3618
12.332	47.4995
12.416	47.4846
12.5	47.4173
12.584	47.5347
12.668	47.5076
12.752	47.5538
12.836	47.9375
12.92	47.9163
13.004	47.7692
13.088	47.6694
13.172	47.6279
13.256	47.5438
13.34	47.385
13.424	47.2073
13.508	47.1085
13.592	47.2468
13.676	47.1725
13.76	46.796
13.844	46.775
13.928	46.9344
14.012	46.6758
14.096	46.3767
14.18	46.2892
14.264	46.2508
14.348	46.2865
14.432	46.2299
14.516	46.093
14.6	45.992
14.684	45.9274
14.768	46.0458
14.852	46.19
14.936	46.1328
15.02	46.0434
15.104	46.009
15.188	45.9379
15.272	45.7892
15.356	45.5993
15.44	45.4749
15.524	45.3826
15.608	45.2722
15.692	45.271
15.776	45.3042
15.86	45.1743
15.944	45.0348
16.028	45.0748
16.112	45.1508
16.196	45.0753
16.28	44.8877
16.364	44.7796
16.448	44.8042
16.532	44.7837
16.616	44.618
16.7	44.4399
16.784	44.3484
16.868	44.2885
16.952	44.2165
17.036	44.2004
17.12	44.3057
17.204	44.464
17.288	44.5385
17.372	44.488
17.456	44.3663
17.54	44.1966
17.624	44.0073
17.708	43.9182
17.792	44.0086
17.876	44.1491
17.96	44.1024
18.044	43.8129
18.128	43.4966
18.212	43.3581
18.296	43.3564
18.38	43.3234
18.464	43.2011
18.548	43.0673
18.632	42.9928
18.716	42.9583
18.8	42.894
18.884	42.7477
18.968	42.5424
19.052	42.3806
19.136	42.3581
19.22	42.4624
19.304	42.5866
19.388	42.6492
19.472	42.6587
19.556	42.6403
19.64	42.5713
19.724	42.4368
19.808	42.325
19.892	42.3805
19.976	42.6485
20.06	42.9915
20.144	43.1771
20.228	43.0507
20.312	42.6202
20.396	42.0176
20.48	41.4211
20.564	40.9988
20.648	40.8756
20.732	41.0829
20.816	41.5314
20.9	42.0217
20.984	42.3231
21.068	42.2897
21.152	41.9379
21.236	41.4288
21.32	40.9742
21.404	40.7134
21.488	40.6629
21.572	40.7471
21.656	40.8658
21.74	40.945
21.824	40.9345
21.908	40.7978
21.992	40.5332
22.076	40.1987
22.16	39.9141
22.244	39.8016
22.328	39.8898
22.412	40.0759
22.496	40.1582
22.58	39.9645
22.664	39.4448
22.748	38.7245
22.832	38.03
22.916	37.5805
23	37.4821
23.084	37.7116
23.168	38.1354
23.252	38.5819
23.336	38.892
23.42	38.9987
23.504	38.8933
23.588	38.6208
23.672	38.268
23.756	37.9621
23.84	37.8234
23.924	37.9351
24.008	38.2843
24.092	38.7199
24.176	38.9841
24.26	38.8847
24.344	38.3487
24.428	37.4915
24.512	36.7011
24.596	36.4374
24.68	36.9004
24.764	37.7991
24.848	38.4437
24.932	38.1148
25.016	36.5515
25.1	34.1794
25.184	31.738
25.268	29.8932
25.352	29.0039
25.436	29.288
25.52	30.845
25.604	33.6209
25.688	36.9608
25.772	39.5238
25.856	39.6997
25.94	36.2962
26.024	29.1641
26.108	19.5199
26.192	9.329543
26.276	0.608861
26.36	-5.223266
26.444	-7.719199
26.528	-7.258059
26.612	-4.565136
26.696	-0.275526
26.78	5.300680
26.864	12.16
26.948	20.3531
27.028	29.0739