File: Bakgrunnsmateriale/MATLAB/FTIR/ftir_data/subBb/Mapping_121/C-4040-8_t14_cm-1.asc
PE IR       SPECTRUM    SPECTRUM    ASCII       PEDS        1.60
  -1
C-1A6F~1.ASC
17/03/27
15:36:10.00
17/03/27
15:36:10.00
tln
$C-4040-8_t0014$<tbV0>[7.8,-10.4,8.0,0.0,27,1,0]
370
64

2002,4.07
MIRTGS : RIGHTBACK : INTERNAL 2
MIR : ON : INTERNAL 2
OPTKBR

0.200000
8
8.000000
FILLER
RATIO
SPECTRUM
UNLOCKED 256

DOUBLE
64
COMBINED
1
0
0

1.000000
RATIO

1
0
TRUE
51149
0
LEFT NOT FITTED RIGHT NOT FITTED 0
NONE
NONE
15600
12
4.427000
51148
TRUE
1 0 8 72 0 0 0 0

15798

#HDR
-1
-1
#GR
CM-1
%T
2.38419e-05
0.0
5000
-1.000000
4631
8
68.249
11.8022
#DATA
5000	63.0001
4984	62.8776
4968	62.4322
4952	62.9985
4936	62.3006
4920	62.8906
4904	63.8429
4888	62.7002
4872	63.3096
4856	63.018
4840	63.287
4824	62.7236
4808	62.7428
4792	62.5525
4776	63.2606
4760	62.4852
4744	62.9528
4728	62.7133
4712	62.6117
4696	62.9557
4680	62.9568
4664	62.7835
4648	62.4828
4632	62.6114
4616	62.6196
4600	62.5342
4584	62.2464
4568	62.4758
4552	62.1859
4536	61.8154
4520	61.8082
4504	62.2471
4488	61.7207
4472	62.3702
4456	63.4232
4440	64.9703
4424	61.3059
4408	60.2042
4392	60.697
4376	64.5887
4360	62.1956
4344	61.9791
4328	61.8301
4312	61.6736
4296	61.4996
4280	61.5351
4264	61.3565
4248	61.3399
4232	61.655
4216	61.7237
4200	61.6205
4184	60.6256
4168	61.9566
4152	61.4154
4136	61.6164
4120	61.7946
4104	61.2757
4088	61.7456
4072	61.5229
4056	61.6782
4040	61.5084
4024	61.6639
4008	61.5005
3992	61.3571
3976	60.7781
3960	60.9877
3944	60.9277
3928	60.9688
3912	60.8826
3896	60.96
3880	60.9282
3864	60.8207
3848	60.9747
3832	60.944
3816	60.6608
3800	60.6434
3784	60.394
3768	60.4888
3752	60.7269
3736	60.575
3720	60.4041
3704	60.0806
3688	60.1561
3672	60.2038
3656	59.8286
3640	59.7739
3624	59.6271
3608	59.5795
3592	59.6089
3576	59.3584
3560	59.375
3544	59.0011
3528	59.0652
3512	58.7358
3496	58.6881
3480	58.849
3464	58.7644
3448	58.5996
3432	58.3309
3416	58.0302
3400	58.1757
3384	57.8543
3368	57.986
3352	57.7962
3336	57.7315
3320	57.538
3304	57.3622
3288	57.3326
3272	57.2609
3256	56.9075
3240	56.8262
3224	56.8762
3208	56.7377
3192	56.3978
3176	56.303
3160	56.2647
3144	56.2702
3128	55.9439
3112	55.9819
3096	55.5907
3080	55.7237
3064	55.6036
3048	55.4139
3032	55.2383
3016	55.144
3000	54.7588
2984	54.7723
2968	54.6005
2952	54.1497
2936	54.2424
2920	53.8833
2904	53.7789
2888	53.636
2872	53.5744
2856	53.4099
2840	53.3125
2824	53.1879
2808	53.0013
2792	52.8306
2776	52.6088
2760	52.3761
2744	52.3766
2728	52.181
2712	51.7995
2696	51.7391
2680	51.4968
2664	51.2607
2648	51.0848
2632	50.9408
2616	50.6842
2600	50.6413
2584	50.337
2568	50.1203
2552	49.9882
2536	49.8863
2520	49.6289
2504	49.3732
2488	49.1717
2472	49.0692
2456	48.7828
2440	48.8176
2424	48.4217
2408	48.1588
2392	48.0186
2376	47.7391
2360	47.712
2344	47.2785
2328	47.1992
2312	47.0283
2296	46.8336
2280	46.5694
2264	46.433
2248	46.1965
2232	45.9209
2216	45.7472
2200	45.4342
2184	45.2568
2168	44.9868
2152	44.9201
2136	44.8086
2120	44.4165
2104	44.2815
2088	43.9835
2072	43.6358
2056	43.3944
2040	43.3184
2024	43.1169
2008	42.9334
1992	42.7142
1976	42.4436
1960	42.2097
1944	42.0241
1928	41.8594
1912	41.5801
1896	41.315
1880	41.0235
1864	40.8286
1848	40.7057
1832	40.4319
1816	40.3041
1800	39.9273
1784	39.8597
1768	39.6081
1752	39.2409
1736	39.1996
1720	38.9879
1704	38.7061
1688	38.6044
1672	38.2115
1656	38.2397
1640	37.7731
1624	37.5576
1608	37.283
1592	36.979
1576	36.9569
1560	36.9162
1544	36.4559
1528	36.1955
1512	36.2772
1496	35.8688
1480	35.4587
1464	35.4059
1448	35.1273
1432	34.8518
1416	34.7087
1400	34.4084
1384	34.115
1368	33.9933
1352	33.76
1336	33.3984
1320	33.2464
1304	33.0135
1288	32.7999
1272	32.487
1256	32.3071
1240	32.0552
1224	31.9742
1208	31.7966
1192	31.467
1176	31.1933
1160	31.0988
1144	30.9414
1128	30.6315
1112	30.4255
1096	29.9169
1080	29.8187
1064	29.7493
1048	29.5686
1032	29.1532
1016	28.9885
1000	28.9063
984	 28.2684
968	 28.0975
952	 27.7046
936	 27.756
920	 27.6115
904	 26.516
888	 27.1463
872	 26.9268
856	 26.0511
840	 25.4627
824	 25.5025
808	 25.2845
792	 24.9078
776	 24.7239
760	 24.4844
744	 24.1034
728	 23.8046
712	 23.0011
696	 23.1391
680	 22.2968
664	 22.0122
648	 21.2605
632	 21.0777
616	 20.5905
600	 20.4203
584	 19.5215
568	 18.7716
552	 18.204
536	 18.0512
520	 16.6565
504	 16.4671
488	 15.5615
472	 14.9986
456	 13.88
440	 14.7012
424	 13.6074
408	 17.3524
392	 20.2345
376	 51.5233
370	 54.7353