File: Bakgrunnsmateriale/MATLAB/FTIR/ftir_data/subBb/Mapping_121/C-4040-8_t08_cm-1.asc
PE IR       SPECTRUM    SPECTRUM    ASCII       PEDS        1.60
  -1
C-9965~1.ASC
17/03/27
15:07:52.00
17/03/27
15:07:52.00
tln
$C-4040-8_t0008$<tbV0>[-5.2,-13.0,8.0,0.0,27,1,0]
370
64

2002,4.07
MIRTGS : RIGHTBACK : INTERNAL 2
MIR : ON : INTERNAL 2
OPTKBR

0.200000
8
8.000000
FILLER
RATIO
SPECTRUM
UNLOCKED 256

DOUBLE
64
COMBINED
1
0
0

1.000000
RATIO

1
0
TRUE
51149
0
LEFT NOT FITTED RIGHT NOT FITTED 0
NONE
NONE
15600
12
4.427000
51148
TRUE
1 0 8 72 0 0 0 0

15798

#HDR
-1
-1
#GR
CM-1
%T
2.38419e-05
0.0
5000
-1.000000
4631
8
92.212
25.6097
#DATA
5000	63.8279
4984	64.0867
4968	64.0755
4952	63.9061
4936	63.2074
4920	63.9505
4904	64.7186
4888	64.3076
4872	64.674
4856	64.029
4840	64.5262
4824	64.2006
4808	64.5337
4792	64.2693
4776	64.4699
4760	64.4156
4744	64.6631
4728	64.212
4712	64.3056
4696	64.3344
4680	64.6324
4664	64.2345
4648	64.1747
4632	64.4813
4616	64.2505
4600	64.1525
4584	63.8021
4568	63.818
4552	63.8173
4536	62.9086
4520	63.6889
4504	63.7056
4488	62.8928
4472	62.8695
4456	64.8245
4440	65.9042
4424	61.2133
4408	60.6598
4392	74.2269
4376	66.4244
4360	64.5529
4344	63.1693
4328	63.2667
4312	63.0498
4296	63.4284
4280	63.4716
4264	63.2432
4248	63.4794
4232	63.7522
4216	63.6001
4200	63.9135
4184	63.3123
4168	63.3583
4152	63.8609
4136	64.0293
4120	63.925
4104	64.2109
4088	64.3112
4072	63.8068
4056	64.179
4040	64.168
4024	63.9611
4008	64.1554
3992	64.3251
3976	63.8478
3960	63.8878
3944	64.0034
3928	63.8776
3912	63.8948
3896	64.0553
3880	63.8839
3864	63.948
3848	63.8874
3832	63.8802
3816	63.6245
3800	63.9327
3784	63.4243
3768	63.8693
3752	63.9797
3736	63.9759
3720	63.83
3704	63.9288
3688	63.9124
3672	63.9028
3656	63.6697
3640	63.582
3624	63.7063
3608	63.5426
3592	63.8188
3576	63.5772
3560	63.6364
3544	63.5411
3528	63.4322
3512	63.33
3496	63.4468
3480	63.3856
3464	63.2853
3448	63.2962
3432	63.1895
3416	62.9832
3400	63.0552
3384	63.2
3368	63.028
3352	62.9328
3336	62.8732
3320	62.9578
3304	62.8682
3288	62.6892
3272	62.7963
3256	62.779
3240	62.7366
3224	62.8263
3208	62.8948
3192	62.6615
3176	62.6068
3160	62.807
3144	62.4927
3128	62.4823
3112	62.5955
3096	62.5144
3080	62.4759
3064	62.4934
3048	62.5402
3032	62.3225
3016	62.4135
3000	62.4232
2984	62.1325
2968	61.8025
2952	61.8241
2936	62.0463
2920	61.8286
2904	61.8702
2888	61.8447
2872	61.8981
2856	61.7279
2840	61.9488
2824	61.8555
2808	61.9536
2792	61.6276
2776	61.782
2760	61.6934
2744	61.7336
2728	61.5372
2712	61.5278
2696	61.6266
2680	61.3202
2664	61.1924
2648	61.239
2632	61.1295
2616	61.1643
2600	61.0346
2584	61.0493
2568	60.8708
2552	60.8725
2536	60.8017
2520	60.8768
2504	60.6893
2488	60.6611
2472	60.6902
2456	60.6337
2440	60.5158
2424	60.2862
2408	60.4223
2392	60.3603
2376	60.4142
2360	60.3089
2344	60.0561
2328	60.0877
2312	60.1203
2296	59.9192
2280	59.9235
2264	59.9281
2248	59.8773
2232	59.7294
2216	59.6967
2200	59.5714
2184	59.3502
2168	59.4748
2152	59.4395
2136	59.295
2120	59.088
2104	59.1381
2088	59.1154
2072	58.8297
2056	58.9752
2040	58.8754
2024	58.6951
2008	58.7719
1992	58.6653
1976	58.5076
1960	58.465
1944	58.4902
1928	58.3562
1912	58.3267
1896	58.2243
1880	58.1225
1864	58.1204
1848	57.9677
1832	57.8532
1816	57.796
1800	57.7455
1784	57.7368
1768	57.7129
1752	57.5166
1736	57.4516
1720	57.4992
1704	57.3914
1688	57.3
1672	57.3308
1656	57.416
1640	56.9793
1624	56.8366
1608	56.7075
1592	56.5818
1576	56.6491
1560	56.9493
1544	56.622
1528	56.3101
1512	56.3839
1496	56.0112
1480	56.0369
1464	55.9862
1448	55.8066
1432	55.6772
1416	55.7157
1400	55.4619
1384	55.3237
1368	55.3186
1352	55.3139
1336	55.0052
1320	55.1853
1304	54.8281
1288	54.8394
1272	54.6023
1256	54.6206
1240	54.5451
1224	54.5899
1208	54.3847
1192	54.2273
1176	54.1689
1160	54.0478
1144	54.0213
1128	53.9552
1112	53.8034
1096	53.6024
1080	53.3303
1064	53.5269
1048	53.5121
1032	53.344
1016	53.0125
1000	53.2527
984	 52.999
968	 53.0159
952	 52.7832
936	 52.4906
920	 52.7556
904	 51.6107
888	 51.7468
872	 52.181
856	 51.5924
840	 51.6044
824	 51.782
808	 51.317
792	 50.9682
776	 50.8694
760	 51.0093
744	 50.7568
728	 50.5889
712	 50.2298
696	 49.9781
680	 49.8129
664	 49.56
648	 49.2646
632	 49.019
616	 48.7006
600	 49.1041
584	 48.7201
568	 48.1665
552	 47.2705
536	 47.0967
520	 45.8554
504	 46.0876
488	 45.9735
472	 45.3264
456	 44.7165
440	 45.367
424	 45.0269
408	 46.5848
392	 25.6951
376	 48.8819
370	 33.2792