File: Bakgrunnsmateriale/MATLAB/FTIR/ftir_data/subBb/Mapping_121/C-4040-8_t04.asc
PE IR       SPECTRUM    SPECTRUM    ASCII       PEDS        1.60
  -1
C-B52A~1.ASC
17/03/27
14:49:25.00
17/03/27
14:49:51.00
tln
$C-4040-8_t0004$<tbV0>[5.2,-13.0,8.0,0.0,27,1,0]
27.028
64

2002,4.07
MIRTGS : RIGHTBACK : INTERNAL 2
MIR : ON : INTERNAL 2
OPTKBR

0.200000
8
8.000000
FILLER
RATIO
SPECTRUM
UNLOCKED 256

DOUBLE
64
COMBINED
1
0
0

0.002000
RATIO

1
0
TRUE
51149
0
LEFT NOT FITTED RIGHT NOT FITTED 0
NONE
NONE
15600
12
4.427000
51148
TRUE
1 0 8 72 0 0 0 0

15798

#HDR
-1
-1
#GR
µM
%T
2.38419e-05
0.0
2.000000
0.002000
12515
8
69.624
-0.073742
#DATA
2.000000	 63.5407
2.084000	 62.9603
2.168000	 63.2424
2.252000	 66.3176
2.336000	 62.8322
2.420000	 62.8055
2.504000	 62.6987
2.588000	 62.2462
2.672000	 62.288
2.756000	 61.6214
2.840000	 61.0915
2.924000	 60.5457
3.008000	 60.0827
3.092000	 59.7188
3.176000	 59.3682
3.260000	 59.0116
3.344000	 58.4238
3.428000	 57.7436
3.512000	 57.2674
3.596000	 57.0606
3.680000	 56.6152
3.764000	 56.0387
3.848000	 55.5841
3.932000	 55.2077
4.016000	 54.6485
4.100000	 54.5679
4.184000	 53.8532
4.268000	 53.3164
4.352000	 53.1466
4.436000	 52.6783
4.520000	 52.2466
4.604000	 51.9529
4.688000	 51.5737
4.772000	 51.1484
4.856000	 50.8092
4.940000	 50.4526
5.024000	 50.2111
5.108000	 49.8245
5.192000	 49.4887
5.276000	 49.2385
5.359999	 48.8282
5.444000	 48.56
5.528000	 48.2496
5.612000	 48.0596
5.696000	 47.8293
5.780000	 47.565
5.864000	 47.3079
5.948000	 47.0945
6.032000	 46.912
6.116000	 46.5344
6.200000	 46.2544
6.284000	 46.0444
6.368000	 45.8364
6.452000	 45.655
6.536000	 45.4235
6.620000	 45.3637
6.704000	 44.9647
6.788000	 44.6879
6.872000	 44.8068
6.956000	 44.4172
7.040000	 44.3123
7.124000	 44.0173
7.208000	 43.8317
7.292000	 43.646
7.376000	 43.4897
7.460000	 43.1598
7.544000	 43.1362
7.628000	 42.9385
7.712000	 42.8247
7.796000	 42.5416
7.880000	 42.3898
7.964000	 42.3185
8.048000	 42.058
8.132000	 42.2105
8.216000	 41.7898
8.300000	 41.6801
8.384000	 41.5404
8.468000	 41.3486
8.552000	 41.2572
8.635999	 41.1969
8.719999	 40.9633
8.804000	 41.0308
8.888000	 40.8582
8.972000	 40.5739
9.056000	 40.5736
9.140000	 40.3025
9.224000	 40.2038
9.308000	 40.1292
9.391999	 40.0496
9.475999	 39.9172
9.560000	 39.9636
9.644000	 39.7915
9.728000	 39.6161
9.812000	 39.6823
9.896000	 39.543
9.980000	 39.1739
10.064	39.2046
10.148	39.2897
10.232	39.0544
10.316	38.6695
10.4	38.7987
10.484	38.7624
10.568	38.6668
10.652	38.5319
10.736	38.1251
10.82	38.0252
10.904	38.2653
10.988	38.1234
11.072	37.8798
11.156	37.7895
11.24	37.9638
11.324	37.776
11.408	37.7093
11.492	37.4033
11.576	37.1186
11.66	37.3321
11.744	37.19
11.828	36.774
11.912	36.9546
11.996	36.9023
12.08	36.5325
12.164	36.0924
12.248	36.4698
12.332	36.6632
12.416	36.4754
12.5	36.2086
12.584	36.1595
12.668	35.9107
12.752	35.7978
12.836	35.8548
12.92	35.7186
13.004	35.4099
13.088	34.9888
13.172	34.8778
13.256	35.5299
13.34	35.8625
13.424	35.9451
13.508	35.6405
13.592	34.7353
13.676	34.3611
13.76	34.6468
13.844	34.7774
13.928	34.888
14.012	34.9975
14.096	34.6432
14.18	33.8932
14.264	33.4387
14.348	33.6407
14.432	33.9086
14.516	33.6836
14.6	33.2871
14.684	33.2351
14.768	33.4353
14.852	33.5143
14.936	33.458
15.02	33.4347
15.104	33.4395
15.188	33.4498
15.272	33.3878
15.356	33.1553
15.44	32.8265
15.524	32.4999
15.608	32.2407
15.692	32.1319
15.776	32.2012
15.86	32.4015
15.944	32.5494
16.028	32.4878
16.112	32.3401
16.196	32.2967
16.28	32.285
16.364	32.0968
16.448	31.7343
16.532	31.4305
16.616	31.3069
16.7	31.2726
16.784	31.2551
16.868	31.2208
16.952	31.1031
17.036	30.8912
17.12	30.6791
17.204	30.5754
17.288	30.6325
17.372	30.775
17.456	30.8212
17.54	30.6807
17.624	30.4789
17.708	30.4002
17.792	30.471
17.876	30.5242
17.96	30.3574
18.044	29.9353
18.128	29.4711
18.212	29.2381
18.296	29.2986
18.38	29.4626
18.464	29.5265
18.548	29.4706
18.632	29.4033
18.716	29.384
18.8	29.359
18.884	29.2304
18.968	28.9607
19.052	28.6211
19.136	28.3418
19.22	28.2128
19.304	28.2121
19.388	28.2369
19.472	28.194
19.556	28.0576
19.64	27.8569
19.724	27.6371
19.808	27.4451
19.892	27.3266
19.976	27.3144
20.06	27.394
20.144	27.4911
20.228	27.5081
20.312	27.3859
20.396	27.1447
20.48	26.8717
20.564	26.669
20.648	26.5885
20.732	26.6248
20.816	26.7422
20.9	26.9015
20.984	27.0466
21.068	27.0936
21.152	26.9474
21.236	26.561
21.32	25.9717
21.404	25.2905
21.488	24.6486
21.572	24.1525
21.656	23.8872
21.74	23.9154
21.824	24.258
21.908	24.8497
21.992	25.5292
22.076	26.1011
22.16	26.4265
22.244	26.4955
22.328	26.4145
22.412	26.3175
22.496	26.2851
22.58	26.2982
22.664	26.2873
22.748	26.199
22.832	26.0269
22.916	25.7957
23	25.5343
23.084	25.2281
23.168	24.8556
23.252	24.4323
23.336	24.0175
23.42	23.7555
23.504	23.7826
23.588	24.1383
23.672	24.7429
23.756	25.4345
23.84	26.0774
23.924	26.6612
24.008	27.2675
24.092	27.9662
24.176	28.7378
24.26	29.4327
24.344	29.8036
24.428	29.6005
24.512	28.5872
24.596	26.6504
24.68	23.8067
24.764	20.2167
24.848	16.1164
24.932	11.9126
25.016	8.137172
25.1	5.291764
25.184	3.787308
25.268	3.794319
25.352	5.210650
25.436	7.795154
25.52	11.2614
25.604	15.3304
25.688	19.5367
25.772	23.2336
25.856	25.7921
25.94	26.9523
26.024	27.013
26.108	26.7702
26.192	26.9755
26.276	27.9289
26.36	29.2762
26.444	30.2383
26.528	29.9628
26.612	28.09
26.696	24.5603
26.78	19.5468
26.864	13.3341
26.948	6.401305
27.028	-0.073742