File: Bakgrunnsmateriale/MATLAB/FTIR/ftir_data/subBb/Mapping_121/C-4040-8_t65.asc
PE IR       SPECTRUM    SPECTRUM    ASCII       PEDS        1.60
  -1
C-BD3E~1.ASC
17/03/27
19:46:50.00
17/03/27
19:47:16.00
tln
$C-4040-8_t0065$<tbV0>[-10.4,0.0,8.0,0.0,27,1,0]
27.028
64

2002,4.07
MIRTGS : RIGHTBACK : INTERNAL 2
MIR : ON : INTERNAL 2
OPTKBR

0.200000
8
8.000000
FILLER
RATIO
SPECTRUM
UNLOCKED 256

DOUBLE
64
COMBINED
1
0
0

0.002000
RATIO

1
0
TRUE
51149
0
LEFT NOT FITTED RIGHT NOT FITTED 0
NONE
NONE
15600
12
4.427000
51148
TRUE
1 0 8 72 0 0 0 0

15798

#HDR
-1
-1
#GR
µM
%T
2.38419e-05
0.0
2.000000
0.002000
12515
8
90.8445
37.8932
#DATA
2.000000	 64.7607
2.084000	 64.6697
2.168000	 64.638
2.252000	 65.1474
2.336000	 65.7192
2.420000	 64.8076
2.504000	 64.9572
2.588000	 65.0792
2.672000	 64.9915
2.756000	 64.7711
2.840000	 64.9316
2.924000	 65.3004
3.008000	 65.2342
3.092000	 65.1032
3.176000	 65.1642
3.260000	 65.1498
3.344000	 65.1185
3.428000	 64.7039
3.512000	 64.9737
3.596000	 64.9934
3.680000	 65.1247
3.764000	 65.1522
3.848000	 65.2287
3.932000	 65.1684
4.016000	 65.0995
4.100000	 65.1436
4.184000	 65.2217
4.268000	 65.1357
4.352000	 65.2708
4.436000	 65.3468
4.520000	 65.2567
4.604000	 65.1972
4.688000	 65.2041
4.772000	 65.1347
4.856000	 65.0986
4.940000	 65.2967
5.024000	 65.3119
5.108000	 65.1434
5.192000	 65.2075
5.276000	 65.2498
5.359999	 65.0499
5.444000	 65.3176
5.528000	 65.2745
5.612000	 65.1125
5.696000	 65.1081
5.780000	 65.0083
5.864000	 65.0505
5.948000	 65.2576
6.032000	 65.0131
6.116000	 65.0125
6.200000	 65.0613
6.284000	 64.9396
6.368000	 65.0875
6.452000	 64.8738
6.536000	 64.9065
6.620000	 65.111
6.704000	 65.0724
6.788000	 64.9434
6.872000	 64.71
6.956000	 64.8946
7.040000	 65.1272
7.124000	 65.0689
7.208000	 65.1056
7.292000	 65.019
7.376000	 65.1572
7.460000	 64.9499
7.544000	 65.0496
7.628000	 64.9863
7.712000	 64.9983
7.796000	 65.0226
7.880000	 64.9698
7.964000	 64.9667
8.048000	 64.9243
8.132000	 64.7556
8.216000	 64.8664
8.300000	 65.0924
8.384000	 64.8098
8.468000	 64.7436
8.552000	 64.8605
8.635999	 65.0198
8.719999	 64.9415
8.804000	 64.6101
8.888000	 64.7816
8.972000	 64.7838
9.056000	 64.3514
9.140000	 64.5525
9.224000	 65.2266
9.308000	 64.7533
9.391999	 64.7621
9.475999	 64.8335
9.560000	 64.8012
9.644000	 64.861
9.728000	 64.7045
9.812000	 64.2607
9.896000	 64.9026
9.980000	 64.8561
10.064	64.9775
10.148	64.5407
10.232	64.4208
10.316	64.0933
10.4	64.621
10.484	65.1391
10.568	64.8147
10.652	64.5627
10.736	64.8801
10.82	64.837
10.904	64.8998
10.988	64.6377
11.072	64.6451
11.156	64.4511
11.24	64.3669
11.324	64.6448
11.408	64.5745
11.492	64.445
11.576	64.387
11.66	64.4697
11.744	64.4816
11.828	64.3056
11.912	64.2124
11.996	64.2675
12.08	64.1349
12.164	64.4434
12.248	64.5584
12.332	64.4526
12.416	64.3562
12.5	64.4295
12.584	64.2331
12.668	63.7345
12.752	63.8039
12.836	64.2985
12.92	64.4732
13.004	64.3617
13.088	64.3007
13.172	64.3501
13.256	64.0892
13.34	64.2427
13.424	64.1597
13.508	63.7684
13.592	64.0362
13.676	63.931
13.76	63.5467
13.844	63.3046
13.928	63.2571
14.012	63.469
14.096	63.571
14.18	63.574
14.264	63.7231
14.348	63.9669
14.432	64.0588
14.516	63.7763
14.6	63.2667
14.684	62.9876
14.768	63.1982
14.852	63.5518
14.936	63.4963
15.02	63.2282
15.104	63.2452
15.188	63.4713
15.272	63.5162
15.356	63.2279
15.44	62.8572
15.524	62.7959
15.608	63.0506
15.692	63.149
15.776	62.9731
15.86	62.9134
15.944	63.0528
16.028	63.1689
16.112	63.2281
16.196	63.2885
16.28	63.3059
16.364	63.2492
16.448	63.222
16.532	63.2474
16.616	63.1559
16.7	62.9015
16.784	62.6947
16.868	62.6557
16.952	62.6667
17.036	62.6042
17.12	62.4647
17.204	62.2809
17.288	62.0914
17.372	61.9857
17.456	62.0514
17.54	62.252
17.624	62.44
17.708	62.5245
17.792	62.5654
17.876	62.6572
17.96	62.7718
18.044	62.805
18.128	62.7376
18.212	62.66
18.296	62.607
18.38	62.4814
18.464	62.2147
18.548	61.9138
18.632	61.7417
18.716	61.722
18.8	61.7631
18.884	61.8301
18.968	61.946
19.052	62.0351
19.136	61.9295
19.22	61.5789
19.304	61.1656
19.388	60.948
19.472	61.0296
19.556	61.296
19.64	61.5522
19.724	61.6867
19.808	61.6994
19.892	61.6279
19.976	61.502
20.06	61.3648
20.144	61.2668
20.228	61.2206
20.312	61.1772
20.396	61.0689
20.48	60.8823
20.564	60.6805
20.648	60.5432
20.732	60.4997
20.816	60.505
20.9	60.4708
20.984	60.3312
21.068	60.097
21.152	59.8686
21.236	59.7863
21.32	59.9338
21.404	60.2508
21.488	60.5628
21.572	60.6965
21.656	60.6166
21.74	60.4535
21.824	60.3864
21.908	60.4826
21.992	60.6489
22.076	60.7228
22.16	60.6224
22.244	60.4323
22.328	60.3276
22.412	60.4349
22.496	60.6993
22.58	60.8944
22.664	60.7634
22.748	60.1646
22.832	59.1567
22.916	58.0073
23	57.0895
23.084	56.7134
23.168	57.0062
23.252	57.8443
23.336	58.9205
23.42	59.9105
23.504	60.5972
23.588	60.913
23.672	60.8747
23.756	60.5132
23.84	59.8638
23.924	59.0414
24.008	58.2708
24.092	57.8859
24.176	58.2739
24.26	59.6651
24.344	62.0019
24.428	64.9065
24.512	67.7458
24.596	69.8435
24.68	70.7618
24.764	70.5328
24.848	69.574
24.932	68.4701
25.016	67.658
25.1	67.2782
25.184	67.1787
25.268	67.0753
25.352	66.7772
25.436	66.3236
25.52	66.0521
25.604	66.4699
25.688	68.0555
25.772	71.0657
25.856	75.4025
25.94	80.5994
26.024	85.7308
26.108	89.5581
26.192	90.8208
26.276	88.5679
26.36	82.42
26.444	72.9716
26.528	61.7662
26.612	50.8801
26.696	42.4812
26.78	38.26
26.864	38.7858
26.948	43.3708
27.028	49.8614