File: Bakgrunnsmateriale/MATLAB/FTIR/ftir_data/subBb/Mapping_121/C-4040-8_t98_cm-1.asc
PE IR       SPECTRUM    SPECTRUM    ASCII       PEDS        1.60
  -1
C-1E65~1.ASC
17/03/27
22:32:57.00
17/03/27
22:32:57.00
tln
$C-4040-8_t0098$<tbV0>[-10.4,7.8,8.0,0.0,27,1,0]
370
64

2002,4.07
MIRTGS : RIGHTBACK : INTERNAL 2
MIR : ON : INTERNAL 2
OPTKBR

0.200000
8
8.000000
FILLER
RATIO
SPECTRUM
UNLOCKED 256

DOUBLE
64
COMBINED
1
0
0

1.000000
RATIO

1
0
TRUE
51149
0
LEFT NOT FITTED RIGHT NOT FITTED 0
NONE
NONE
15600
12
4.427000
51148
TRUE
1 0 8 72 0 0 0 0

15798

#HDR
-1
-1
#GR
CM-1
%T
2.38419e-05
0.0
5000
-1.000000
4631
8
176.239
47.841
#DATA
5000	65.0917
4984	64.851
4968	64.8722
4952	64.9093
4936	64.4676
4920	64.739
4904	64.6998
4888	65.4725
4872	65.7653
4856	64.8544
4840	64.7644
4824	64.5954
4808	64.5388
4792	65.0954
4776	65.2813
4760	65.2964
4744	65.1644
4728	65.2351
4712	65.4992
4696	65.237
4680	64.8274
4664	65.3477
4648	65.8993
4632	65.1731
4616	65.0328
4600	64.7813
4584	65.6128
4568	64.7552
4552	64.6787
4536	63.4449
4520	64.4436
4504	64.093
4488	63.4573
4472	63.4132
4456	63.7138
4440	63.6839
4424	63.4228
4408	62.9679
4392	73.5603
4376	63.5282
4360	63.5786
4344	63.367
4328	63.4854
4312	63.3116
4296	63.9362
4280	63.7982
4264	64.0278
4248	63.9069
4232	64.4677
4216	64.4414
4200	64.331
4184	65.2794
4168	64.9163
4152	65.1182
4136	65.4385
4120	65.0776
4104	65.2966
4088	65.4805
4072	65.2391
4056	64.9052
4040	65.3301
4024	65.337
4008	65.2896
3992	65.2823
3976	64.9481
3960	65.098
3944	64.9837
3928	64.8943
3912	65.3033
3896	65.064
3880	64.6139
3864	65.0363
3848	65.0639
3832	65.01
3816	64.901
3800	64.9282
3784	65.1737
3768	65.1556
3752	65.1795
3736	65.0687
3720	65.3007
3704	65.1565
3688	65.5308
3672	65.2642
3656	65.0726
3640	65.346
3624	65.249
3608	65.0254
3592	65.3888
3576	65.2953
3560	65.3679
3544	64.995
3528	65.4018
3512	65.203
3496	65.384
3480	64.8479
3464	65.6941
3448	64.7431
3432	64.9604
3416	65.1174
3400	65.1361
3384	64.9593
3368	64.9424
3352	65.1072
3336	65.0027
3320	64.9624
3304	64.9773
3288	64.9973
3272	65.0494
3256	65.2596
3240	65.0614
3224	65.2058
3208	65.4558
3192	65.3222
3176	65.2531
3160	65.2763
3144	65.0119
3128	65.3407
3112	64.9072
3096	65.2073
3080	65.1609
3064	64.9797
3048	65.1161
3032	65.2506
3016	65.205
3000	65.2243
2984	65.0724
2968	65.2393
2952	65.1075
2936	64.9478
2920	64.5314
2904	65.0958
2888	64.986
2872	64.8303
2856	65.053
2840	65.0626
2824	65.0909
2808	65.181
2792	65.2976
2776	65.1539
2760	65.2529
2744	65.1171
2728	65.2147
2712	65.171
2696	65.3267
2680	65.2217
2664	65.5425
2648	65.1416
2632	65.1278
2616	65.2603
2600	65.1013
2584	65.3147
2568	65.1393
2552	65.2484
2536	65.1608
2520	65.0094
2504	65.1129
2488	65.2682
2472	65.2915
2456	65.3151
2440	64.9784
2424	64.4549
2408	65.0698
2392	65.235
2376	65.2907
2360	65.2456
2344	65.1817
2328	65.2112
2312	65.1667
2296	65.2575
2280	65.2373
2264	65.2369
2248	65.2015
2232	65.1791
2216	65.3055
2200	65.239
2184	65.2235
2168	65.2797
2152	65.5613
2136	65.3407
2120	65.1513
2104	65.3155
2088	64.9922
2072	65.2306
2056	64.8998
2040	65.1809
2024	65.3211
2008	65.2776
1992	65.2302
1976	65.2669
1960	65.2706
1944	65.2326
1928	65.31
1912	65.1016
1896	65.3136
1880	65.2639
1864	65.2229
1848	65.3219
1832	65.4285
1816	65.219
1800	65.2749
1784	65.2906
1768	65.2821
1752	65.1318
1736	64.9653
1720	64.8794
1704	65.2216
1688	65.1379
1672	65.2452
1656	65.2233
1640	65.0235
1624	65.0497
1608	65.1329
1592	65.123
1576	65.1047
1560	64.8607
1544	65.0685
1528	65.0738
1512	65.092
1496	65.1274
1480	64.9617
1464	65.1246
1448	64.8657
1432	64.8921
1416	64.9772
1400	64.9599
1384	64.9162
1368	64.9391
1352	64.9508
1336	64.8608
1320	65.0068
1304	64.9309
1288	65.0537
1272	64.9111
1256	64.9594
1240	64.7471
1224	64.8665
1208	64.901
1192	64.9043
1176	64.9164
1160	64.6631
1144	64.7619
1128	64.6111
1112	65.0404
1096	64.4285
1080	64.6022
1064	64.6469
1048	64.8176
1032	64.7315
1016	64.1855
1000	64.3249
984	 64.6934
968	 64.8804
952	 64.7719
936	 64.2356
920	 64.8332
904	 64.6969
888	 64.546
872	 64.1303
856	 64.6063
840	 64.4264
824	 64.0386
808	 64.1563
792	 64.0516
776	 64.0736
760	 63.8262
744	 63.7141
728	 62.7064
712	 63.3693
696	 63.7102
680	 63.3231
664	 62.5041
648	 62.7656
632	 63.0553
616	 62.7798
600	 62.4445
584	 61.661
568	 62.1215
552	 62.901
536	 61.7279
520	 60.968
504	 60.9668
488	 60.7032
472	 60.5952
456	 58.9844
440	 58.0285
424	 55.6494
408	 61.5562
392	 51.5873
376	 163.896
370	 125.585