File: Bakgrunnsmateriale/MATLAB/FTIR/ftir_data/subBb/Mapping_121/C-4040-8_t88_cm-1.asc
PE IR       SPECTRUM    SPECTRUM    ASCII       PEDS        1.60
  -1
C-9D65~1.ASC
17/03/27
21:40:19.00
17/03/27
21:40:19.00
tln
$C-4040-8_t0088$<tbV0>[-13.0,5.2,8.0,0.0,27,1,0]
370
64

2002,4.07
MIRTGS : RIGHTBACK : INTERNAL 2
MIR : ON : INTERNAL 2
OPTKBR

0.200000
8
8.000000
FILLER
RATIO
SPECTRUM
UNLOCKED 256

DOUBLE
64
COMBINED
1
0
0

1.000000
RATIO

1
0
TRUE
51149
0
LEFT NOT FITTED RIGHT NOT FITTED 0
NONE
NONE
15600
12
4.427000
51148
TRUE
1 0 8 72 0 0 0 0

15798

#HDR
-1
-1
#GR
CM-1
%T
2.38419e-05
0.0
5000
-1.000000
4631
8
124.602
39.4678
#DATA
5000	64.3538
4984	64.9854
4968	64.4092
4952	65.3347
4936	64.7287
4920	64.3526
4904	64.7444
4888	65.3465
4872	64.8762
4856	64.4888
4840	64.7884
4824	65.1434
4808	64.6096
4792	64.8741
4776	64.9311
4760	65.5939
4744	65.5745
4728	65.7294
4712	65.567
4696	65.4231
4680	65.4022
4664	65.8149
4648	65.3296
4632	65.2583
4616	64.9949
4600	64.5067
4584	64.5916
4568	64.9698
4552	64.5003
4536	64.5685
4520	63.6469
4504	64.0492
4488	63.8056
4472	63.3437
4456	63.0759
4440	63.0833
4424	63.6783
4408	61.3988
4392	65.9061
4376	71.5385
4360	63.2486
4344	62.9415
4328	63.6283
4312	63.8912
4296	63.8495
4280	63.617
4264	63.9876
4248	64.1497
4232	64.8503
4216	64.6058
4200	64.7264
4184	65.2367
4168	65.6886
4152	65.1049
4136	65.0094
4120	65.251
4104	65.3879
4088	65.0819
4072	65.1642
4056	65.2883
4040	65.5557
4024	65.0922
4008	65.3119
3992	65.1054
3976	65.4161
3960	65.1603
3944	65.0396
3928	64.9378
3912	65.0201
3896	65.0132
3880	64.8387
3864	65.0453
3848	64.6245
3832	64.9737
3816	65.1209
3800	64.8846
3784	65.0341
3768	65.0454
3752	65.1779
3736	65.1151
3720	65.363
3704	65.0886
3688	65.0889
3672	65.0244
3656	65.4503
3640	65.3614
3624	65.188
3608	65.2028
3592	65.2534
3576	65.283
3560	65.1884
3544	65.2562
3528	65.0909
3512	65.1482
3496	65.27
3480	65.4535
3464	65.2431
3448	65.2871
3432	65.0562
3416	65.4787
3400	65.0902
3384	65.2749
3368	64.9376
3352	64.936
3336	65.2995
3320	65.1365
3304	65.3098
3288	65.3096
3272	65.0491
3256	65.2113
3240	65.0728
3224	65.174
3208	65.3887
3192	65.2733
3176	65.191
3160	65.1396
3144	65.5262
3128	65.1317
3112	65.0465
3096	65.22
3080	65.0347
3064	65.205
3048	65.1401
3032	65.2733
3016	65.1248
3000	65.1059
2984	64.9862
2968	64.7576
2952	65.0371
2936	65.0105
2920	64.678
2904	64.955
2888	64.9181
2872	65.1052
2856	64.9804
2840	65.0377
2824	65.1338
2808	65.2322
2792	65.2659
2776	65.3568
2760	65.331
2744	65.294
2728	65.3075
2712	65.3855
2696	65.3726
2680	65.2888
2664	65.2694
2648	65.185
2632	65.3546
2616	65.2805
2600	65.2767
2584	65.118
2568	65.1132
2552	65.2546
2536	65.1273
2520	65.2771
2504	65.2563
2488	65.283
2472	65.1893
2456	65.2098
2440	65.3103
2424	64.9288
2408	65.129
2392	65.3745
2376	65.4298
2360	65.3323
2344	65.3441
2328	65.327
2312	65.2962
2296	65.3159
2280	65.4048
2264	65.286
2248	65.4136
2232	65.3216
2216	65.346
2200	65.2826
2184	65.2625
2168	65.22
2152	65.1989
2136	65.1571
2120	65.267
2104	65.3068
2088	65.2288
2072	65.2218
2056	65.3422
2040	65.2479
2024	65.4218
2008	65.354
1992	65.2821
1976	65.3242
1960	65.2504
1944	65.2875
1928	65.3466
1912	65.2166
1896	65.2927
1880	65.2886
1864	65.325
1848	65.2835
1832	65.2979
1816	65.4125
1800	65.2925
1784	65.2775
1768	65.2827
1752	65.1943
1736	65.0987
1720	65.2364
1704	65.1527
1688	65.4484
1672	65.2246
1656	65.1639
1640	65.189
1624	65.1371
1608	65.0306
1592	65.0882
1576	64.9911
1560	64.9398
1544	65.0269
1528	65.0808
1512	65.0808
1496	65.2737
1480	65.1335
1464	64.9748
1448	65.0476
1432	65.2008
1416	65.1553
1400	65.3296
1384	65.154
1368	65.1338
1352	65.0528
1336	65.2618
1320	65.0327
1304	65.0077
1288	65.0124
1272	65.1354
1256	64.956
1240	65.0721
1224	64.8314
1208	65.0507
1192	64.8444
1176	64.8159
1160	64.9287
1144	64.7723
1128	64.9127
1112	65.0499
1096	64.8276
1080	64.8983
1064	64.9562
1048	64.7762
1032	64.5785
1016	64.7554
1000	64.8837
984	 64.7917
968	 64.9643
952	 65.1325
936	 65.0419
920	 64.7183
904	 64.435
888	 64.7765
872	 64.817
856	 64.1853
840	 64.6288
824	 64.5488
808	 64.2744
792	 64.1446
776	 64.3309
760	 64.1327
744	 63.8729
728	 64.1142
712	 63.8274
696	 63.5554
680	 63.4946
664	 63.2677
648	 63.1188
632	 62.9931
616	 62.622
600	 63.0846
584	 62.8688
568	 62.3554
552	 62.7485
536	 62.4544
520	 61.5568
504	 61.7423
488	 61.231
472	 60.9454
456	 61.8326
440	 60.8367
424	 55.704
408	 67.7084
392	 65.972
376	 53.8648
370	 39.4678