File: Bakgrunnsmateriale/MATLAB/FTIR/ftir_data/subBb/Mapping_121/C-4040-8_t74.asc
PE IR       SPECTRUM    SPECTRUM    ASCII       PEDS        1.60
  -1
C-B14A~1.ASC
17/03/27
20:35:06.00
17/03/27
20:35:32.00
tln
$C-4040-8_t0074$<tbV0>[-5.2,2.6,8.0,0.0,27,1,0]
27.028
64

2002,4.07
MIRTGS : RIGHTBACK : INTERNAL 2
MIR : ON : INTERNAL 2
OPTKBR

0.200000
8
8.000000
FILLER
RATIO
SPECTRUM
UNLOCKED 256

DOUBLE
64
COMBINED
1
0
0

0.002000
RATIO

1
0
TRUE
51149
0
LEFT NOT FITTED RIGHT NOT FITTED 0
NONE
NONE
15600
12
4.427000
51148
TRUE
1 0 8 72 0 0 0 0

15798

#HDR
-1
-1
#GR
µM
%T
2.38419e-05
0.0
2.000000
0.002000
12515
8
75.6628
4.526193
#DATA
2.000000	 64.9391
2.084000	 65.4459
2.168000	 64.8403
2.252000	 65.6822
2.336000	 65.426
2.420000	 65.0166
2.504000	 65.403
2.588000	 65.3546
2.672000	 65.3763
2.756000	 65.2579
2.840000	 65.2988
2.924000	 65.1678
3.008000	 65.1998
3.092000	 65.0728
3.176000	 65.2429
3.260000	 65.3869
3.344000	 65.2426
3.428000	 64.7543
3.512000	 65.2859
3.596000	 65.3778
3.680000	 65.4525
3.764000	 65.3948
3.848000	 65.3215
3.932000	 65.2973
4.016000	 65.4594
4.100000	 65.4922
4.184000	 65.3061
4.268000	 65.3808
4.352000	 65.3023
4.436000	 65.3608
4.520000	 65.3266
4.604000	 65.2868
4.688000	 65.4292
4.772000	 65.321
4.856000	 65.5862
4.940000	 65.4625
5.024000	 65.4108
5.108000	 65.4375
5.192000	 65.4353
5.276000	 65.4236
5.359999	 65.353
5.444000	 65.4204
5.528000	 65.4725
5.612000	 65.3369
5.696000	 65.4914
5.780000	 65.2343
5.864000	 65.3567
5.948000	 65.4868
6.032000	 65.3357
6.116000	 65.2966
6.200000	 65.0247
6.284000	 65.1867
6.368000	 65.0988
6.452000	 64.9042
6.536000	 65.124
6.620000	 65.0983
6.704000	 65.1672
6.788000	 65.2562
6.872000	 65.1476
6.956000	 65.0629
7.040000	 65.1619
7.124000	 65.2354
7.208000	 65.118
7.292000	 65.2256
7.376000	 65.1578
7.460000	 65.1361
7.544000	 65.1777
7.628000	 64.9743
7.712000	 65.128
7.796000	 65.2354
7.880000	 65.0395
7.964000	 65.1479
8.048000	 65.0465
8.132000	 65.0136
8.216000	 65.0124
8.300000	 65.2661
8.384000	 65.0656
8.468000	 65.1757
8.552000	 64.8449
8.635999	 64.8107
8.719999	 64.7366
8.804000	 64.8442
8.888000	 64.9235
8.972000	 64.9588
9.056000	 64.7974
9.140000	 64.5589
9.224000	 64.8273
9.308000	 65.0039
9.391999	 64.7849
9.475999	 64.9379
9.560000	 64.8451
9.644000	 64.9433
9.728000	 64.7511
9.812000	 64.612
9.896000	 64.6563
9.980000	 64.9427
10.064	65.2181
10.148	65.0114
10.232	64.7456
10.316	65.328
10.4	64.5798
10.484	64.951
10.568	64.8175
10.652	64.6752
10.736	64.6915
10.82	64.8054
10.904	65.1577
10.988	64.9592
11.072	64.9516
11.156	65.2266
11.24	64.9081
11.324	64.82
11.408	65.0021
11.492	64.7434
11.576	64.7118
11.66	64.4367
11.744	64.1434
11.828	64.5497
11.912	64.8581
11.996	64.8342
12.08	64.604
12.164	64.3751
12.248	64.5459
12.332	64.5587
12.416	64.4626
12.5	64.6062
12.584	64.411
12.668	64.464
12.752	64.5383
12.836	64.4085
12.92	64.365
13.004	64.4723
13.088	64.7535
13.172	64.5142
13.256	64.1763
13.34	64.3352
13.424	64.3391
13.508	63.9193
13.592	63.6065
13.676	63.6773
13.76	63.635
13.844	63.6678
13.928	63.7963
14.012	63.6554
14.096	63.5749
14.18	63.7243
14.264	63.8452
14.348	63.6931
14.432	63.3839
14.516	63.2965
14.6	63.4417
14.684	63.5618
14.768	63.384
14.852	63.2066
14.936	63.2762
15.02	63.0499
15.104	62.606
15.188	62.6106
15.272	62.8708
15.356	62.933
15.44	62.9266
15.524	62.9906
15.608	62.8837
15.692	62.5944
15.776	62.5983
15.86	62.9995
15.944	63.2164
16.028	62.9819
16.112	62.7193
16.196	62.6936
16.28	62.7116
16.364	62.7136
16.448	62.9186
16.532	63.3166
16.616	63.5489
16.7	63.3494
16.784	62.8512
16.868	62.4488
16.952	62.4097
17.036	62.6653
17.12	62.9566
17.204	63.0941
17.288	63.0561
17.372	62.9529
17.456	62.8915
17.54	62.8474
17.624	62.7596
17.708	62.6475
17.792	62.5245
17.876	62.3474
17.96	62.1542
18.044	62.0931
18.128	62.2137
18.212	62.3609
18.296	62.3797
18.38	62.3169
18.464	62.3078
18.548	62.3458
18.632	62.2687
18.716	61.9913
18.8	61.6428
18.884	61.4278
18.968	61.4104
19.052	61.476
19.136	61.4826
19.22	61.3907
19.304	61.2699
19.388	61.2268
19.472	61.3335
19.556	61.5668
19.64	61.7981
19.724	61.8732
19.808	61.7303
19.892	61.4443
19.976	61.1526
20.06	60.95
20.144	60.8602
20.228	60.8763
20.312	60.9857
20.396	61.153
20.48	61.2962
20.564	61.3267
20.648	61.2187
20.732	61.0218
20.816	60.8002
20.9	60.5801
20.984	60.3673
21.068	60.1794
21.152	60.0433
21.236	59.964
21.32	59.9305
21.404	59.9571
21.488	60.1057
21.572	60.4377
21.656	60.9164
21.74	61.3858
21.824	61.6577
21.908	61.6447
21.992	61.4163
22.076	61.1281
22.16	60.9004
22.244	60.7513
22.328	60.6229
22.412	60.4537
22.496	60.231
22.58	59.9869
22.664	59.7644
22.748	59.6135
22.832	59.6051
22.916	59.821
23	60.3053
23.084	60.9735
23.168	61.6156
23.252	61.9782
23.336	61.812
23.42	61.0598
23.504	59.8646
23.588	58.5129
23.672	57.31
23.756	56.4978
23.84	56.1407
23.924	56.1559
24.008	56.3577
24.092	56.5325
24.176	56.5785
24.26	56.5152
24.344	56.4095
24.428	56.245
24.512	55.8531
24.596	54.8058
24.68	52.5666
24.764	48.828
24.848	43.7195
24.932	37.996
25.016	32.8772
25.1	29.6386
25.184	29.1693
25.268	31.5836
25.352	36.3572
25.436	42.3359
25.52	48.3355
25.604	53.7216
25.688	58.4486
25.772	62.8682
25.856	67.235
25.94	71.4218
26.024	74.6438
26.108	75.6022
26.192	73.0144
26.276	66.1353
26.36	55.1901
26.444	41.5742
26.528	27.5456
26.612	15.5334
26.696	7.552964
26.78	4.543116
26.864	6.502236
26.948	13.0027
27.028	23.1457