File: Bakgrunnsmateriale/MATLAB/FTIR/ftir_data/subBb/Mapping_121/C-4040-8_t73.asc
PE IR       SPECTRUM    SPECTRUM    ASCII       PEDS        1.60
  -1
C-A146~1.ASC
17/03/27
20:30:29.00
17/03/27
20:30:55.00
tln
$C-4040-8_t0073$<tbV0>[-2.6,2.6,8.0,0.0,27,1,0]
27.028
64

2002,4.07
MIRTGS : RIGHTBACK : INTERNAL 2
MIR : ON : INTERNAL 2
OPTKBR

0.200000
8
8.000000
FILLER
RATIO
SPECTRUM
UNLOCKED 256

DOUBLE
64
COMBINED
1
0
0

0.002000
RATIO

1
0
TRUE
51149
0
LEFT NOT FITTED RIGHT NOT FITTED 0
NONE
NONE
15600
12
4.427000
51148
TRUE
1 0 8 72 0 0 0 0

15798

#HDR
-1
-1
#GR
µM
%T
2.38419e-05
0.0
2.000000
0.002000
12515
8
114.414
39.7392
#DATA
2.000000	 64.7812
2.084000	 64.9574
2.168000	 64.9397
2.252000	 65.2192
2.336000	 64.8477
2.420000	 65.0482
2.504000	 65.055
2.588000	 65.3215
2.672000	 65.1353
2.756000	 65.2055
2.840000	 65.1729
2.924000	 65.512
3.008000	 65.1083
3.092000	 65.2675
3.176000	 65.178
3.260000	 65.2632
3.344000	 65.1898
3.428000	 64.9522
3.512000	 64.9804
3.596000	 65.2006
3.680000	 65.2185
3.764000	 65.3502
3.848000	 65.2483
3.932000	 65.2154
4.016000	 65.138
4.100000	 65.3868
4.184000	 65.3572
4.268000	 65.3269
4.352000	 65.2628
4.436000	 65.3267
4.520000	 65.2962
4.604000	 65.3734
4.688000	 65.3638
4.772000	 65.4145
4.856000	 65.1457
4.940000	 65.236
5.024000	 65.2181
5.108000	 65.4231
5.192000	 65.4277
5.276000	 65.4509
5.359999	 65.3509
5.444000	 65.3484
5.528000	 65.3564
5.612000	 65.4421
5.696000	 65.3289
5.780000	 65.3029
5.864000	 65.1602
5.948000	 65.3107
6.032000	 65.3084
6.116000	 65.1459
6.200000	 65.176
6.284000	 65.0523
6.368000	 65.0976
6.452000	 65.023
6.536000	 65.1561
6.620000	 65.2091
6.704000	 65.2079
6.788000	 65.2007
6.872000	 65.0034
6.956000	 65.3259
7.040000	 65.1748
7.124000	 64.9201
7.208000	 65.0249
7.292000	 64.963
7.376000	 64.9827
7.460000	 65.1093
7.544000	 65.1317
7.628000	 65.1098
7.712000	 65.0753
7.796000	 65.0836
7.880000	 65.0238
7.964000	 65.0205
8.048000	 64.8963
8.132000	 65.0833
8.216000	 65.0468
8.300000	 65.1247
8.384000	 64.9731
8.468000	 65.045
8.552000	 64.7669
8.635999	 64.9783
8.719999	 64.7768
8.804000	 64.963
8.888000	 64.9969
8.972000	 64.8141
9.056000	 65.058
9.140000	 64.8975
9.224000	 64.8187
9.308000	 64.9893
9.391999	 64.7469
9.475999	 64.9697
9.560000	 64.7087
9.644000	 64.8904
9.728000	 64.6694
9.812000	 64.5686
9.896000	 65.0687
9.980000	 65.0289
10.064	65.188
10.148	64.7341
10.232	65.0622
10.316	65.8187
10.4	64.8245
10.484	65.0042
10.568	64.8049
10.652	64.9477
10.736	65.0747
10.82	65.0885
10.904	64.504
10.988	64.5415
11.072	64.6746
11.156	64.6018
11.24	64.5403
11.324	64.6126
11.408	64.5941
11.492	64.7141
11.576	64.731
11.66	64.437
11.744	64.4364
11.828	64.7124
11.912	64.6016
11.996	64.5791
12.08	64.6301
12.164	64.2611
12.248	64.2721
12.332	64.433
12.416	64.2164
12.5	64.297
12.584	64.2946
12.668	64.1206
12.752	64.2322
12.836	64.3689
12.92	64.3776
13.004	64.3922
13.088	64.6654
13.172	64.625
13.256	64.4548
13.34	64.4167
13.424	64.0593
13.508	63.7315
13.592	63.5619
13.676	63.6723
13.76	63.978
13.844	64.3237
13.928	64.3784
14.012	64.1738
14.096	64.0002
14.18	63.7276
14.264	63.5907
14.348	63.6839
14.432	63.7359
14.516	63.7248
14.6	63.6126
14.684	63.5171
14.768	63.5018
14.852	63.4199
14.936	63.2453
15.02	62.9482
15.104	62.7315
15.188	62.8185
15.272	62.9666
15.356	63.0726
15.44	63.2376
15.524	63.3068
15.608	63.2325
15.692	63.1458
15.776	63.0809
15.86	63.0498
15.944	63.0197
16.028	62.958
16.112	62.8894
16.196	62.7868
16.28	62.6424
16.364	62.5248
16.448	62.5006
16.532	62.6093
16.616	62.8011
16.7	62.8996
16.784	62.8059
16.868	62.6494
16.952	62.6484
17.036	62.8544
17.12	63.1077
17.204	63.2291
17.288	63.1561
17.372	62.9541
17.456	62.7669
17.54	62.7065
17.624	62.7388
17.708	62.7071
17.792	62.5096
17.876	62.2424
17.96	62.1432
18.044	62.376
18.128	62.8633
18.212	63.3438
18.296	63.5804
18.38	63.5123
18.464	63.2125
18.548	62.7801
18.632	62.2903
18.716	61.831
18.8	61.5128
18.884	61.4136
18.968	61.5086
19.052	61.6808
19.136	61.8018
19.22	61.823
19.304	61.8057
19.388	61.8503
19.472	61.992
19.556	62.1403
19.64	62.1437
19.724	61.9168
19.808	61.5075
19.892	61.0325
19.976	60.6104
20.06	60.3398
20.144	60.2815
20.228	60.4161
20.312	60.6311
20.396	60.7871
20.48	60.8213
20.564	60.7833
20.648	60.7634
20.732	60.8106
20.816	60.9139
20.9	61.0263
20.984	61.0807
21.068	61.0035
21.152	60.7514
21.236	60.3665
21.32	59.9731
21.404	59.718
21.488	59.668
21.572	59.7761
21.656	59.9609
21.74	60.1688
21.824	60.3908
21.908	60.6119
21.992	60.7654
22.076	60.7733
22.16	60.6087
22.244	60.3369
22.328	60.0936
22.412	60.0072
22.496	60.1393
22.58	60.4802
22.664	60.9608
22.748	61.4422
22.832	61.7366
22.916	61.6254
23	60.9428
23.084	59.6774
23.168	58.0247
23.252	56.3127
23.336	54.9132
23.42	54.1223
23.504	54.0656
23.588	54.6999
23.672	55.8759
23.756	57.3442
23.84	58.7777
23.924	59.801
24.008	60.0778
24.092	59.4258
24.176	57.954
24.26	55.97
24.344	53.9615
24.428	52.4313
24.512	51.7757
24.596	52.1217
24.68	53.2133
24.764	54.4254
24.848	55.0508
24.932	54.4467
25.016	52.359
25.1	49.0807
25.184	45.3672
25.268	42.1374
25.352	40.1559
25.436	39.8087
25.52	41.0114
25.604	43.4288
25.688	46.8422
25.772	51.2584
25.856	56.7849
25.94	63.4594
26.024	70.9928
26.108	78.655
26.192	85.4041
26.276	90.2714
26.36	92.7034
26.444	92.9632
26.528	92.0733
26.612	91.6173
26.696	92.9617
26.78	96.631
26.864	102.162
26.948	108.489
27.028	114.414