File: Bakgrunnsmateriale/MATLAB/FTIR/ftir_data/subBb/Mapping_121/C-4040-8_t52_cm-1.asc
PE IR       SPECTRUM    SPECTRUM    ASCII       PEDS        1.60
  -1
C-1C64~1.ASC
17/03/27
18:46:13.00
17/03/27
18:46:13.00
tln
$C-4040-8_t0052$<tbV0>[-5.2,-2.6,8.0,0.0,27,1,0]
370
64

2002,4.07
MIRTGS : RIGHTBACK : INTERNAL 2
MIR : ON : INTERNAL 2
OPTKBR

0.200000
8
8.000000
FILLER
RATIO
SPECTRUM
UNLOCKED 256

DOUBLE
64
COMBINED
1
0
0

1.000000
RATIO

1
0
TRUE
51149
0
LEFT NOT FITTED RIGHT NOT FITTED 0
NONE
NONE
15600
12
4.427000
51148
TRUE
1 0 8 72 0 0 0 0

15798

#HDR
-1
-1
#GR
CM-1
%T
2.38419e-05
0.0
5000
-1.000000
4631
8
114.302
44.1409
#DATA
5000	64.9157
4984	64.913
4968	65.0498
4952	64.8119
4936	64.6345
4920	65.0163
4904	64.9873
4888	64.1703
4872	64.2247
4856	64.7562
4840	64.7134
4824	65.2818
4808	64.9353
4792	65.2766
4776	64.8461
4760	65.0756
4744	64.5558
4728	64.9266
4712	64.888
4696	64.8084
4680	64.9904
4664	64.6091
4648	64.95
4632	64.6605
4616	65.1392
4600	65.2538
4584	65.2038
4568	64.5697
4552	64.6192
4536	64.6863
4520	64.4971
4504	64.5114
4488	65.2991
4472	65.0985
4456	65.659
4440	65.1522
4424	65.8902
4408	65.8257
4392	65.685
4376	65.8186
4360	59.0115
4344	58.0465
4328	65.6737
4312	65.1933
4296	65.4743
4280	66.1187
4264	65.6639
4248	65.41
4232	64.8551
4216	65.4926
4200	65.0236
4184	65.351
4168	65.7146
4152	64.7373
4136	65.0605
4120	64.9358
4104	65.0643
4088	65.0673
4072	65.3993
4056	65.1511
4040	65.0844
4024	64.9489
4008	64.8595
3992	65.0773
3976	65.106
3960	64.8031
3944	65.129
3928	64.8616
3912	65.0463
3896	65.3694
3880	65.1364
3864	65.2631
3848	65.1231
3832	65.1599
3816	65.2264
3800	65.1098
3784	65.5582
3768	65.1432
3752	65.1206
3736	64.9729
3720	65.2162
3704	65.0902
3688	65.3782
3672	65.1815
3656	65.1743
3640	65.2164
3624	65.0847
3608	65.2199
3592	65.1235
3576	65.3538
3560	65.1843
3544	65.0852
3528	65.1793
3512	65.0667
3496	65.2398
3480	65.1971
3464	65.4981
3448	65.268
3432	65.2824
3416	65.3088
3400	65.3508
3384	65.3661
3368	65.1204
3352	65.0991
3336	65.4633
3320	65.1952
3304	65.2978
3288	65.0822
3272	65.1903
3256	65.249
3240	65.1317
3224	65.1678
3208	65.1072
3192	65.272
3176	65.3934
3160	65.1754
3144	65.1926
3128	65.0736
3112	65.3721
3096	65.2933
3080	65.228
3064	65.3076
3048	65.1792
3032	65.143
3016	65.286
3000	65.2868
2984	65.152
2968	65.3855
2952	65.1241
2936	65.1925
2920	64.8812
2904	65.1371
2888	65.0893
2872	65.2659
2856	64.9142
2840	65.1969
2824	65.0979
2808	65.076
2792	65.1392
2776	65.3211
2760	65.3775
2744	65.2319
2728	65.0764
2712	65.1309
2696	65.2313
2680	65.2795
2664	65.293
2648	65.3198
2632	65.2878
2616	65.4132
2600	65.3874
2584	65.258
2568	65.2712
2552	65.5555
2536	65.392
2520	65.2996
2504	65.1583
2488	65.1813
2472	65.2323
2456	65.4175
2440	65.2409
2424	65.6288
2408	65.2561
2392	65.3826
2376	65.2677
2360	65.3665
2344	65.3039
2328	65.3351
2312	65.2821
2296	65.3574
2280	65.2965
2264	65.2751
2248	65.4747
2232	65.3734
2216	65.2363
2200	65.1545
2184	65.3898
2168	65.3001
2152	64.9879
2136	65.2379
2120	65.3414
2104	65.3894
2088	65.3421
2072	65.1866
2056	65.3686
2040	65.3228
2024	65.2347
2008	65.3828
1992	65.3003
1976	65.3531
1960	65.2161
1944	65.325
1928	65.3358
1912	65.3507
1896	65.2769
1880	65.4257
1864	65.2665
1848	65.3828
1832	65.3752
1816	65.4356
1800	65.1903
1784	65.2173
1768	65.2812
1752	65.1229
1736	64.9906
1720	65.1538
1704	65.2193
1688	65.1694
1672	65.2715
1656	65.195
1640	65.1728
1624	65.1836
1608	65.1541
1592	65.1615
1576	65.4211
1560	65.0352
1544	65.2918
1528	65.0787
1512	65.1602
1496	65.239
1480	65.193
1464	65.197
1448	64.9564
1432	65.1336
1416	65.0717
1400	65.2534
1384	65.1175
1368	65.2045
1352	65.1683
1336	65.043
1320	65.0834
1304	65.0636
1288	65.0265
1272	64.934
1256	65.0595
1240	65.1837
1224	64.9067
1208	65.0794
1192	65.2296
1176	65.0602
1160	65.2031
1144	65.3513
1128	64.9047
1112	64.9919
1096	65.0782
1080	65.1256
1064	64.9646
1048	64.6535
1032	65.0045
1016	64.3628
1000	64.7534
984	 64.8659
968	 64.6223
952	 64.5395
936	 64.7871
920	 64.6003
904	 64.6121
888	 64.511
872	 64.4239
856	 64.4897
840	 64.4905
824	 64.5773
808	 64.3687
792	 63.9734
776	 63.9286
760	 63.8534
744	 63.7871
728	 64.0118
712	 63.6467
696	 63.9171
680	 63.3424
664	 63.041
648	 63.1119
632	 62.866
616	 63.222
600	 62.4478
584	 62.0555
568	 61.8973
552	 61.717
536	 61.8844
520	 60.9714
504	 61.869
488	 59.9516
472	 59.7838
456	 58.0429
440	 59.7224
424	 59.1866
408	 66.6397
392	 111.731
376	 64.3255
370	 60.6282