File: Bakgrunnsmateriale/MATLAB/FTIR/ftir_data/subBb/Mapping_121/C-4040-8_t02.asc
PE IR       SPECTRUM    SPECTRUM    ASCII       PEDS        1.60
  -1
C-A522~1.ASC
17/03/27
14:40:11.00
17/03/27
14:40:37.00
tln
$C-4040-8_t0002$<tbV0>[10.4,-13.0,8.0,0.0,27,1,0]
27.028
64

2002,4.07
MIRTGS : RIGHTBACK : INTERNAL 2
MIR : ON : INTERNAL 2
OPTKBR

0.200000
8
8.000000
FILLER
RATIO
SPECTRUM
UNLOCKED 256

DOUBLE
64
COMBINED
1
0
0

0.002000
RATIO

1
0
TRUE
51149
0
LEFT NOT FITTED RIGHT NOT FITTED 0
NONE
NONE
15600
12
4.427000
51148
TRUE
1 0 8 72 0 0 0 0

15798

#HDR
-1
-1
#GR
µM
%T
2.38419e-05
0.0
2.000000
0.002000
12515
8
69.4416
-0.657820
#DATA
2.000000	 63.306
2.084000	 63.1329
2.168000	 63.4334
2.252000	 66.2862
2.336000	 62.7104
2.420000	 62.1974
2.504000	 62.3994
2.588000	 61.9861
2.672000	 61.7021
2.756000	 61.2651
2.840000	 60.5892
2.924000	 59.9107
3.008000	 59.4316
3.092000	 59.0239
3.176000	 58.5942
3.260000	 58.1564
3.344000	 57.6599
3.428000	 56.8156
3.512000	 56.5492
3.596000	 56.2047
3.680000	 55.8103
3.764000	 55.2117
3.848000	 54.7281
3.932000	 54.2841
4.016000	 53.8764
4.100000	 53.4384
4.184000	 53.0151
4.268000	 52.5301
4.352000	 52.1281
4.436000	 51.8655
4.520000	 51.4273
4.604000	 50.9184
4.688000	 50.543
4.772000	 50.2431
4.856000	 49.8521
4.940000	 49.5897
5.024000	 49.2146
5.108000	 48.9057
5.192000	 48.5187
5.276000	 48.2447
5.359999	 47.9881
5.444000	 47.6167
5.528000	 47.4827
5.612000	 47.2075
5.696000	 47.0702
5.780000	 46.7531
5.864000	 46.5297
5.948000	 46.2304
6.032000	 46.0095
6.116000	 45.6617
6.200000	 45.4693
6.284000	 45.2334
6.368000	 44.9946
6.452000	 44.8461
6.536000	 44.7548
6.620000	 44.7215
6.704000	 44.4078
6.788000	 44.1635
6.872000	 44.0927
6.956000	 43.6847
7.040000	 43.5985
7.124000	 43.3018
7.208000	 43.266
7.292000	 43.0397
7.376000	 42.7908
7.460000	 42.7884
7.544000	 42.6445
7.628000	 42.5508
7.712000	 42.4185
7.796000	 42.4066
7.880000	 42.1592
7.964000	 42.1961
8.048000	 41.9522
8.132000	 41.9686
8.216000	 41.761
8.300000	 41.6717
8.384000	 41.3758
8.468000	 41.2273
8.552000	 41.0676
8.635999	 40.9115
8.719999	 40.9742
8.804000	 40.7597
8.888000	 40.5742
8.972000	 40.6706
9.056000	 40.5461
9.140000	 40.1603
9.224000	 40.3135
9.308000	 40.1347
9.391999	 40.1871
9.475999	 39.9272
9.560000	 39.7745
9.644000	 39.8642
9.728000	 39.697
9.812000	 39.6216
9.896000	 39.7392
9.980000	 39.465
10.064	39.3383
10.148	39.3106
10.232	39.2193
10.316	39.0481
10.4	38.9112
10.484	38.8367
10.568	38.7407
10.652	38.8138
10.736	38.5798
10.82	38.4513
10.904	38.3893
10.988	38.316
11.072	38.2857
11.156	38.2078
11.24	38.2151
11.324	38.1276
11.408	37.8277
11.492	37.7812
11.576	37.6181
11.66	37.5124
11.744	37.5522
11.828	37.5275
11.912	37.4315
11.996	37.358
12.08	37.1915
12.164	37.0243
12.248	37.0784
12.332	37.0989
12.416	36.8452
12.5	36.6879
12.584	36.8202
12.668	37.0162
12.752	36.8898
12.836	36.7005
12.92	36.7001
13.004	36.6692
13.088	36.4911
13.172	36.3303
13.256	36.2678
13.34	36.1885
13.424	36.1233
13.508	35.934
13.592	35.8866
13.676	35.9417
13.76	35.8626
13.844	35.6984
13.928	35.6475
14.012	35.5229
14.096	35.2394
14.18	35.1846
14.264	35.3116
14.348	35.2004
14.432	34.8485
14.516	34.5233
14.6	34.4601
14.684	34.6035
14.768	34.8346
14.852	34.7136
14.936	34.127
15.02	33.7579
15.104	33.9594
15.188	34.5668
15.272	34.911
15.356	34.4135
15.44	33.6857
15.524	33.5303
15.608	33.8115
15.692	33.9788
15.776	33.8203
15.86	33.5715
15.944	33.4059
16.028	33.2735
16.112	33.1786
16.196	33.1103
16.28	33.0211
16.364	32.9808
16.448	33.0028
16.532	33.0082
16.616	32.9768
16.7	32.8739
16.784	32.676
16.868	32.5417
16.952	32.5948
17.036	32.6472
17.12	32.4657
17.204	32.1409
17.288	31.9626
17.372	32.0584
17.456	32.2767
17.54	32.3529
17.624	32.1666
17.708	31.815
17.792	31.4575
17.876	31.1849
17.96	31.0042
18.044	30.885
18.128	30.8197
18.212	30.845
18.296	30.9857
18.38	31.1652
18.464	31.2056
18.548	30.9813
18.632	30.5716
18.716	30.2046
18.8	30.0536
18.884	30.0997
18.968	30.2074
19.052	30.2565
19.136	30.1903
19.22	30.0104
19.304	29.7969
19.388	29.6589
19.472	29.6138
19.556	29.5371
19.64	29.3
19.724	28.9466
19.808	28.6874
19.892	28.6982
19.976	28.966
20.06	29.3244
20.144	29.5916
20.228	29.6518
20.312	29.4669
20.396	29.0738
20.48	28.5986
20.564	28.2292
20.648	28.117
20.732	28.2887
20.816	28.6371
20.9	28.9904
20.984	29.1886
21.068	29.1495
21.152	28.8904
21.236	28.5097
21.32	28.1137
21.404	27.7397
21.488	27.3467
21.572	26.8764
21.656	26.3563
21.74	25.916
21.824	25.6982
21.908	25.7448
21.992	25.9732
22.076	26.2581
22.16	26.5298
22.244	26.8038
22.328	27.1153
22.412	27.4536
22.496	27.7283
22.58	27.833
22.664	27.702
22.748	27.3306
22.832	26.7564
22.916	26.0318
23	25.2277
23.084	24.4583
23.168	23.8785
23.252	23.6181
23.336	23.7418
23.42	24.1856
23.504	24.7962
23.588	25.3749
23.672	25.7551
23.756	25.8522
23.84	25.6279
23.924	25.076
24.008	24.2042
24.092	23.0383
24.176	21.6534
24.26	20.2047
24.344	18.9054
24.428	17.9607
24.512	17.5896
24.596	17.9107
24.68	18.8963
24.764	20.3612
24.848	21.994
24.932	23.516
25.016	24.8244
25.1	25.9948
25.184	27.199
25.268	28.5813
25.352	30.1777
25.436	31.9596
25.52	33.858
25.604	35.7748
25.688	37.4624
25.772	38.516
25.856	38.4835
25.94	37.0185
26.024	34.0676
26.108	29.9921
26.192	25.3811
26.276	20.8313
26.36	16.774
26.444	13.3925
26.528	10.6409
26.612	8.331598
26.696	6.247702
26.78	4.244027
26.864	2.304410
26.948	0.564676
27.028	-0.657820