File: Bakgrunnsmateriale/MATLAB/FTIR/ftir_data/subBb/Mapping_121/C-4040-8_t44.asc
PE IR       SPECTRUM    SPECTRUM    ASCII       PEDS        1.60
  -1
C-B53A~1.ASC
17/03/27
18:02:21.00
17/03/27
18:02:47.00
tln
$C-4040-8_t0044$<tbV0>[-13.0,-5.2,8.0,0.0,27,1,0]
27.028
64

2002,4.07
MIRTGS : RIGHTBACK : INTERNAL 2
MIR : ON : INTERNAL 2
OPTKBR

0.200000
8
8.000000
FILLER
RATIO
SPECTRUM
UNLOCKED 256

DOUBLE
64
COMBINED
1
0
0

0.002000
RATIO

1
0
TRUE
51149
0
LEFT NOT FITTED RIGHT NOT FITTED 0
NONE
NONE
15600
12
4.427000
51148
TRUE
1 0 8 72 0 0 0 0

15798

#HDR
-1
-1
#GR
µM
%T
2.38419e-05
0.0
2.000000
0.002000
12515
8
77.6732
26.0158
#DATA
2.000000	 64.718
2.084000	 65.0261
2.168000	 64.8057
2.252000	 65.4981
2.336000	 65.2474
2.420000	 65.3624
2.504000	 64.9516
2.588000	 65.0194
2.672000	 65.1862
2.756000	 65.2291
2.840000	 65.2713
2.924000	 65.0604
3.008000	 65.1607
3.092000	 65.3575
3.176000	 65.2465
3.260000	 65.2464
3.344000	 65.2972
3.428000	 64.9301
3.512000	 65.2225
3.596000	 65.4196
3.680000	 65.2276
3.764000	 65.3246
3.848000	 65.2075
3.932000	 65.3587
4.016000	 65.1419
4.100000	 64.9772
4.184000	 65.407
4.268000	 65.1446
4.352000	 65.2165
4.436000	 65.2705
4.520000	 65.2967
4.604000	 65.3932
4.688000	 65.3812
4.772000	 65.3098
4.856000	 65.0801
4.940000	 65.3191
5.024000	 65.4368
5.108000	 65.4277
5.192000	 65.4153
5.276000	 65.309
5.359999	 65.3872
5.444000	 65.329
5.528000	 65.3218
5.612000	 65.1631
5.696000	 65.3771
5.780000	 65.2177
5.864000	 65.3238
5.948000	 65.2716
6.032000	 65.2355
6.116000	 65.3222
6.200000	 65.3756
6.284000	 65.327
6.368000	 65.1225
6.452000	 65.0942
6.536000	 65.067
6.620000	 65.1953
6.704000	 65.2615
6.788000	 65.117
6.872000	 65.3484
6.956000	 65.1464
7.040000	 65.197
7.124000	 65.0499
7.208000	 65.0716
7.292000	 64.9641
7.376000	 65.0736
7.460000	 65.1515
7.544000	 65.1899
7.628000	 65.0758
7.712000	 65.1173
7.796000	 64.9995
7.880000	 65.1165
7.964000	 65.0173
8.048000	 65.1032
8.132000	 65.1085
8.216000	 65.0658
8.300000	 65.0489
8.384000	 64.9384
8.468000	 64.908
8.552000	 65.0782
8.635999	 64.9375
8.719999	 64.9186
8.804000	 64.8248
8.888000	 64.9032
8.972000	 64.7144
9.056000	 65.4763
9.140000	 65.352
9.224000	 64.8607
9.308000	 64.8111
9.391999	 64.6943
9.475999	 64.8134
9.560000	 65.2918
9.644000	 65.2167
9.728000	 65.0498
9.812000	 65.2845
9.896000	 65.1724
9.980000	 64.9654
10.064	64.7628
10.148	65.1766
10.232	64.8803
10.316	64.9407
10.4	64.651
10.484	64.9065
10.568	65.1592
10.652	64.6637
10.736	64.6989
10.82	64.7354
10.904	65.0044
10.988	64.828
11.072	64.8748
11.156	64.8251
11.24	64.8419
11.324	64.7085
11.408	64.6473
11.492	64.7821
11.576	64.7444
11.66	64.8873
11.744	64.8387
11.828	64.7932
11.912	64.5683
11.996	64.6363
12.08	64.6063
12.164	64.4563
12.248	64.4398
12.332	64.3067
12.416	64.5011
12.5	64.5751
12.584	64.514
12.668	64.5199
12.752	64.3597
12.836	64.2703
12.92	64.1607
13.004	64.1407
13.088	64.1638
13.172	63.504
13.256	62.9691
13.34	63.5209
13.424	63.9192
13.508	63.6356
13.592	63.9517
13.676	64.3427
13.76	64.2105
13.844	63.9698
13.928	63.7374
14.012	63.6098
14.096	63.7301
14.18	63.8976
14.264	63.8183
14.348	63.5112
14.432	63.4376
14.516	63.6076
14.6	63.6397
14.684	63.5567
14.768	63.4228
14.852	63.362
14.936	63.4241
15.02	63.3328
15.104	63.1935
15.188	63.265
15.272	63.3109
15.356	63.209
15.44	63.1802
15.524	63.2166
15.608	63.1749
15.692	63.1021
15.776	63.0616
15.86	63.0494
15.944	63.1324
16.028	63.3496
16.112	63.4704
16.196	63.2496
16.28	62.8944
16.364	62.7767
16.448	62.8895
16.532	63.0471
16.616	63.1771
16.7	63.2192
16.784	63.1814
16.868	63.2037
16.952	63.2984
17.036	63.2891
17.12	63.1148
17.204	62.907
17.288	62.7772
17.372	62.7316
17.456	62.725
17.54	62.6857
17.624	62.5682
17.708	62.4324
17.792	62.3918
17.876	62.4722
17.96	62.5822
18.044	62.6567
18.128	62.7416
18.212	62.8617
18.296	62.9065
18.38	62.7552
18.464	62.4581
18.548	62.1911
18.632	62.0617
18.716	62.066
18.8	62.1847
18.884	62.3959
18.968	62.6171
19.052	62.7345
19.136	62.697
19.22	62.5455
19.304	62.365
19.388	62.2414
19.472	62.2465
19.556	62.3868
19.64	62.5736
19.724	62.7014
19.808	62.7363
19.892	62.6921
19.976	62.5652
20.06	62.3379
20.144	62.0244
20.228	61.6876
20.312	61.4042
20.396	61.2205
20.48	61.1465
20.564	61.1636
20.648	61.2253
20.732	61.261
20.816	61.2173
20.9	61.0933
20.984	60.9358
21.068	60.8059
21.152	60.7591
21.236	60.8325
21.32	61.0255
21.404	61.2866
21.488	61.5203
21.572	61.6208
21.656	61.521
21.74	61.2244
21.824	60.8035
21.908	60.3713
21.992	60.033
22.076	59.849
22.16	59.8179
22.244	59.8755
22.328	59.9419
22.412	59.978
22.496	59.9987
22.58	60.0466
22.664	60.1285
22.748	60.1772
22.832	60.0993
22.916	59.8148
23	59.3518
23.084	58.8186
23.168	58.3833
23.252	58.192
23.336	58.3134
23.42	58.6944
23.504	59.2323
23.588	59.7805
23.672	60.1868
23.756	60.3426
23.84	60.1671
23.924	59.5544
24.008	58.4515
24.092	56.932
24.176	55.1389
24.26	53.2005
24.344	51.2091
24.428	49.2104
24.512	47.2179
24.596	45.2707
24.68	43.4657
24.764	41.9677
24.848	41.0439
24.932	41.0985
25.016	42.5232
25.1	45.541
25.184	50.0902
25.268	55.6425
25.352	61.2361
25.436	65.2283
25.52	65.9019
25.604	62.2631
25.688	54.5186
25.772	44.4396
25.856	34.7928
25.94	28.1608
26.024	26.0172
26.108	28.0965
26.192	33.1893
26.276	39.8766
26.36	47.1461
26.444	54.4783
26.528	61.6647
26.612	68.1596
26.696	73.3206
26.78	76.5576
26.864	77.6687
26.948	76.9536
27.028	75.187