File: Bakgrunnsmateriale/MATLAB/FTIR/ftir_data/subBb/Mapping_121/C-4040-8_t89.asc
PE IR       SPECTRUM    SPECTRUM    ASCII       PEDS        1.60
  -1
C-C54E~1.ASC
17/03/27
21:51:24.00
17/03/27
21:51:51.00
tln
$C-4040-8_t0089$<tbV0>[13.0,7.8,8.0,0.0,27,1,0]
27.028
64

2002,4.07
MIRTGS : RIGHTBACK : INTERNAL 2
MIR : ON : INTERNAL 2
OPTKBR

0.200000
8
8.000000
FILLER
RATIO
SPECTRUM
UNLOCKED 256

DOUBLE
64
COMBINED
1
0
0

0.002000
RATIO

1
0
TRUE
51149
0
LEFT NOT FITTED RIGHT NOT FITTED 0
NONE
NONE
15600
12
4.427000
51148
TRUE
1 0 8 72 0 0 0 0

15798

#HDR
-1
-1
#GR
µM
%T
2.38419e-05
0.0
2.000000
0.002000
12515
8
173.319
24.173
#DATA
2.000000	 64.8829
2.084000	 64.7222
2.168000	 65.2078
2.252000	 64.0864
2.336000	 64.4998
2.420000	 64.9756
2.504000	 65.0554
2.588000	 65.2594
2.672000	 65.3129
2.756000	 65.2045
2.840000	 65.2082
2.924000	 65.1276
3.008000	 65.2115
3.092000	 64.9695
3.176000	 64.9318
3.260000	 65.1921
3.344000	 65.026
3.428000	 64.9576
3.512000	 64.9939
3.596000	 65.2002
3.680000	 65.1964
3.764000	 65.102
3.848000	 65.2072
3.932000	 65.2773
4.016000	 65.2942
4.100000	 65.345
4.184000	 65.2271
4.268000	 65.2199
4.352000	 65.1618
4.436000	 65.452
4.520000	 65.284
4.604000	 65.3363
4.688000	 65.4737
4.772000	 65.3895
4.856000	 65.2767
4.940000	 65.2362
5.024000	 65.4888
5.108000	 65.2442
5.192000	 65.2538
5.276000	 65.2575
5.359999	 65.33
5.444000	 65.3192
5.528000	 65.3581
5.612000	 65.3163
5.696000	 64.9828
5.780000	 64.7637
5.864000	 65.214
5.948000	 65.2013
6.032000	 65.1559
6.116000	 65.2229
6.200000	 65.0716
6.284000	 65.1142
6.368000	 64.9316
6.452000	 65.1435
6.536000	 65.1492
6.620000	 64.9407
6.704000	 65.0937
6.788000	 65.2004
6.872000	 65.2611
6.956000	 65.1013
7.040000	 65.135
7.124000	 65.1297
7.208000	 65.1196
7.292000	 65.0572
7.376000	 65.2394
7.460000	 64.9509
7.544000	 65.0078
7.628000	 64.9163
7.712000	 64.9836
7.796000	 65.0228
7.880000	 64.8191
7.964000	 64.9338
8.048000	 64.9511
8.132000	 64.9845
8.216000	 65.0804
8.300000	 64.8574
8.384000	 64.96
8.468000	 64.8829
8.552000	 64.9846
8.635999	 64.8917
8.719999	 64.7809
8.804000	 64.972
8.888000	 64.8498
8.972000	 65.2112
9.056000	 65.1788
9.140000	 64.6457
9.224000	 64.5039
9.308000	 64.5393
9.391999	 64.7409
9.475999	 64.8737
9.560000	 65.2499
9.644000	 64.8269
9.728000	 64.8704
9.812000	 64.7087
9.896000	 64.1097
9.980000	 64.4248
10.064	64.6702
10.148	64.8969
10.232	64.8762
10.316	64.8122
10.4	64.7709
10.484	64.6463
10.568	64.807
10.652	64.5947
10.736	64.1975
10.82	64.9013
10.904	64.3105
10.988	63.7736
11.072	64.4373
11.156	64.1396
11.24	64.4711
11.324	64.8435
11.408	64.9343
11.492	65.0423
11.576	64.8849
11.66	64.6049
11.744	64.5503
11.828	64.5207
11.912	64.3433
11.996	64.1273
12.08	64.3018
12.164	64.2557
12.248	64.1169
12.332	64.1951
12.416	64.1851
12.5	64.2455
12.584	64.1058
12.668	63.6823
12.752	63.558
12.836	63.6015
12.92	63.5113
13.004	63.7239
13.088	64.0269
13.172	64.1747
13.256	64.2974
13.34	64.2291
13.424	63.9726
13.508	63.5181
13.592	63.2849
13.676	63.3023
13.76	63.3439
13.844	63.4936
13.928	63.7062
14.012	63.8029
14.096	63.8516
14.18	63.7649
14.264	63.6249
14.348	63.4543
14.432	63.1783
14.516	63.1501
14.6	63.4703
14.684	63.6373
14.768	63.4798
14.852	63.2554
14.936	63.0384
15.02	62.7808
15.104	62.6441
15.188	62.7408
15.272	62.9016
15.356	63.0601
15.44	63.1806
15.524	63.1
15.608	62.8898
15.692	62.7713
15.776	62.7988
15.86	62.9054
15.944	63.0049
16.028	63.045
16.112	62.9938
16.196	62.8342
16.28	62.7534
16.364	62.9594
16.448	63.187
16.532	63.0901
16.616	62.9125
16.7	62.9687
16.784	63.0017
16.868	62.7537
16.952	62.4459
17.036	62.3528
17.12	62.4381
17.204	62.5471
17.288	62.6594
17.372	62.7837
17.456	62.8039
17.54	62.6114
17.624	62.3015
17.708	62.0597
17.792	61.9487
17.876	61.9523
17.96	62.0331
18.044	62.0829
18.128	61.9994
18.212	61.8208
18.296	61.6726
18.38	61.6184
18.464	61.6629
18.548	61.8173
18.632	62.0527
18.716	62.262
18.8	62.3302
18.884	62.1921
18.968	61.8441
19.052	61.3777
19.136	60.9762
19.22	60.8038
19.304	60.8576
19.388	60.9777
19.472	61.0118
19.556	60.9353
19.64	60.8049
19.724	60.659
19.808	60.5023
19.892	60.371
19.976	60.3542
20.06	60.5308
20.144	60.8793
20.228	61.2759
20.312	61.5717
20.396	61.6743
20.48	61.5564
20.564	61.2418
20.648	60.7997
20.732	60.3474
20.816	59.9988
20.9	59.8053
20.984	59.7172
21.068	59.6202
21.152	59.4135
21.236	59.0651
21.32	58.62
21.404	58.1659
21.488	57.8015
21.572	57.6005
21.656	57.5899
21.74	57.7474
21.824	58.0354
21.908	58.4362
21.992	58.9453
22.076	59.5315
22.16	60.0978
22.244	60.4947
22.328	60.6037
22.412	60.3947
22.496	59.9629
22.58	59.4582
22.664	59.0073
22.748	58.6712
22.832	58.4547
22.916	58.3488
23	58.3462
23.084	58.4229
23.168	58.5233
23.252	58.5638
23.336	58.4425
23.42	58.1214
23.504	57.6221
23.588	57.0586
23.672	56.6021
23.756	56.4081
23.84	56.5559
23.924	56.9884
24.008	57.5674
24.092	58.1534
24.176	58.6294
24.26	58.9243
24.344	58.9918
24.428	58.812
24.512	58.4113
24.596	57.8495
24.68	57.1067
24.764	56.0214
24.848	54.5479
24.932	52.6014
25.016	50.1328
25.1	47.3979
25.184	44.8678
25.268	42.9523
25.352	41.7177
25.436	40.9158
25.52	40.1778
25.604	39.2616
25.688	37.9858
25.772	36.1877
25.856	33.7279
25.94	30.9238
26.024	28.4343
26.108	27.0081
26.192	26.4561
26.276	26.1451
26.36	25.0425
26.444	24.1814
26.528	26.6907
26.612	37.2793
26.696	58.9248
26.78	90.5467
26.864	125.951
26.948	156.227
27.028	173.319