File: Bakgrunnsmateriale/MATLAB/FTIR/ftir_data/subBb/Mapping_121/C-4040-8_t02_cm-1.asc
PE IR       SPECTRUM    SPECTRUM    ASCII       PEDS        1.60
  -1
C-9964~1.ASC
17/03/27
14:40:11.00
17/03/27
14:40:11.00
tln
$C-4040-8_t0002$<tbV0>[10.4,-13.0,8.0,0.0,27,1,0]
370
64

2002,4.07
MIRTGS : RIGHTBACK : INTERNAL 2
MIR : ON : INTERNAL 2
OPTKBR

0.200000
8
8.000000
FILLER
RATIO
SPECTRUM
UNLOCKED 256

DOUBLE
64
COMBINED
1
0
0

1.000000
RATIO

1
0
TRUE
51149
0
LEFT NOT FITTED RIGHT NOT FITTED 0
NONE
NONE
15600
12
4.427000
51148
TRUE
1 0 8 72 0 0 0 0

15798

#HDR
-1
-1
#GR
CM-1
%T
2.38419e-05
0.0
5000
-1.000000
4631
8
69.8063
-0.657820
#DATA
5000	63.306
4984	64.093
4968	63.5468
4952	62.6263
4936	62.5163
4920	62.0002
4904	63.851
4888	63.4838
4872	63.9736
4856	63.226
4840	63.7084
4824	63.2506
4808	62.6573
4792	63.2018
4776	63.0002
4760	62.5015
4744	62.9351
4728	62.9552
4712	62.5619
4696	63.0573
4680	63.2113
4664	62.9058
4648	63.2758
4632	63.5445
4616	63.4627
4600	63.4055
4584	63.5907
4568	63.2608
4552	63.47
4536	62.9859
4520	63.4937
4504	63.6254
4488	63.6112
4472	63.2503
4456	64.9935
4440	65.7686
4424	46.9597
4408	65.9998
4392	64.0789
4376	64.0493
4360	64.1252
4344	63.823
4328	63.2705
4312	63.175
4296	62.9866
4280	62.7172
4264	62.5534
4248	62.6451
4232	62.3637
4216	62.3553
4200	62.4669
4184	61.7445
4168	61.4784
4152	62.0446
4136	61.9666
4120	62.101
4104	62.2141
4088	62.1956
4072	62.0733
4056	62.2388
4040	62.0671
4024	62.2262
4008	62.167
3992	62.4033
3976	61.7626
3960	62.1139
3944	62.1112
3928	62.0261
3912	62.1705
3896	62.1137
3880	61.6894
3864	61.9861
3848	61.7672
3832	61.8319
3816	61.5852
3800	61.9058
3784	61.3114
3768	61.5342
3752	61.6493
3736	61.5861
3720	61.562
3704	61.1148
3688	61.0762
3672	61.4522
3656	61.1505
3640	60.9455
3624	61.1219
3608	60.7536
3592	60.885
3576	60.7295
3560	60.8141
3544	60.6257
3528	60.575
3512	60.376
3496	60.3456
3480	60.6098
3464	60.2189
3448	60.12
3432	60.2574
3416	60.0553
3400	59.9746
3384	59.9149
3368	59.7931
3352	59.574
3336	59.6277
3320	59.349
3304	59.5492
3288	59.4422
3272	59.1921
3256	58.9885
3240	59.0438
3224	58.8081
3208	59.1459
3192	58.6787
3176	58.6724
3160	58.6667
3144	58.5642
3128	58.2928
3112	58.4946
3096	58.2976
3080	58.1327
3064	58.1431
3048	58.1669
3032	57.7915
3016	57.8031
3000	57.6383
2984	57.6295
2968	57.5271
2952	57.3329
2936	57.184
2920	56.7795
2904	56.9905
2888	56.8236
2872	56.7018
2856	56.4891
2840	56.6239
2824	56.437
2808	56.3073
2792	56.2847
2776	56.1015
2760	55.9892
2744	55.9283
2728	55.7884
2712	55.7487
2696	55.6256
2680	55.4171
2664	55.2121
2648	55.1543
2632	55.0014
2616	54.8882
2600	54.7222
2584	54.6359
2568	54.4389
2552	54.3058
2536	54.0974
2520	54.0778
2504	54.0001
2488	53.8475
2472	53.6028
2456	53.5787
2440	53.4735
2424	53.1761
2408	53.1166
2392	53.0153
2376	52.7491
2360	52.6699
2344	52.5378
2328	52.4127
2312	52.2128
2296	52.0801
2280	52.0363
2264	51.8322
2248	51.7483
2232	51.5735
2216	51.4314
2200	51.2749
2184	50.966
2168	50.8451
2152	50.6074
2136	50.6719
2120	50.4683
2104	50.176
2088	50.183
2072	49.9219
2056	49.788
2040	49.7691
2024	49.5819
2008	49.4775
1992	49.2711
1976	49.1082
1960	48.9318
1944	48.7331
1928	48.5484
1912	48.4297
1896	48.2462
1880	47.9553
1864	47.982
1848	47.7484
1832	47.6125
1816	47.586
1800	47.2872
1784	47.2145
1768	47.1607
1752	46.9827
1736	46.7353
1720	46.6247
1704	46.5533
1688	46.2795
1672	46.157
1656	46.0686
1640	45.7842
1624	45.47
1608	45.4696
1592	45.2359
1576	45.1324
1560	45.1144
1544	45.0322
1528	44.7641
1512	44.6864
1496	44.544
1480	44.2096
1464	44.1679
1448	43.8561
1432	43.6314
1416	43.4988
1400	43.298
1384	43.2007
1368	42.9064
1352	42.8195
1336	42.6506
1320	42.6466
1304	42.4089
1288	42.4615
1272	42.1402
1256	42.1968
1240	41.9362
1224	41.9376
1208	41.6561
1192	41.3688
1176	41.1492
1160	40.9356
1144	40.9696
1128	40.6263
1112	40.691
1096	40.135
1080	40.206
1064	40.1727
1048	39.7812
1032	39.7553
1016	39.7089
1000	39.4103
984	 39.2986
968	 39.0362
952	 38.79
936	 38.7341
920	 38.416
904	 38.2799
888	 38.2499
872	 37.8027
856	 37.5142
840	 37.4344
824	 37.0804
808	 36.9657
792	 36.9546
776	 36.6847
760	 36.3457
744	 36.0914
728	 35.9035
712	 35.4132
696	 35.1319
680	 34.665
664	 33.7851
648	 33.7356
632	 33.674
616	 33.071
600	 32.928
584	 32.4541
568	 32.2273
552	 30.8247
536	 30.4481
520	 29.9826
504	 28.6553
488	 28.5362
472	 28.7419
456	 25.792
440	 27.4428
424	 25.3566
408	 17.5905
392	 33.6333
376	 8.756470
370	 -0.657820