File: Bakgrunnsmateriale/MATLAB/FTIR/ftir_data/subBb/Mapping_121/C-4040-8_t58.asc
PE IR       SPECTRUM    SPECTRUM    ASCII       PEDS        1.60
  -1
C-C93A~1.ASC
17/03/27
19:14:32.00
17/03/27
19:14:58.00
tln
$C-4040-8_t0058$<tbV0>[7.8,0.0,8.0,0.0,27,1,0]
27.028
64

2002,4.07
MIRTGS : RIGHTBACK : INTERNAL 2
MIR : ON : INTERNAL 2
OPTKBR

0.200000
8
8.000000
FILLER
RATIO
SPECTRUM
UNLOCKED 256

DOUBLE
64
COMBINED
1
0
0

0.002000
RATIO

1
0
TRUE
51149
0
LEFT NOT FITTED RIGHT NOT FITTED 0
NONE
NONE
15600
12
4.427000
51148
TRUE
1 0 8 72 0 0 0 0

15798

#HDR
-1
-1
#GR
µM
%T
2.38419e-05
0.0
2.000000
0.002000
12515
8
73.5809
29.2642
#DATA
2.000000	 65.1107
2.084000	 64.9372
2.168000	 64.6177
2.252000	 65.2747
2.336000	 65.7312
2.420000	 65.1529
2.504000	 65.1951
2.588000	 65.1457
2.672000	 65.097
2.756000	 65.1975
2.840000	 65.2306
2.924000	 65.1512
3.008000	 65.36
3.092000	 65.3308
3.176000	 65.0396
3.260000	 65.1927
3.344000	 65.1354
3.428000	 64.9813
3.512000	 64.9638
3.596000	 65.1032
3.680000	 65.1283
3.764000	 65.2115
3.848000	 65.2553
3.932000	 65.2902
4.016000	 65.0815
4.100000	 65.4739
4.184000	 65.3237
4.268000	 65.2468
4.352000	 65.3964
4.436000	 65.3818
4.520000	 65.3267
4.604000	 65.0611
4.688000	 65.2384
4.772000	 65.3141
4.856000	 65.059
4.940000	 65.4091
5.024000	 65.2688
5.108000	 65.2907
5.192000	 65.3281
5.276000	 65.2791
5.359999	 65.208
5.444000	 65.3235
5.528000	 65.2138
5.612000	 65.2793
5.696000	 65.2707
5.780000	 65.0207
5.864000	 65.0809
5.948000	 65.3314
6.032000	 65.1147
6.116000	 65.0657
6.200000	 65.011
6.284000	 65.0973
6.368000	 65.0916
6.452000	 65.1634
6.536000	 64.9436
6.620000	 65.0573
6.704000	 65.0572
6.788000	 65.1126
6.872000	 64.5867
6.956000	 65.0056
7.040000	 65.0438
7.124000	 65.0844
7.208000	 65.0768
7.292000	 64.9478
7.376000	 65.1032
7.460000	 65.0099
7.544000	 65.06
7.628000	 64.9447
7.712000	 65.0154
7.796000	 64.9342
7.880000	 64.7213
7.964000	 64.8829
8.048000	 65.0208
8.132000	 64.773
8.216000	 64.8686
8.300000	 64.8651
8.384000	 64.8196
8.468000	 64.6693
8.552000	 64.843
8.635999	 64.8819
8.719999	 65.1666
8.804000	 64.125
8.888000	 64.8089
8.972000	 64.7086
9.056000	 64.3185
9.140000	 64.8599
9.224000	 65.0915
9.308000	 64.6448
9.391999	 64.7341
9.475999	 64.8327
9.560000	 64.2835
9.644000	 64.4102
9.728000	 64.2415
9.812000	 64.107
9.896000	 64.6446
9.980000	 64.5534
10.064	64.6175
10.148	64.4906
10.232	64.3546
10.316	64.2633
10.4	64.4212
10.484	64.5192
10.568	64.4369
10.652	64.3289
10.736	64.4531
10.82	64.4717
10.904	64.3325
10.988	64.4043
11.072	64.3924
11.156	64.2113
11.24	64.1346
11.324	64.372
11.408	64.2991
11.492	64.4212
11.576	64.3667
11.66	64.1751
11.744	64.182
11.828	64.233
11.912	64.0774
11.996	64.1059
12.08	64.0289
12.164	64.1275
12.248	64.1952
12.332	64.0903
12.416	63.8331
12.5	63.7013
12.584	63.6373
12.668	63.7475
12.752	63.7648
12.836	63.6886
12.92	63.6856
13.004	63.8183
13.088	63.6157
13.172	63.1519
13.256	63.4053
13.34	64.1236
13.424	64.0409
13.508	63.5483
13.592	63.3291
13.676	63.1261
13.76	62.7597
13.844	62.5209
13.928	62.989
14.012	63.4167
14.096	63.2573
14.18	63.3002
14.264	63.5509
14.348	63.5732
14.432	63.3902
14.516	63.2016
14.6	62.9944
14.684	62.6645
14.768	62.3849
14.852	62.2672
14.936	62.2202
15.02	62.2674
15.104	62.5363
15.188	62.9124
15.272	63.0588
15.356	62.899
15.44	62.5971
15.524	62.3317
15.608	62.2512
15.692	62.2361
15.776	62.1392
15.86	62.0417
15.944	62.0008
16.028	61.9717
16.112	61.9575
16.196	62.0237
16.28	62.1972
16.364	62.3832
16.448	62.4933
16.532	62.5157
16.616	62.4444
16.7	62.2679
16.784	62.0159
16.868	61.7689
16.952	61.5835
17.036	61.4227
17.12	61.2191
17.204	61.0079
17.288	60.8927
17.372	60.8944
17.456	60.9182
17.54	60.8867
17.624	60.8573
17.708	60.9203
17.792	61.037
17.876	61.0963
17.96	61.0898
18.044	61.1089
18.128	61.1999
18.212	61.3252
18.296	61.4428
18.38	61.5411
18.464	61.5994
18.548	61.5782
18.632	61.4547
18.716	61.2582
18.8	61.0675
18.884	60.9615
18.968	60.9305
19.052	60.8423
19.136	60.5742
19.22	60.1785
19.304	59.8731
19.388	59.8325
19.472	60.0293
19.556	60.2796
19.64	60.4226
19.724	60.4378
19.808	60.4016
19.892	60.3794
19.976	60.3788
20.06	60.3773
20.144	60.3565
20.228	60.2979
20.312	60.1667
20.396	59.9185
20.48	59.5253
20.564	59.0047
20.648	58.4334
20.732	57.9262
20.816	57.5921
20.9	57.4704
20.984	57.5186
21.068	57.6378
21.152	57.7385
21.236	57.7839
21.32	57.7985
21.404	57.8203
21.488	57.853
21.572	57.857
21.656	57.7914
21.74	57.6558
21.824	57.4726
21.908	57.2552
21.992	56.9897
22.076	56.6477
22.16	56.2355
22.244	55.7908
22.328	55.3718
22.412	55.0071
22.496	54.6849
22.58	54.3693
22.664	54.0267
22.748	53.6435
22.832	53.226
22.916	52.799
23	52.4661
23.084	52.3593
23.168	52.6312
23.252	53.3754
23.336	54.5575
23.42	55.9912
23.504	57.4464
23.588	58.7165
23.672	59.6894
23.756	60.3989
23.84	60.9288
23.924	61.3329
24.008	61.6352
24.092	61.8596
24.176	62.011
24.26	62.0064
24.344	61.5963
24.428	60.4637
24.512	58.4069
24.596	55.4778
24.68	52.0101
24.764	48.5734
24.848	45.7579
24.932	44.3097
25.016	44.9349
25.1	48.1013
25.184	53.6269
25.268	60.4909
25.352	67.0815
25.436	71.7643
25.52	73.57
25.604	72.4306
25.688	69.0178
25.772	64.3778
25.856	59.4318
25.94	54.8328
26.024	50.883
26.108	47.5665
26.192	44.7054
26.276	42.0599
26.36	39.3807
26.444	36.54
26.528	33.6667
26.612	31.1072
26.696	29.4907
26.78	29.5379
26.864	31.7835
26.948	36.1588
27.028	41.3785