File: Bakgrunnsmateriale/MATLAB/FTIR/ftir_data/subBb/Mapping_121/C-4040-8_t35.asc
PE IR       SPECTRUM    SPECTRUM    ASCII       PEDS        1.60
  -1
C-B13E~1.ASC
17/03/27
17:20:50.00
17/03/27
17:21:16.00
tln
$C-4040-8_t0035$<tbV0>[10.4,-5.2,8.0,0.0,27,1,0]
27.028
64

2002,4.07
MIRTGS : RIGHTBACK : INTERNAL 2
MIR : ON : INTERNAL 2
OPTKBR

0.200000
8
8.000000
FILLER
RATIO
SPECTRUM
UNLOCKED 256

DOUBLE
64
COMBINED
1
0
0

0.002000
RATIO

1
0
TRUE
51149
0
LEFT NOT FITTED RIGHT NOT FITTED 0
NONE
NONE
15600
12
4.427000
51148
TRUE
1 0 8 72 0 0 0 0

15798

#HDR
-1
-1
#GR
µM
%T
2.38419e-05
0.0
2.000000
0.002000
12515
8
100.971
49.9882
#DATA
2.000000	 64.96
2.084000	 64.9987
2.168000	 64.9051
2.252000	 65.6216
2.336000	 65.1307
2.420000	 65.2246
2.504000	 65.1508
2.588000	 65.0616
2.672000	 65.1808
2.756000	 65.2286
2.840000	 65.0491
2.924000	 64.9935
3.008000	 64.9307
3.092000	 65.3225
3.176000	 65.2274
3.260000	 65.2831
3.344000	 65.1342
3.428000	 64.8284
3.512000	 64.9623
3.596000	 65.3037
3.680000	 65.2218
3.764000	 65.2687
3.848000	 65.2056
3.932000	 65.4666
4.016000	 65.3557
4.100000	 65.3483
4.184000	 65.4658
4.268000	 65.4293
4.352000	 65.4228
4.436000	 65.4525
4.520000	 65.3699
4.604000	 65.322
4.688000	 65.4855
4.772000	 65.416
4.856000	 65.4546
4.940000	 65.4104
5.024000	 65.4354
5.108000	 65.4953
5.192000	 65.4694
5.276000	 65.3996
5.359999	 65.4025
5.444000	 65.4444
5.528000	 65.3898
5.612000	 65.3055
5.696000	 65.3903
5.780000	 65.1746
5.864000	 65.3893
5.948000	 65.4305
6.032000	 65.394
6.116000	 65.3943
6.200000	 65.3723
6.284000	 65.4363
6.368000	 65.241
6.452000	 65.3566
6.536000	 65.2932
6.620000	 65.1984
6.704000	 65.3202
6.788000	 65.3241
6.872000	 65.3601
6.956000	 65.2285
7.040000	 65.1352
7.124000	 65.1432
7.208000	 65.192
7.292000	 64.9797
7.376000	 65.2287
7.460000	 65.1765
7.544000	 65.1432
7.628000	 65.1277
7.712000	 65.0576
7.796000	 65.2045
7.880000	 65.1452
7.964000	 65.2497
8.048000	 65.1221
8.132000	 65.1875
8.216000	 65.2211
8.300000	 65.0696
8.384000	 65.0441
8.468000	 65.0903
8.552000	 65.1301
8.635999	 64.9158
8.719999	 65.1384
8.804000	 65.163
8.888000	 64.538
8.972000	 64.975
9.056000	 65.1488
9.140000	 65.0653
9.224000	 65.1864
9.308000	 64.9234
9.391999	 64.9757
9.475999	 64.945
9.560000	 65.0366
9.644000	 65.2978
9.728000	 64.9256
9.812000	 64.7798
9.896000	 64.9485
9.980000	 64.6809
10.064	64.738
10.148	65.0714
10.232	64.6219
10.316	64.7447
10.4	64.5396
10.484	64.87
10.568	64.8945
10.652	64.6355
10.736	64.7126
10.82	64.5835
10.904	64.7374
10.988	64.7229
11.072	64.8084
11.156	64.7728
11.24	64.6102
11.324	64.7259
11.408	64.5623
11.492	64.5122
11.576	64.601
11.66	64.6626
11.744	64.7514
11.828	64.7824
11.912	64.5977
11.996	64.4783
12.08	64.4535
12.164	64.5995
12.248	64.3529
12.332	64.3222
12.416	64.4035
12.5	64.3186
12.584	64.2727
12.668	64.2441
12.752	64.1521
12.836	64.1892
12.92	64.3065
13.004	64.4064
13.088	64.3706
13.172	64.1452
13.256	63.8166
13.34	63.4914
13.424	63.8343
13.508	64.0499
13.592	63.8634
13.676	64.061
13.76	64.0326
13.844	63.7314
13.928	63.7172
14.012	63.734
14.096	63.7237
14.18	63.9977
14.264	64.132
14.348	63.6579
14.432	63.1837
14.516	63.2504
14.6	63.4813
14.684	63.4464
14.768	63.2881
14.852	63.2486
14.936	63.2701
15.02	63.2303
15.104	63.2299
15.188	63.354
15.272	63.4144
15.356	63.317
15.44	63.2336
15.524	63.1651
15.608	63.0566
15.692	63.0517
15.776	63.1126
15.86	63.1023
15.944	63.1034
16.028	63.1765
16.112	63.2264
16.196	63.1891
16.28	63.084
16.364	62.9741
16.448	62.911
16.532	62.9037
16.616	62.9004
16.7	62.8574
16.784	62.8246
16.868	62.8459
16.952	62.8678
17.036	62.8226
17.12	62.7305
17.204	62.7059
17.288	62.8603
17.372	63.1357
17.456	63.3148
17.54	63.2942
17.624	63.2231
17.708	63.2505
17.792	63.2933
17.876	63.1623
17.96	62.8602
18.044	62.6029
18.128	62.571
18.212	62.7162
18.296	62.8282
18.38	62.74
18.464	62.4801
18.548	62.2301
18.632	62.1271
18.716	62.1388
18.8	62.1415
18.884	62.0679
18.968	61.9438
19.052	61.8247
19.136	61.7457
19.22	61.7162
19.304	61.7134
19.388	61.7073
19.472	61.7099
19.556	61.7565
19.64	61.8421
19.724	61.9147
19.808	61.9429
19.892	61.9607
19.976	62.0321
20.06	62.1761
20.144	62.3244
20.228	62.3681
20.312	62.2516
20.396	62.0213
20.48	61.7915
20.564	61.6566
20.648	61.6394
20.732	61.6884
20.816	61.7197
20.9	61.6663
20.984	61.5201
21.068	61.3377
21.152	61.2244
21.236	61.2698
21.32	61.4865
21.404	61.7863
21.488	62.0203
21.572	62.0582
21.656	61.851
21.74	61.4445
21.824	60.9569
21.908	60.5202
21.992	60.2246
22.076	60.0936
22.16	60.067
22.244	60.0218
22.328	59.844
22.412	59.5016
22.496	59.0698
22.58	58.6833
22.664	58.4556
22.748	58.4182
22.832	58.5286
22.916	58.7035
23	58.8321
23.084	58.7945
23.168	58.4748
23.252	57.8183
23.336	56.8663
23.42	55.7706
23.504	54.7794
23.588	54.1155
23.672	53.8789
23.756	54.0126
23.84	54.2308
23.924	54.2037
24.008	53.7326
24.092	52.8204
24.176	51.6478
24.26	50.5813
24.344	50.022
24.428	50.1448
24.512	50.8002
24.596	51.585
24.68	52.0943
24.764	52.1762
24.848	51.9987
24.932	51.8778
25.016	52.0992
25.1	52.7888
25.184	54.2986
25.268	57.2726
25.352	62.5031
25.436	70.289
25.52	79.9252
25.604	89.788
25.688	97.5028
25.772	100.915
25.856	99.0175
25.94	92.1368
26.024	81.8248
26.108	70.3036
26.192	60.0018
26.276	52.9314
26.36	50.4437
26.444	52.3862
26.528	57.2334
26.612	62.5465
26.696	66.0854
26.78	66.6648
26.864	64.7748
26.948	62.0453
27.028	60.0086