File: Bakgrunnsmateriale/MATLAB/FTIR/ftir_data/subBb/Mapping_121/C-4040-8_t56_cm-1.asc
PE IR       SPECTRUM    SPECTRUM    ASCII       PEDS        1.60
  -1
C-1C6E~1.ASC
17/03/27
19:05:18.00
17/03/27
19:05:18.00
tln
$C-4040-8_t0056$<tbV0>[13.0,0.0,8.0,0.0,27,1,0]
370
64

2002,4.07
MIRTGS : RIGHTBACK : INTERNAL 2
MIR : ON : INTERNAL 2
OPTKBR

0.200000
8
8.000000
FILLER
RATIO
SPECTRUM
UNLOCKED 256

DOUBLE
64
COMBINED
1
0
0

1.000000
RATIO

1
0
TRUE
51149
0
LEFT NOT FITTED RIGHT NOT FITTED 0
NONE
NONE
15600
12
4.427000
51148
TRUE
1 0 8 72 0 0 0 0

15798

#HDR
-1
-1
#GR
CM-1
%T
2.38419e-05
0.0
5000
-1.000000
4631
8
92.2904
22.9496
#DATA
5000	64.7402
4984	65.2668
4968	66.1034
4952	64.3358
4936	65.053
4920	64.8151
4904	65.423
4888	64.9654
4872	65.3934
4856	64.3055
4840	64.4851
4824	64.9896
4808	64.9684
4792	65.2218
4776	64.8924
4760	64.3554
4744	64.5797
4728	64.1595
4712	64.9161
4696	64.4559
4680	64.5278
4664	64.7791
4648	64.3598
4632	64.7811
4616	64.7367
4600	64.8744
4584	64.9773
4568	64.821
4552	64.6229
4536	64.9525
4520	64.8888
4504	65.3772
4488	65.3905
4472	65.5282
4456	65.6716
4440	65.7091
4424	66.0415
4408	65.9353
4392	66.4667
4376	65.8076
4360	51.9526
4344	70.611
4328	66.5497
4312	65.8104
4296	66.0401
4280	66.0352
4264	65.6111
4248	65.632
4232	65.3821
4216	65.3402
4200	65.0038
4184	64.9683
4168	65.1929
4152	65.2837
4136	65.1443
4120	64.7665
4104	64.6438
4088	65.0147
4072	64.9312
4056	64.7711
4040	64.8483
4024	64.7242
4008	64.9016
3992	64.889
3976	64.9704
3960	64.8997
3944	65.2779
3928	64.8246
3912	64.9951
3896	65.1571
3880	65.1394
3864	65.3507
3848	65.3471
3832	64.9382
3816	65.2032
3800	65.2913
3784	65.4731
3768	65.0624
3752	65.1174
3736	65.179
3720	65.2846
3704	65.028
3688	65.2168
3672	65.2552
3656	65.1329
3640	65.2868
3624	64.9628
3608	64.8669
3592	64.8864
3576	65.2797
3560	65.152
3544	65.1654
3528	65.0676
3512	64.9158
3496	64.97
3480	65.1445
3464	65.0913
3448	65.2619
3432	65.2109
3416	65.1691
3400	65.2128
3384	65.2104
3368	65.0001
3352	65.0911
3336	65.3064
3320	65.2557
3304	65.0497
3288	65.2482
3272	65.0438
3256	65.2927
3240	65.1453
3224	65.0912
3208	65.0518
3192	65.1171
3176	65.2124
3160	64.99
3144	65.1654
3128	64.8897
3112	64.8381
3096	65.1411
3080	65.1045
3064	65.1335
3048	65.3551
3032	65.3182
3016	65.3002
3000	65.1259
2984	65.1061
2968	65.0288
2952	65.1156
2936	65.1035
2920	64.8497
2904	65.1165
2888	65.0831
2872	65.097
2856	65.1658
2840	65.0402
2824	64.9906
2808	65.0818
2792	65.1138
2776	65.0893
2760	65.2091
2744	65.1078
2728	65.1006
2712	65.0814
2696	65.053
2680	65.1328
2664	65.2335
2648	65.2095
2632	65.1453
2616	65.3048
2600	65.1791
2584	65.204
2568	65.3123
2552	65.2777
2536	65.2162
2520	65.3027
2504	65.3398
2488	65.1069
2472	65.2384
2456	65.3275
2440	65.2269
2424	65.5693
2408	65.2742
2392	65.355
2376	65.2856
2360	65.2091
2344	65.2758
2328	65.2315
2312	65.1828
2296	65.2681
2280	65.0645
2264	65.3522
2248	65.3706
2232	65.2178
2216	65.268
2200	65.0747
2184	65.2935
2168	65.1615
2152	65.2823
2136	65.2023
2120	65.2402
2104	65.2631
2088	65.3794
2072	65.4174
2056	65.2185
2040	65.2032
2024	65.2503
2008	65.1955
1992	65.2543
1976	65.2972
1960	65.1624
1944	65.2782
1928	65.3023
1912	65.1571
1896	65.3804
1880	65.2982
1864	65.1481
1848	65.2842
1832	65.3315
1816	65.2771
1800	65.2582
1784	65.1322
1768	65.1927
1752	65.1939
1736	64.9154
1720	65.0499
1704	65.1577
1688	65.1487
1672	65.3452
1656	65.1583
1640	65.3354
1624	65.1065
1608	65.1008
1592	64.9763
1576	65.2225
1560	64.8931
1544	65.0954
1528	65.0459
1512	65.0381
1496	65.2563
1480	64.9846
1464	65.1998
1448	64.7707
1432	64.7612
1416	65.0309
1400	65.1774
1384	65.1385
1368	65.0783
1352	64.9163
1336	64.8559
1320	64.9409
1304	65.1193
1288	65.0306
1272	64.826
1256	65.0039
1240	65.0144
1224	64.8811
1208	64.8584
1192	64.9514
1176	64.8786
1160	64.9133
1144	64.9568
1128	64.6054
1112	64.5854
1096	64.7524
1080	65.031
1064	65.1112
1048	64.6173
1032	64.4757
1016	64.5964
1000	64.5699
984	 64.5231
968	 64.4224
952	 64.6217
936	 64.3831
920	 64.3929
904	 64.1847
888	 64.1007
872	 64.1642
856	 64.2255
840	 64.275
824	 63.8832
808	 64.0196
792	 63.8214
776	 63.9189
760	 63.6616
744	 63.3942
728	 62.9639
712	 63.2695
696	 62.8303
680	 62.4468
664	 62.1568
648	 62.3645
632	 62.0326
616	 62.5294
600	 61.2747
584	 61.1122
568	 61.3459
552	 60.7495
536	 60.6939
520	 60.3201
504	 60.1893
488	 58.7296
472	 58.5488
456	 57.1018
440	 59.8715
424	 57.7792
408	 67.1633
392	 30.1943
376	 83.511
370	 75.9145