File: Bakgrunnsmateriale/MATLAB/FTIR/ftir_data/subBb/Mapping_121/C-4040-8_e122.asc
PE IR       SPECTRUM    SPECTRUM    ASCII       PEDS        1.60
  -1
C-4040~2.ASC
17/03/27
14:29:38.00
17/03/27
14:30:05.00
tln
$C-4040-8_e0122$<ebV0>[-23.3,12.1,10.0,0.0,27,1,0]
27.028
64

2002,4.07
MIRTGS : RIGHTBACK : INTERNAL 2
MIR : ON : INTERNAL 2
OPTKBR

0.200000
8
8.000000
FILLER
SINGLE
SPECTRUM
UNLOCKED 256

DOUBLE

COMBINED
1
0
0

0.002000
BACKG

1
0
TRUE
51149
0
LEFT NOT FITTED RIGHT NOT FITTED 0
NONE
NONE
15600
12
4.427000
51148
TRUE
1 0 8 72 0 0 0 0

15798

#HDR
-1
-1
#GR
µM
EGY
2.38419e-05
0.0
2.000000
0.002000
12515
8
2.455816
0.009918
#DATA
2.000000	 0.768876
2.084000	 0.867554
2.168000	 0.927145
2.252000	 0.952015
2.336000	 1.136967
2.420000	 1.230310
2.504000	 1.388469
2.588000	 1.442424
2.672000	 1.539388
2.756000	 1.566633
2.840000	 1.625492
2.924000	 1.587159
3.008000	 1.686573
3.092000	 1.783655
3.176000	 1.811323
3.260000	 1.930129
3.344000	 2.028895
3.428000	 1.835784
3.512000	 2.009586
3.596000	 2.214918
3.680000	 2.252413
3.764000	 2.219228
3.848000	 2.226212
3.932000	 2.293731
4.016000	 2.326144
4.100000	 2.281994
4.184000	 2.247081
4.268000	 2.264514
4.352000	 2.339268
4.436000	 2.378215
4.520000	 2.368263
4.604000	 2.337538
4.688000	 2.332771
4.772000	 2.336912
4.856000	 2.384298
4.940000	 2.443079
5.024000	 2.453698
5.108000	 2.428694
5.192000	 2.400911
5.276000	 2.368156
5.359999	 2.379170
5.444000	 2.405168
5.528000	 2.426642
5.612000	 2.422010
5.696000	 2.388834
5.780000	 2.311389
5.864000	 2.269307
5.948000	 2.224173
6.032000	 2.175531
6.116000	 2.128877
6.200000	 1.999781
6.284000	 2.013278
6.368000	 1.970980
6.452000	 1.946940
6.536000	 2.087950
6.620000	 2.065859
6.704000	 1.684676
6.788000	 1.964492
6.872000	 1.780140
6.956000	 1.856614
7.040000	 1.849814
7.124000	 1.725461
7.208000	 1.781682
7.292000	 1.812155
7.376000	 1.814320
7.460000	 1.812594
7.544000	 1.845174
7.628000	 1.854429
7.712000	 1.853063
7.796000	 1.849435
7.880000	 1.773720
7.964000	 1.758467
8.048000	 1.832141
8.132000	 1.821646
8.216000	 1.782840
8.300000	 1.740891
8.384000	 1.738112
8.468000	 1.711211
8.552000	 1.670566
8.635999	 1.619217
8.719999	 1.599478
8.804000	 1.571311
8.888000	 1.522815
8.972000	 1.467391
9.056000	 1.429974
9.140000	 1.424478
9.224000	 1.428014
9.308000	 1.430895
9.391999	 1.435635
9.475999	 1.356124
9.560000	 1.321970
9.644000	 1.381897
9.728000	 1.366312
9.812000	 1.358739
9.896000	 1.377183
9.980000	 1.394434
10.064	1.394358
10.148	1.381128
10.232	1.368029
10.316	1.346647
10.4	1.318649
10.484	1.292738
10.568	1.271005
10.652	1.256829
10.736	1.241013
10.82	1.225376
10.904	1.205927
10.988	1.178891
11.072	1.161069
11.156	1.151152
11.24	1.128406
11.324	1.077959
11.408	1.031839
11.492	1.047960
11.576	1.084603
11.66	1.091837
11.744	1.084647
11.828	1.076158
11.912	1.057010
11.996	0.993267
12.08	0.882813
12.164	0.851557
12.248	0.912843
12.332	0.947092
12.416	0.947451
12.5	0.945234
12.584	0.952227
12.668	0.964785
12.752	0.974067
12.836	0.976241
12.92	0.973482
13.004	0.969787
13.088	0.965956
13.172	0.961062
13.256	0.955100
13.34	0.947892
13.424	0.939233
13.508	0.932970
13.592	0.925134
13.676	0.911325
13.76	0.897614
13.844	0.885737
13.928	0.873022
14.012	0.860127
14.096	0.847953
14.18	0.834611
14.264	0.817283
14.348	0.794501
14.432	0.766417
14.516	0.740439
14.6	0.730712
14.684	0.733864
14.768	0.733950
14.852	0.727126
14.936	0.717625
15.02	0.708209
15.104	0.699693
15.188	0.691164
15.272	0.681632
15.356	0.671078
15.44	0.660249
15.524	0.650505
15.608	0.642367
15.692	0.634016
15.776	0.624842
15.86	0.616153
15.944	0.608239
16.028	0.600425
16.112	0.592005
16.196	0.581115
16.28	0.566514
16.364	0.549373
16.448	0.533647
16.532	0.524044
16.616	0.521661
16.7	0.522379
16.784	0.521275
16.868	0.517484
16.952	0.512900
17.036	0.508607
17.12	0.504706
17.204	0.501374
17.288	0.498895
17.372	0.496725
17.456	0.494413
17.54	0.491927
17.624	0.489159
17.708	0.485530
17.792	0.480957
17.876	0.476291
17.96	0.472299
18.044	0.468880
18.128	0.465196
18.212	0.460702
18.296	0.455443
18.38	0.450088
18.464	0.445172
18.548	0.440925
18.632	0.436906
18.716	0.432218
18.8	0.426329
18.884	0.419943
18.968	0.414313
19.052	0.410204
19.136	0.406839
19.22	0.402854
19.304	0.397704
19.388	0.391592
19.472	0.385273
19.556	0.379256
19.64	0.373807
19.724	0.368610
19.808	0.362686
19.892	0.355025
19.976	0.345552
20.06	0.335513
20.144	0.326724
20.228	0.319991
20.312	0.314709
20.396	0.309524
20.48	0.303308
20.564	0.295749
20.648	0.287263
20.732	0.278635
20.816	0.270454
20.9	0.263257
20.984	0.257329
21.068	0.252779
21.152	0.249398
21.236	0.246605
21.32	0.243437
21.404	0.239252
21.488	0.233743
21.572	0.227157
21.656	0.219877
21.74	0.212352
21.824	0.204805
21.908	0.197637
21.992	0.191048
22.076	0.185237
22.16	0.180035
22.244	0.175046
22.328	0.169994
22.412	0.164764
22.496	0.159668
22.58	0.155086
22.664	0.151177
22.748	0.147790
22.832	0.144587
22.916	0.141125
23	0.137135
23.084	0.132685
23.168	0.127733
23.252	0.122505
23.336	0.116979
23.42	0.111238
23.504	0.105368
23.588	0.099517
23.672	0.093877
23.756	0.088629
23.84	0.083832
23.924	0.079485
24.008	0.075519
24.092	0.071964
24.176	0.068735
24.26	0.065856
24.344	0.063171
24.428	0.060449
24.512	0.057471
24.596	0.054120
24.68	0.050413
24.764	0.046682
24.848	0.043268
24.932	0.040629
25.016	0.038853
25.1	0.037837
25.184	0.037230
25.268	0.036478
25.352	0.035275
25.436	0.033373
25.52	0.030722
25.604	0.027497
25.688	0.024062
25.772	0.020715
25.856	0.017793
25.94	0.015533
26.024	0.013978
26.108	0.013077
26.192	0.012668
26.276	0.012629
26.36	0.012743
26.444	0.012862
26.528	0.012922
26.612	0.012846
26.696	0.012606
26.78	0.012172
26.864	0.011547
26.948	0.010767
27.028	0.009918