File: Bakgrunnsmateriale/MATLAB/FTIR/ftir_data/subBb/Mapping_121/C-4040-8_t104_cm-1.asc
PE IR       SPECTRUM    SPECTRUM    ASCII       PEDS        1.60
  -1
C-498C~1.ASC
17/03/27
23:01:15.00
17/03/27
23:01:15.00
tln
$C-4040-8_t0104$<tbV0>[2.6,10.4,8.0,0.0,27,1,0]
370
64

2002,4.07
MIRTGS : RIGHTBACK : INTERNAL 2
MIR : ON : INTERNAL 2
OPTKBR

0.200000
8
8.000000
FILLER
RATIO
SPECTRUM
UNLOCKED 256

DOUBLE
64
COMBINED
1
0
0

1.000000
RATIO

1
0
TRUE
51149
0
LEFT NOT FITTED RIGHT NOT FITTED 0
NONE
NONE
15600
12
4.427000
51148
TRUE
1 0 8 72 0 0 0 0

15798

#HDR
-1
-1
#GR
CM-1
%T
2.38419e-05
0.0
5000
-1.000000
4631
8
200
53.3781
#DATA
5000	65.2866
4984	64.7888
4968	65.1111
4952	64.7555
4936	64.773
4920	64.9284
4904	65.1134
4888	64.8037
4872	65.5422
4856	64.9585
4840	64.9114
4824	65.163
4808	65.2471
4792	64.8908
4776	64.9306
4760	65.1833
4744	65.1202
4728	65.4872
4712	65.2349
4696	65.2433
4680	65.0947
4664	65.3445
4648	65.5433
4632	64.8756
4616	65.5314
4600	64.9764
4584	65.3806
4568	65.1836
4552	65.3075
4536	65.1695
4520	65.2611
4504	64.7507
4488	64.9451
4472	64.5657
4456	64.4957
4440	64.4572
4424	65.0651
4408	63.8935
4392	54.7555
4376	63.6023
4360	64.5182
4344	64.7964
4328	64.6562
4312	65.0025
4296	64.5416
4280	64.8432
4264	65.0073
4248	64.5705
4232	64.6229
4216	64.7467
4200	64.7173
4184	64.3605
4168	64.8005
4152	65.3237
4136	65.1677
4120	65.236
4104	65.4845
4088	64.8623
4072	64.7618
4056	65.0896
4040	65.1905
4024	65.3423
4008	65.2575
3992	64.9641
3976	65.0877
3960	65.4998
3944	65.0706
3928	65.0545
3912	65.5077
3896	65.2364
3880	65.1349
3864	65.4157
3848	64.9474
3832	65.0856
3816	65.1518
3800	65.2432
3784	65.3071
3768	65.1938
3752	65.3079
3736	65.2266
3720	65.3886
3704	65.1709
3688	65.341
3672	65.1934
3656	65.0671
3640	65.5597
3624	65.2915
3608	65.0577
3592	65.3205
3576	65.2437
3560	65.4383
3544	65.1476
3528	65.393
3512	65.0902
3496	65.164
3480	64.8476
3464	65.2431
3448	65.1361
3432	65.4599
3416	65.378
3400	65.2464
3384	65.1015
3368	65.1992
3352	65.3583
3336	65.1781
3320	65.0496
3304	65.1097
3288	65.1174
3272	65.232
3256	65.1144
3240	65.2225
3224	65.0792
3208	65.4419
3192	64.9429
3176	65.2189
3160	65.3772
3144	65.274
3128	65.4592
3112	65.2405
3096	65.3098
3080	65.1642
3064	65.172
3048	65.2539
3032	65.2188
3016	65.2114
3000	65.184
2984	65.1904
2968	64.9272
2952	65.1109
2936	65.2606
2920	64.6984
2904	65.1192
2888	65.2066
2872	65.1655
2856	65.3903
2840	64.993
2824	65.2065
2808	65.268
2792	65.5132
2776	65.3617
2760	65.2533
2744	65.2523
2728	65.345
2712	65.4665
2696	65.3121
2680	65.2887
2664	65.4
2648	65.1973
2632	65.1275
2616	65.3685
2600	65.3222
2584	65.2712
2568	65.2984
2552	65.3046
2536	65.3409
2520	65.1818
2504	65.5144
2488	65.2937
2472	65.3558
2456	65.4422
2440	65.1472
2424	64.8081
2408	65.534
2392	65.2846
2376	65.1672
2360	65.3289
2344	65.2245
2328	65.3318
2312	65.3214
2296	65.3709
2280	65.3303
2264	65.2536
2248	65.3422
2232	65.2933
2216	65.3847
2200	65.2483
2184	65.4257
2168	65.3958
2152	65.4827
2136	65.3909
2120	65.2729
2104	65.288
2088	65.2519
2072	65.8546
2056	65.1918
2040	65.334
2024	65.2496
2008	65.3632
1992	65.2709
1976	65.3309
1960	65.3012
1944	65.3574
1928	65.4685
1912	65.2558
1896	65.3625
1880	65.2768
1864	65.2356
1848	65.3195
1832	65.3891
1816	65.3306
1800	65.3625
1784	65.3427
1768	65.3408
1752	65.0717
1736	64.9739
1720	65.0663
1704	65.2529
1688	65.3616
1672	65.3548
1656	65.2082
1640	65.1755
1624	65.1664
1608	65.186
1592	65.1459
1576	65.0549
1560	64.8804
1544	65.2202
1528	65.1051
1512	65.1836
1496	65.1842
1480	65.0555
1464	65.1057
1448	65.3696
1432	65.0626
1416	65.0887
1400	65.1222
1384	65.0056
1368	65.0269
1352	65.0671
1336	64.992
1320	65.1795
1304	65.0095
1288	65.0344
1272	65.0145
1256	64.9738
1240	65.1242
1224	65.0774
1208	64.8795
1192	65.038
1176	64.9863
1160	64.9456
1144	64.8908
1128	64.642
1112	64.8985
1096	64.6343
1080	64.8153
1064	64.8125
1048	64.9571
1032	64.6542
1016	64.4577
1000	64.3753
984	 64.6652
968	 64.7286
952	 64.5887
936	 64.5354
920	 64.7619
904	 64.1284
888	 64.0233
872	 64.2211
856	 64.528
840	 63.7102
824	 64.5712
808	 64.1243
792	 63.9254
776	 64.3186
760	 63.6811
744	 63.754
728	 63.7342
712	 63.3816
696	 63.0709
680	 63.3349
664	 63.309
648	 63.5988
632	 62.7347
616	 62.593
600	 62.4844
584	 62.156
568	 62.4679
552	 63.2048
536	 61.3646
520	 61.0555
504	 61.2314
488	 60.9714
472	 60.0951
456	 59.2712
440	 58.2503
424	 56.6249
408	 55.2076
392	 69.6671
376	 154.465
370	 197.486