File: Bakgrunnsmateriale/MATLAB/FTIR/ftir_data/subBb/Mapping_121/C-4040-8_e126_cm-1.asc
PE IR       SPECTRUM    SPECTRUM    ASCII       PEDS        1.60
  -1
C-3BCF~1.ASC
17/03/27
21:45:55.00
17/03/27
21:45:55.00
tln
$C-4040-8_e0126$<ebV0>[-23.3,12.1,10.0,0.0,27,1,0]
370
64

2002,4.07
MIRTGS : RIGHTBACK : INTERNAL 2
MIR : ON : INTERNAL 2
OPTKBR

0.200000
8
8.000000
FILLER
SINGLE
SPECTRUM
UNLOCKED 256

DOUBLE

COMBINED
1
0
0

1.000000
BACKG

1
0
TRUE
51149
0
LEFT NOT FITTED RIGHT NOT FITTED 0
NONE
NONE
15600
12
4.427000
51148
TRUE
1 0 8 72 0 0 0 0

15798

#HDR
-1
-1
#GR
CM-1
EGY
2.38419e-05
0.0
5000
-1.000000
4631
8
2.458310
0.003147
#DATA
5000	0.763607
4984	0.772309
4968	0.780916
4952	0.785183
4936	0.794124
4920	0.796246
4904	0.804281
4888	0.806784
4872	0.814366
4856	0.827121
4840	0.837731
4824	0.846195
4808	0.856184
4792	0.865197
4776	0.876903
4760	0.883960
4744	0.892782
4728	0.895190
4712	0.898814
4696	0.901412
4680	0.903296
4664	0.905299
4648	0.905799
4632	0.913763
4616	0.921249
4600	0.934171
4584	0.939750
4568	0.956320
4552	0.963568
4536	0.989389
4520	0.988483
4504	1.001238
4488	1.004195
4472	1.008749
4456	1.014852
4440	1.015806
4424	1.011705
4408	1.003623
4392	0.911283
4376	1.044917
4360	1.064181
4344	1.076436
4328	1.087069
4312	1.108622
4296	1.127958
4280	1.143264
4264	1.149940
4248	1.170897
4232	1.177835
4216	1.185870
4200	1.196169
4184	1.203346
4168	1.208829
4152	1.214528
4136	1.223826
4120	1.237440
4104	1.252627
4088	1.276063
4072	1.299214
4056	1.319003
4040	1.340031
4024	1.355576
4008	1.375675
3992	1.390838
3976	1.401257
3960	1.408076
3944	1.415133
3928	1.421117
3912	1.422619
3896	1.430201
3880	1.438975
3864	1.445674
3848	1.462411
3832	1.482486
3816	1.492428
3800	1.514339
3784	1.536107
3768	1.545667
3752	1.543354
3736	1.556253
3720	1.567983
3704	1.572608
3688	1.563096
3672	1.561260
3656	1.569676
3640	1.574993
3624	1.573204
3608	1.584553
3592	1.589989
3576	1.602792
3560	1.609444
3544	1.622104
3528	1.621127
3512	1.623392
3496	1.621699
3480	1.617193
3464	1.602411
3448	1.595830
3432	1.581454
3416	1.586365
3400	1.596164
3384	1.608753
3368	1.621794
3352	1.644992
3336	1.669979
3320	1.694250
3304	1.717686
3288	1.739454
3272	1.753544
3256	1.768636
3240	1.779580
3224	1.785683
3208	1.784968
3192	1.795530
3176	1.794981
3160	1.800131
3144	1.815629
3128	1.826310
3112	1.854109
3096	1.881575
3080	1.916241
3064	1.938009
3048	1.962399
3032	1.973462
3016	1.962041
3000	2.021908
2984	2.024674
2968	1.958012
2952	1.918411
2936	1.811146
2920	1.803421
2904	1.944303
2888	1.995444
2872	1.982617
2856	1.924252
2840	2.069926
2824	2.128958
2808	2.166223
2792	2.188777
2776	2.223062
2760	2.243256
2744	2.252793
2728	2.254033
2712	2.249264
2696	2.241373
2680	2.232980
2664	2.216935
2648	2.215409
2632	2.217483
2616	2.219128
2600	2.226281
2584	2.237176
2568	2.264595
2552	2.283358
2536	2.302694
2520	2.318000
2504	2.324676
2488	2.319931
2472	2.314400
2456	2.303576
2440	2.291274
2424	2.278614
2408	2.255797
2392	2.249050
2376	2.241468
2360	2.236127
2344	2.263569
2328	2.285003
2312	2.316737
2296	2.343320
2280	2.360820
2264	2.375578
2248	2.380537
2232	2.380681
2216	2.371263
2200	2.361845
2184	2.345538
2168	2.334451
2152	2.330160
2136	2.332448
2120	2.337336
2104	2.338719
2088	2.342963
2072	2.344489
2056	2.397847
2040	2.422308
2024	2.443051
2008	2.454257
1992	2.457714
1976	2.446079
1960	2.431654
1944	2.418804
1928	2.402710
1912	2.390646
1896	2.373051
1880	2.375268
1864	2.384090
1848	2.392983
1832	2.405214
1816	2.425241
1800	2.431488
1784	2.431702
1768	2.412390
1752	2.389717
1736	2.331042
1720	2.313184
1704	2.273964
1688	2.252221
1672	2.225685
1656	2.181935
1640	2.153801
1624	2.106547
1608	1.974558
1592	2.017307
1576	1.985025
1560	1.936459
1544	1.956963
1528	2.107977
1512	2.092051
1496	1.700568
1480	1.960825
1464	1.934504
1448	1.781988
1432	1.872634
1416	1.842093
1400	1.728773
1384	1.783514
1368	1.816916
1352	1.812314
1336	1.828837
1320	1.852917
1304	1.855874
1288	1.853156
1272	1.805257
1256	1.755285
1240	1.834201
1224	1.814174
1208	1.747083
1192	1.738286
1176	1.697278
1160	1.627922
1144	1.598000
1128	1.541876
1112	1.455569
1096	1.429009
1080	1.429963
1064	1.437759
1048	1.304936
1032	1.380586
1016	1.370096
1000	1.403141
984	 1.383209
968	 1.341867
952	 1.286363
936	 1.253557
920	 1.207661
904	 1.161670
888	 1.118826
872	 1.036691
856	 1.090049
840	 1.062703
824	 0.846600
808	 0.949311
792	 0.961565
776	 0.980663
760	 0.965261
744	 0.942420
728	 0.904870
712	 0.860166
696	 0.792717
680	 0.733661
664	 0.709486
648	 0.665807
632	 0.624561
616	 0.576829
600	 0.525498
584	 0.509524
568	 0.492072
552	 0.464010
536	 0.437831
520	 0.402140
504	 0.360512
488	 0.303411
472	 0.252699
456	 0.197386
440	 0.151896
424	 0.100898
408	 0.060582
392	 0.026535
376	 0.005674
370	 0.003218