File: Bakgrunnsmateriale/MATLAB/FTIR/ftir_data/subBb/Mapping_121/C-4040-8_t74_cm-1.asc
PE IR       SPECTRUM    SPECTRUM    ASCII       PEDS        1.60
  -1
C-1D6F~1.ASC
17/03/27
20:35:06.00
17/03/27
20:35:06.00
tln
$C-4040-8_t0074$<tbV0>[-5.2,2.6,8.0,0.0,27,1,0]
370
64

2002,4.07
MIRTGS : RIGHTBACK : INTERNAL 2
MIR : ON : INTERNAL 2
OPTKBR

0.200000
8
8.000000
FILLER
RATIO
SPECTRUM
UNLOCKED 256

DOUBLE
64
COMBINED
1
0
0

1.000000
RATIO

1
0
TRUE
51149
0
LEFT NOT FITTED RIGHT NOT FITTED 0
NONE
NONE
15600
12
4.427000
51148
TRUE
1 0 8 72 0 0 0 0

15798

#HDR
-1
-1
#GR
CM-1
%T
2.38419e-05
0.0
5000
-1.000000
4631
8
75.587
4.694247
#DATA
5000	64.9391
4984	65.4353
4968	65.1685
4952	66.2104
4936	64.9989
4920	65.1906
4904	65.4703
4888	65.45
4872	65.9521
4856	64.8799
4840	64.9561
4824	65.0474
4808	65.0969
4792	65.4256
4776	65.1167
4760	65.0923
4744	65.0773
4728	64.8298
4712	65.0832
4696	65.3846
4680	65.4963
4664	65.1629
4648	65.4001
4632	65.7013
4616	64.9849
4600	64.8241
4584	65.2572
4568	64.9896
4552	65.1667
4536	65.7691
4520	65.3873
4504	64.8548
4488	65.0053
4472	65.0114
4456	65.0092
4440	65.6846
4424	65.1525
4408	63.9889
4392	63.5526
4376	60.0631
4360	65.0018
4344	66.3256
4328	65.9085
4312	65.5991
4296	65.8308
4280	65.4479
4264	65.1267
4248	65.1197
4232	65.3648
4216	65.2105
4200	65.2313
4184	65.644
4168	65.5931
4152	65.2411
4136	65.012
4120	65.2122
4104	64.9736
4088	65.0057
4072	64.9725
4056	65.0324
4040	65.2897
4024	65.2817
4008	65.3403
3992	65.3823
3976	64.9517
3960	65.278
3944	65.0674
3928	65.2455
3912	65.4231
3896	65.3496
3880	64.9958
3864	65.3549
3848	65.1827
3832	65.1951
3816	65.1738
3800	65.2362
3784	65.114
3768	65.4506
3752	65.4567
3736	65.2395
3720	65.2766
3704	65.2788
3688	65.3823
3672	65.4061
3656	65.4179
3640	65.1522
3624	65.3466
3608	65.3152
3592	65.3678
3576	65.3382
3560	65.1389
3544	65.2725
3528	65.3521
3512	65.1547
3496	65.2743
3480	65.4757
3464	65.3464
3448	65.4019
3432	65.1655
3416	65.3406
3400	65.0229
3384	65.5098
3368	65.2996
3352	65.1656
3336	65.3997
3320	65.3106
3304	65.1964
3288	65.277
3272	65.2537
3256	65.3702
3240	64.9696
3224	65.2569
3208	65.0915
3192	65.4836
3176	65.2442
3160	65.2697
3144	65.2811
3128	65.0121
3112	65.3349
3096	65.4378
3080	65.2944
3064	65.3422
3048	65.1858
3032	65.3639
3016	65.1918
3000	65.2085
2984	65.1272
2968	65.2342
2952	65.0919
2936	65.0288
2920	64.7451
2904	65.1721
2888	65.1968
2872	65.1932
2856	65.133
2840	65.1516
2824	65.3111
2808	65.3112
2792	65.4077
2776	65.3429
2760	65.3261
2744	65.3894
2728	65.259
2712	65.537
2696	65.542
2680	65.3797
2664	65.321
2648	65.2886
2632	65.5512
2616	65.3377
2600	65.314
2584	65.427
2568	65.2822
2552	65.4607
2536	65.3688
2520	65.3904
2504	65.3654
2488	65.405
2472	65.4031
2456	65.3914
2440	65.4874
2424	65.4288
2408	65.2882
2392	65.2979
2376	65.4678
2360	65.2925
2344	65.3783
2328	65.4258
2312	65.2831
2296	65.3036
2280	65.4384
2264	65.4174
2248	65.4839
2232	65.4364
2216	65.2941
2200	65.4158
2184	65.4521
2168	65.2944
2152	65.428
2136	65.502
2120	65.3442
2104	65.4
2088	65.3974
2072	65.7854
2056	65.6041
2040	65.445
2024	65.4631
2008	65.5683
1992	65.3831
1976	65.3864
1960	65.4059
1944	65.4276
1928	65.4296
1912	65.4288
1896	65.4138
1880	65.3247
1864	65.3643
1848	65.3317
1832	65.3969
1816	65.461
1800	65.3092
1784	65.3129
1768	65.3606
1752	65.4065
1736	65.2203
1720	65.2401
1704	65.3578
1688	65.4445
1672	65.3701
1656	65.3424
1640	65.4191
1624	65.2333
1608	65.0035
1592	65.1646
1576	65.2106
1560	65.2381
1544	65.2121
1528	65.1489
1512	65.0933
1496	65.1853
1480	65.2885
1464	65.2775
1448	65.0943
1432	65.0756
1416	65.207
1400	65.2037
1384	65.1569
1368	65.1441
1352	65.1513
1336	65.2014
1320	65.1434
1304	65.0414
1288	65.1722
1272	65.0508
1256	65.1503
1240	65.0595
1224	64.8962
1208	65.2718
1192	65.0745
1176	65.0436
1160	64.7938
1144	64.6869
1128	64.8763
1112	64.9593
1096	64.5926
1080	65.1075
1064	64.7959
1048	64.8384
1032	64.847
1016	64.6739
1000	65.0432
984	 64.9536
968	 65.2771
952	 64.969
936	 64.6988
920	 65.0403
904	 64.9246
888	 64.7995
872	 64.8093
856	 64.3074
840	 64.8461
824	 64.419
808	 64.462
792	 64.386
776	 64.3697
760	 64.5964
744	 64.2825
728	 63.6611
712	 63.5914
696	 63.6185
680	 63.5456
664	 62.8149
648	 62.9229
632	 62.8033
616	 62.7097
600	 63.4811
584	 62.9655
568	 62.7824
552	 62.1899
536	 62.2062
520	 61.3748
504	 61.6263
488	 61.3087
472	 60.0046
456	 61.6003
440	 59.6407
424	 58.5612
408	 55.8704
392	 47.664
376	 17.5668
370	 23.1457