File: Bakgrunnsmateriale/MATLAB/FTIR/ftir_data/subBb/Mapping_121/C-4040-8_t112.asc
PE IR       SPECTRUM    SPECTRUM    ASCII       PEDS        1.60
  -1
C-84C8~1.ASC
17/03/27
23:44:24.00
17/03/27
23:44:50.00
tln
$C-4040-8_t0112$<tbV0>[10.4,13.0,8.0,0.0,27,1,0]
27.028
64

2002,4.07
MIRTGS : RIGHTBACK : INTERNAL 2
MIR : ON : INTERNAL 2
OPTKBR

0.200000
8
8.000000
FILLER
RATIO
SPECTRUM
UNLOCKED 256

DOUBLE
64
COMBINED
1
0
0

0.002000
RATIO

1
0
TRUE
51149
0
LEFT NOT FITTED RIGHT NOT FITTED 0
NONE
NONE
15600
12
4.427000
51148
TRUE
1 0 8 72 0 0 0 0

15798

#HDR
-1
-1
#GR
µM
%T
2.38419e-05
0.0
2.000000
0.002000
12515
8
68.0955
22.5007
#DATA
2.000000	 64.68
2.084000	 64.5448
2.168000	 64.447
2.252000	 65.1421
2.336000	 65.3233
2.420000	 64.9649
2.504000	 64.9425
2.588000	 64.8559
2.672000	 65.0517
2.756000	 65.0539
2.840000	 65.131
2.924000	 64.9215
3.008000	 65.1664
3.092000	 64.9217
3.176000	 64.9012
3.260000	 65.0434
3.344000	 65.1804
3.428000	 64.5325
3.512000	 64.9393
3.596000	 65.0493
3.680000	 65.0805
3.764000	 64.9169
3.848000	 65.0858
3.932000	 65.0527
4.016000	 64.8719
4.100000	 65.1254
4.184000	 65.0482
4.268000	 65.2039
4.352000	 65.1418
4.436000	 65.0245
4.520000	 65.0903
4.604000	 65.0278
4.688000	 65.0698
4.772000	 65.1764
4.856000	 65.3165
4.940000	 65.0725
5.024000	 65.0218
5.108000	 65.0651
5.192000	 65.161
5.276000	 64.9957
5.359999	 65.0155
5.444000	 65.0709
5.528000	 64.9689
5.612000	 65.0332
5.696000	 65.0376
5.780000	 64.7118
5.864000	 65.0546
5.948000	 64.976
6.032000	 64.7242
6.116000	 65.0441
6.200000	 64.7835
6.284000	 64.9495
6.368000	 64.7545
6.452000	 64.8049
6.536000	 64.9644
6.620000	 64.8097
6.704000	 64.7513
6.788000	 64.9648
6.872000	 64.8182
6.956000	 64.6554
7.040000	 64.9519
7.124000	 64.9329
7.208000	 64.6762
7.292000	 64.7688
7.376000	 64.8689
7.460000	 64.8185
7.544000	 64.8394
7.628000	 64.8366
7.712000	 64.7682
7.796000	 64.6989
7.880000	 64.615
7.964000	 64.6887
8.048000	 64.6093
8.132000	 64.7096
8.216000	 64.7778
8.300000	 64.8709
8.384000	 64.6963
8.468000	 64.5843
8.552000	 64.6924
8.635999	 64.7619
8.719999	 64.624
8.804000	 64.7415
8.888000	 64.6245
8.972000	 64.627
9.056000	 64.8668
9.140000	 64.5058
9.224000	 64.8344
9.308000	 64.8451
9.391999	 64.4508
9.475999	 64.395
9.560000	 65.0601
9.644000	 64.8273
9.728000	 64.3087
9.812000	 64.5711
9.896000	 64.6334
9.980000	 64.4383
10.064	64.5921
10.148	64.79
10.232	64.8655
10.316	64.7811
10.4	64.7375
10.484	64.5394
10.568	64.5788
10.652	64.5257
10.736	64.6111
10.82	64.7072
10.904	64.7305
10.988	64.7528
11.072	64.7193
11.156	64.4854
11.24	64.751
11.324	64.4035
11.408	64.5133
11.492	64.5692
11.576	64.5554
11.66	63.9553
11.744	64.3043
11.828	64.4703
11.912	64.6301
11.996	64.2281
12.08	64.1918
12.164	64.8504
12.248	65.0203
12.332	64.6706
12.416	64.4944
12.5	64.2552
12.584	64.0889
12.668	64.1376
12.752	64.1356
12.836	63.9168
12.92	63.9136
13.004	63.7812
13.088	63.3983
13.172	63.3615
13.256	63.4914
13.34	63.8511
13.424	64.328
13.508	64.2988
13.592	63.8651
13.676	63.6073
13.76	63.6017
13.844	63.8089
13.928	63.8252
14.012	63.7359
14.096	63.8833
14.18	63.7547
14.264	63.4286
14.348	63.4049
14.432	63.4584
14.516	63.4122
14.6	63.2489
14.684	62.9676
14.768	62.8722
14.852	63.0743
14.936	63.3255
15.02	63.3814
15.104	63.3213
15.188	63.3318
15.272	63.3693
15.356	63.3503
15.44	63.2421
15.524	63.0581
15.608	63.0391
15.692	63.3685
15.776	63.6973
15.86	63.6145
15.944	63.3329
16.028	63.2718
16.112	63.3576
16.196	63.2442
16.28	62.9246
16.364	62.7521
16.448	62.9016
16.532	63.0896
16.616	63.0364
16.7	62.8835
16.784	62.8759
16.868	62.9741
16.952	62.9964
17.036	62.8949
17.12	62.7456
17.204	62.622
17.288	62.5691
17.372	62.638
17.456	62.8223
17.54	62.9859
17.624	62.969
17.708	62.7889
17.792	62.6156
17.876	62.5695
17.96	62.641
18.044	62.7623
18.128	62.8441
18.212	62.8473
18.296	62.861
18.38	62.9968
18.464	63.1802
18.548	63.1732
18.632	62.8618
18.716	62.3915
18.8	61.9937
18.884	61.7793
18.968	61.7211
19.052	61.7451
19.136	61.821
19.22	61.9747
19.304	62.2138
19.388	62.4385
19.472	62.4601
19.556	62.1672
19.64	61.6601
19.724	61.1736
19.808	60.8747
19.892	60.7729
19.976	60.789
20.06	60.865
20.144	61.0039
20.228	61.2231
20.312	61.5015
20.396	61.7726
20.48	61.9504
20.564	61.9635
20.648	61.8019
20.732	61.5134
20.816	61.1754
20.9	60.8665
20.984	60.6773
21.068	60.7038
21.152	60.9966
21.236	61.5176
21.32	62.1601
21.404	62.8055
21.488	63.3604
21.572	63.7454
21.656	63.8666
21.74	63.6313
21.824	63.011
21.908	62.108
21.992	61.1313
22.076	60.2997
22.16	59.7523
22.244	59.507
22.328	59.4898
22.412	59.5935
22.496	59.7288
22.58	59.8581
22.664	59.9838
22.748	60.1186
22.832	60.2459
22.916	60.3093
23	60.2751
23.084	60.1369
23.168	59.9627
23.252	59.8694
23.336	59.9416
23.42	60.1417
23.504	60.3557
23.588	60.4322
23.672	60.2689
23.756	59.8983
23.84	59.4798
23.924	59.2134
24.008	59.2546
24.092	59.6461
24.176	60.2416
24.26	60.8113
24.344	61.0702
24.428	60.724
24.512	59.4127
24.596	56.9386
24.68	53.466
24.764	49.6232
24.848	46.3295
24.932	44.6301
25.016	45.2088
25.1	48.0666
25.184	52.4779
25.268	57.2435
25.352	61.1481
25.436	63.1914
25.52	62.861
25.604	60.1032
25.688	55.1338
25.772	48.407
25.856	40.629
25.94	32.8195
26.024	26.3805
26.108	22.8187
26.192	23.3345
26.276	28.3123
26.36	36.9934
26.444	47.4488
26.528	57.1323
26.612	63.5944
26.696	65.2641
26.78	61.9729
26.864	55.0735
26.948	46.8572
27.028	40.0154