File: Bakgrunnsmateriale/MATLAB/FTIR/ftir_data/subBb/Mapping_121/C-4040-8_t55_cm-1.asc
PE IR       SPECTRUM    SPECTRUM    ASCII       PEDS        1.60
  -1
C-1CEE~1.ASC
17/03/27
19:00:04.00
17/03/27
19:00:04.00
tln
$C-4040-8_t0055$<tbV0>[-13.0,-2.6,8.0,0.0,27,1,0]
370
64

2002,4.07
MIRTGS : RIGHTBACK : INTERNAL 2
MIR : ON : INTERNAL 2
OPTKBR

0.200000
8
8.000000
FILLER
RATIO
SPECTRUM
UNLOCKED 256

DOUBLE
64
COMBINED
1
0
0

1.000000
RATIO

1
0
TRUE
51149
0
LEFT NOT FITTED RIGHT NOT FITTED 0
NONE
NONE
15600
12
4.427000
51148
TRUE
1 0 8 72 0 0 0 0

15798

#HDR
-1
-1
#GR
CM-1
%T
2.38419e-05
0.0
5000
-1.000000
4631
8
78.4523
41.6477
#DATA
5000	64.7503
4984	65.3808
4968	64.7739
4952	65.0599
4936	65.1528
4920	65.0997
4904	65.2915
4888	64.0421
4872	64.9593
4856	64.6147
4840	64.9109
4824	64.9148
4808	64.9816
4792	64.7624
4776	64.7142
4760	64.5779
4744	64.5063
4728	64.6421
4712	65.1166
4696	64.7406
4680	64.9583
4664	64.5388
4648	65.0447
4632	64.7775
4616	64.6013
4600	64.7734
4584	65.1265
4568	65.0136
4552	64.3753
4536	64.4863
4520	65.2075
4504	64.8924
4488	64.7935
4472	65.1267
4456	65.3152
4440	65.0728
4424	65.1593
4408	65.6722
4392	65.8115
4376	65.7494
4360	56.6005
4344	69.4575
4328	66.4304
4312	65.7511
4296	65.1854
4280	65.5499
4264	64.8369
4248	64.9861
4232	64.7691
4216	64.985
4200	65.3257
4184	64.6477
4168	64.6111
4152	65.0825
4136	64.9376
4120	64.9568
4104	65.2393
4088	65.1048
4072	65.2455
4056	64.9719
4040	65.1087
4024	65.0129
4008	65.0023
3992	65.116
3976	64.9518
3960	65.0907
3944	65.1588
3928	64.9495
3912	65.3053
3896	65.0999
3880	65.2955
3864	65.3639
3848	65.1138
3832	65.0917
3816	65.1117
3800	65.0484
3784	65.2943
3768	65.1505
3752	65.1091
3736	65.1432
3720	65.2501
3704	65.1779
3688	65.284
3672	65.3424
3656	65.1801
3640	65.2536
3624	65.0991
3608	65.1151
3592	65.0717
3576	65.3317
3560	65.262
3544	64.9821
3528	65.0286
3512	65.1766
3496	65.3496
3480	65.1625
3464	65.1
3448	65.2884
3432	65.2721
3416	65.0707
3400	65.305
3384	65.1961
3368	65.2872
3352	65.1934
3336	65.2262
3320	65.3749
3304	65.1054
3288	65.0489
3272	65.2225
3256	65.1838
3240	65.0221
3224	65.0713
3208	65.2399
3192	64.9873
3176	65.1401
3160	64.8586
3144	65.0643
3128	65.1126
3112	65.0639
3096	65.3532
3080	65.1883
3064	65.2354
3048	65.1952
3032	65.3126
3016	65.1793
3000	65.2153
2984	65.0753
2968	65.2218
2952	65.2751
2936	65.1277
2920	64.7798
2904	65.2882
2888	65.1901
2872	65.1893
2856	65.0472
2840	65.2071
2824	65.1361
2808	65.1659
2792	65.3194
2776	65.2152
2760	65.2539
2744	65.2391
2728	65.2425
2712	65.1903
2696	65.2146
2680	65.3132
2664	65.3466
2648	65.2369
2632	65.4334
2616	65.3337
2600	65.3031
2584	65.2617
2568	65.2916
2552	65.3742
2536	65.2437
2520	65.3079
2504	65.3938
2488	65.1321
2472	65.229
2456	65.2875
2440	65.3431
2424	65.5169
2408	65.3177
2392	65.4024
2376	65.2929
2360	65.3316
2344	65.2393
2328	65.2853
2312	65.2064
2296	65.2451
2280	65.3003
2264	65.3402
2248	65.3994
2232	65.38
2216	65.3376
2200	65.312
2184	65.3658
2168	65.3573
2152	65.3221
2136	65.2383
2120	65.2986
2104	65.3674
2088	65.3832
2072	65.0861
2056	65.3426
2040	65.2842
2024	65.3811
2008	65.3496
1992	65.271
1976	65.3521
1960	65.343
1944	65.3261
1928	65.3064
1912	65.3075
1896	65.443
1880	65.3153
1864	65.3403
1848	65.2686
1832	65.3292
1816	65.2965
1800	65.3379
1784	65.2662
1768	65.4051
1752	65.2151
1736	65.1209
1720	65.1468
1704	65.3735
1688	65.2395
1672	65.2754
1656	65.2192
1640	65.2175
1624	65.2664
1608	65.187
1592	65.1364
1576	65.2997
1560	65.0799
1544	65.0775
1528	65.2113
1512	65.1982
1496	65.2524
1480	65.273
1464	65.0209
1448	65.0171
1432	65.1594
1416	65.1724
1400	65.0991
1384	65.287
1368	65.2087
1352	65.1544
1336	65.042
1320	65.1895
1304	65.0352
1288	65.1311
1272	65.0791
1256	65.0672
1240	65.1209
1224	64.9336
1208	64.9797
1192	65.1506
1176	64.8428
1160	65.2065
1144	65.521
1128	65.0155
1112	64.953
1096	64.5989
1080	65.4435
1064	65.0886
1048	64.988
1032	64.9363
1016	64.8316
1000	64.9839
984	 64.978
968	 64.5497
952	 64.8058
936	 64.813
920	 65.0227
904	 64.902
888	 64.6888
872	 64.6918
856	 64.5877
840	 64.6721
824	 64.7462
808	 64.4831
792	 64.4313
776	 64.4983
760	 64.4589
744	 64.2997
728	 63.9552
712	 64.3379
696	 64.2738
680	 63.4746
664	 63.3297
648	 63.5169
632	 62.8487
616	 63.409
600	 63.0342
584	 62.5508
568	 63.0149
552	 62.8782
536	 62.791
520	 61.8811
504	 62.3665
488	 61.1866
472	 60.4343
456	 61.3268
440	 59.6259
424	 62.1689
408	 61.9744
392	 76.517
376	 72.804
370	 41.6477