File: Bakgrunnsmateriale/MATLAB/FTIR/ftir_data/subBb/Mapping_121/C-4040-8_t79.asc
PE IR       SPECTRUM    SPECTRUM    ASCII       PEDS        1.60
  -1
C-C14E~1.ASC
17/03/27
20:58:48.00
17/03/27
20:59:14.00
tln
$C-4040-8_t0079$<tbV0>[10.4,5.2,8.0,0.0,27,1,0]
27.028
64

2002,4.07
MIRTGS : RIGHTBACK : INTERNAL 2
MIR : ON : INTERNAL 2
OPTKBR

0.200000
8
8.000000
FILLER
RATIO
SPECTRUM
UNLOCKED 256

DOUBLE
64
COMBINED
1
0
0

0.002000
RATIO

1
0
TRUE
51149
0
LEFT NOT FITTED RIGHT NOT FITTED 0
NONE
NONE
15600
12
4.427000
51148
TRUE
1 0 8 72 0 0 0 0

15798

#HDR
-1
-1
#GR
µM
%T
2.38419e-05
0.0
2.000000
0.002000
12515
8
101.75
43.0727
#DATA
2.000000	 65.1883
2.084000	 64.8708
2.168000	 65.1411
2.252000	 63.9017
2.336000	 64.6063
2.420000	 65.1036
2.504000	 65.0031
2.588000	 65.4046
2.672000	 65.2369
2.756000	 65.222
2.840000	 65.0692
2.924000	 65.0037
3.008000	 65.1328
3.092000	 65.1833
3.176000	 65.2983
3.260000	 65.4275
3.344000	 65.1102
3.428000	 64.8397
3.512000	 65.0071
3.596000	 65.226
3.680000	 65.3822
3.764000	 65.1719
3.848000	 65.1571
3.932000	 65.2582
4.016000	 65.3003
4.100000	 65.1953
4.184000	 65.2024
4.268000	 65.3522
4.352000	 65.2928
4.436000	 65.2757
4.520000	 65.3642
4.604000	 65.1925
4.688000	 65.1027
4.772000	 65.3443
4.856000	 65.1063
4.940000	 65.3274
5.024000	 65.3288
5.108000	 65.4385
5.192000	 65.4174
5.276000	 65.4284
5.359999	 65.2817
5.444000	 65.2667
5.528000	 65.4036
5.612000	 65.3658
5.696000	 65.2603
5.780000	 65.2128
5.864000	 65.0418
5.948000	 65.4407
6.032000	 65.1975
6.116000	 65.1577
6.200000	 64.9658
6.284000	 65.0782
6.368000	 64.9358
6.452000	 65.0099
6.536000	 64.9924
6.620000	 64.8914
6.704000	 65.2203
6.788000	 65.2677
6.872000	 64.9581
6.956000	 65.095
7.040000	 65.0156
7.124000	 65.0875
7.208000	 65.0597
7.292000	 65.1223
7.376000	 65.0113
7.460000	 65.0637
7.544000	 65.194
7.628000	 64.9889
7.712000	 65.222
7.796000	 65.0489
7.880000	 65.0185
7.964000	 64.9158
8.048000	 64.8992
8.132000	 65.0505
8.216000	 65.0204
8.300000	 65.1113
8.384000	 64.8536
8.468000	 64.8297
8.552000	 64.7747
8.635999	 64.8253
8.719999	 64.7066
8.804000	 65.1051
8.888000	 64.8897
8.972000	 64.8113
9.056000	 64.8368
9.140000	 64.4428
9.224000	 64.6267
9.308000	 64.9188
9.391999	 64.612
9.475999	 64.8004
9.560000	 64.8226
9.644000	 64.6573
9.728000	 64.4135
9.812000	 64.0052
9.896000	 64.4665
9.980000	 64.6723
10.064	64.8468
10.148	64.6322
10.232	64.5668
10.316	64.7901
10.4	64.4644
10.484	64.7876
10.568	65.1877
10.652	64.4565
10.736	64.6428
10.82	65.0845
10.904	64.9993
10.988	64.7159
11.072	64.7382
11.156	64.7874
11.24	64.5837
11.324	64.4635
11.408	64.5633
11.492	64.814
11.576	64.5393
11.66	64.3566
11.744	64.4166
11.828	64.4816
11.912	64.3261
11.996	64.3443
12.08	64.5082
12.164	64.5564
12.248	64.4873
12.332	64.3692
12.416	64.2608
12.5	64.2427
12.584	64.2232
12.668	64.2699
12.752	64.0957
12.836	64.0124
12.92	64.0443
13.004	64.0861
13.088	64.0817
13.172	64.0057
13.256	63.6806
13.34	63.2665
13.424	63.4283
13.508	63.6436
13.592	63.5404
13.676	63.6787
13.76	63.8189
13.844	63.8266
13.928	63.6886
14.012	63.4801
14.096	63.2143
14.18	62.9496
14.264	63.0151
14.348	63.2993
14.432	63.5776
14.516	63.6693
14.6	63.4615
14.684	63.2492
14.768	63.1167
14.852	62.8112
14.936	62.507
15.02	62.4855
15.104	62.5897
15.188	62.7701
15.272	62.9676
15.356	62.9585
15.44	62.8829
15.524	62.9427
15.608	63.033
15.692	62.9903
15.776	62.8107
15.86	62.6656
15.944	62.6249
16.028	62.5361
16.112	62.3331
16.196	62.1496
16.28	62.1271
16.364	62.2778
16.448	62.4541
16.532	62.4744
16.616	62.3136
16.7	62.1
16.784	61.9861
16.868	62.0548
16.952	62.2243
17.036	62.3362
17.12	62.346
17.204	62.2823
17.288	62.1461
17.372	61.9964
17.456	61.9565
17.54	62.0434
17.624	62.1688
17.708	62.2712
17.792	62.2995
17.876	62.1933
17.96	61.9833
18.044	61.8258
18.128	61.8574
18.212	62.0429
18.296	62.2307
18.38	62.3169
18.464	62.3124
18.548	62.2655
18.632	62.1588
18.716	61.9329
18.8	61.5794
18.884	61.1728
18.968	60.8126
19.052	60.5689
19.136	60.4649
19.22	60.4732
19.304	60.5153
19.388	60.525
19.472	60.527
19.556	60.6138
19.64	60.813
19.724	61.0168
19.808	61.069
19.892	60.9221
19.976	60.7028
20.06	60.6112
20.144	60.7439
20.228	61.0293
20.312	61.3308
20.396	61.576
20.48	61.7571
20.564	61.852
20.648	61.7884
20.732	61.5158
20.816	61.0897
20.9	60.6519
20.984	60.3265
21.068	60.135
21.152	60.0236
21.236	59.94
21.32	59.8853
21.404	59.8859
21.488	59.9678
21.572	60.1331
21.656	60.3804
21.74	60.6943
21.824	61.0226
21.908	61.2611
21.992	61.2911
22.076	61.0577
22.16	60.614
22.244	60.0996
22.328	59.666
22.412	59.3797
22.496	59.1954
22.58	58.9854
22.664	58.6119
22.748	58.002
22.832	57.1793
22.916	56.2484
23	55.3301
23.084	54.5013
23.168	53.7695
23.252	53.104
23.336	52.4973
23.42	51.9763
23.504	51.674
23.588	51.7695
23.672	52.3901
23.756	53.5513
23.84	55.0836
23.924	56.6976
24.008	58.096
24.092	59.0763
24.176	59.6161
24.26	59.8878
24.344	60.1049
24.428	60.3605
24.512	60.6522
24.596	60.8698
24.68	60.9873
24.764	61.2297
24.848	62.0174
24.932	63.8959
25.016	67.2326
25.1	71.974
25.184	77.5938
25.268	83.3061
25.352	88.4322
25.436	92.5191
25.52	95.5404
25.604	97.8106
25.688	99.6714
25.772	101.139
25.856	101.749
25.94	100.731
26.024	97.2768
26.108	90.9939
26.192	82.2141
26.276	71.9684
26.36	61.819
26.444	53.3007
26.528	47.4156
26.612	44.2297
26.696	43.1294
26.78	43.2017
26.864	43.4483
26.948	43.4158
27.028	43.6233