File: Bakgrunnsmateriale/MATLAB/FTIR/ftir_data/subBb/Mapping_121/C-4040-8_t61.asc
PE IR       SPECTRUM    SPECTRUM    ASCII       PEDS        1.60
  -1
C-AD3E~1.ASC
17/03/27
19:28:22.00
17/03/27
19:28:49.00
tln
$C-4040-8_t0061$<tbV0>[0.0,0.0,8.0,0.0,27,1,0]
27.028
64

2002,4.07
MIRTGS : RIGHTBACK : INTERNAL 2
MIR : ON : INTERNAL 2
OPTKBR

0.200000
8
8.000000
FILLER
RATIO
SPECTRUM
UNLOCKED 256

DOUBLE
64
COMBINED
1
0
0

0.002000
RATIO

1
0
TRUE
51149
0
LEFT NOT FITTED RIGHT NOT FITTED 0
NONE
NONE
15600
12
4.427000
51148
TRUE
1 0 8 72 0 0 0 0

15798

#HDR
-1
-1
#GR
µM
%T
2.38419e-05
0.0
2.000000
0.002000
12515
8
122.252
38.7729
#DATA
2.000000	 64.952
2.084000	 64.7736
2.168000	 64.1764
2.252000	 66.1972
2.336000	 66.5841
2.420000	 64.7168
2.504000	 64.7965
2.588000	 64.9326
2.672000	 65.1908
2.756000	 64.9352
2.840000	 65.1459
2.924000	 65.2964
3.008000	 65.2696
3.092000	 65.1268
3.176000	 64.9304
3.260000	 65.188
3.344000	 65.2344
3.428000	 64.8796
3.512000	 65.0158
3.596000	 65.1744
3.680000	 65.2654
3.764000	 65.3037
3.848000	 65.2758
3.932000	 65.2732
4.016000	 65.2633
4.100000	 65.4401
4.184000	 65.2634
4.268000	 65.3304
4.352000	 65.3591
4.436000	 65.3448
4.520000	 65.2902
4.604000	 65.2049
4.688000	 65.4684
4.772000	 65.3813
4.856000	 65.4311
4.940000	 65.345
5.024000	 65.4075
5.108000	 65.3306
5.192000	 65.3906
5.276000	 65.4047
5.359999	 65.3964
5.444000	 65.4068
5.528000	 65.373
5.612000	 65.2465
5.696000	 65.2174
5.780000	 65.0462
5.864000	 65.2996
5.948000	 65.2725
6.032000	 65.1923
6.116000	 65.4104
6.200000	 65.1405
6.284000	 65.0757
6.368000	 65.3016
6.452000	 65.1876
6.536000	 65.0949
6.620000	 65.133
6.704000	 64.8561
6.788000	 65.1597
6.872000	 64.9772
6.956000	 65.1954
7.040000	 65.1864
7.124000	 65.1113
7.208000	 65.2685
7.292000	 65.1039
7.376000	 65.1455
7.460000	 65.1319
7.544000	 65.021
7.628000	 65.0162
7.712000	 65.0676
7.796000	 64.9319
7.880000	 64.9903
7.964000	 65.0432
8.048000	 65.0666
8.132000	 65.0057
8.216000	 65.1039
8.300000	 65.0813
8.384000	 65.1416
8.468000	 64.9938
8.552000	 64.9486
8.635999	 64.8447
8.719999	 65.0591
8.804000	 64.5238
8.888000	 64.745
8.972000	 64.6875
9.056000	 65.1794
9.140000	 64.9873
9.224000	 65.0548
9.308000	 64.408
9.391999	 64.3496
9.475999	 64.776
9.560000	 64.4267
9.644000	 64.5989
9.728000	 64.4914
9.812000	 64.4237
9.896000	 64.699
9.980000	 64.9888
10.064	65.2122
10.148	65.0011
10.232	64.912
10.316	64.4665
10.4	64.5241
10.484	64.6664
10.568	64.6518
10.652	64.5212
10.736	64.7125
10.82	64.6821
10.904	64.6598
10.988	64.5289
11.072	64.3564
11.156	64.2458
11.24	64.4462
11.324	64.5138
11.408	64.1783
11.492	64.4244
11.576	64.6905
11.66	64.635
11.744	64.4925
11.828	64.6653
11.912	64.6983
11.996	64.4331
12.08	64.3955
12.164	64.3766
12.248	64.4006
12.332	64.6817
12.416	64.419
12.5	64.1669
12.584	64.1545
12.668	64.0882
12.752	64.1737
12.836	64.3454
12.92	64.4319
13.004	64.2958
13.088	64.0298
13.172	63.845
13.256	63.5642
13.34	63.7699
13.424	63.497
13.508	62.8364
13.592	62.8181
13.676	63.1708
13.76	63.5363
13.844	63.5077
13.928	63.4919
14.012	63.6109
14.096	63.7059
14.18	63.9973
14.264	64.2198
14.348	64.0549
14.432	63.8284
14.516	63.6716
14.6	63.4249
14.684	63.2095
14.768	63.1451
14.852	63.1236
14.936	63.0253
15.02	62.968
15.104	63.1405
15.188	63.379
15.272	63.3603
15.356	63.111
15.44	62.8424
15.524	62.7159
15.608	62.8114
15.692	62.8944
15.776	62.7439
15.86	62.5372
15.944	62.5749
16.028	62.8565
16.112	63.073
16.196	63.0366
16.28	62.8558
16.364	62.63
16.448	62.4149
16.532	62.2411
16.616	62.0141
16.7	61.7112
16.784	61.5678
16.868	61.764
16.952	62.1182
17.036	62.326
17.12	62.3257
17.204	62.241
17.288	62.1282
17.372	62.0183
17.456	62.0354
17.54	62.2351
17.624	62.4457
17.708	62.4587
17.792	62.2912
17.876	62.1395
17.96	62.1105
18.044	62.1323
18.128	62.1022
18.212	62.0067
18.296	61.8737
18.38	61.7191
18.464	61.5976
18.548	61.5874
18.632	61.6501
18.716	61.6202
18.8	61.4004
18.884	61.0838
18.968	60.8196
19.052	60.6327
19.136	60.4815
19.22	60.4121
19.304	60.5272
19.388	60.8177
19.472	61.1166
19.556	61.2301
19.64	61.1093
19.724	60.8897
19.808	60.7484
19.892	60.7255
19.976	60.6983
20.06	60.54
20.144	60.2775
20.228	60.0736
20.312	60.055
20.396	60.1748
20.48	60.2714
20.564	60.2266
20.648	60.0548
20.732	59.8459
20.816	59.6712
20.9	59.529
20.984	59.4018
21.068	59.3227
21.152	59.3914
21.236	59.7127
21.32	60.2952
21.404	60.9997
21.488	61.5702
21.572	61.7712
21.656	61.5324
21.74	60.9883
21.824	60.3773
21.908	59.8637
21.992	59.4389
22.076	58.9824
22.16	58.3999
22.244	57.7346
22.328	57.169
22.412	56.9059
22.496	57.0551
22.58	57.5634
22.664	58.2621
22.748	58.9338
22.832	59.3897
22.916	59.5048
23	59.2716
23.084	58.7582
23.168	58.1014
23.252	57.4731
23.336	57.0574
23.42	56.9602
23.504	57.2853
23.588	58.0525
23.672	59.1975
23.756	60.6462
23.84	62.2344
23.924	63.7554
24.008	65.0907
24.092	66.277
24.176	67.4233
24.26	68.5104
24.344	69.2662
24.428	69.2846
24.512	68.2402
24.596	66.1668
24.68	63.5106
24.764	61.0399
24.848	59.4372
24.932	59.5574
25.016	62.2744
25.1	68.2633
25.184	77.5372
25.268	89.1177
25.352	101.213
25.436	111.701
25.52	118.914
25.604	122.105
25.688	121.221
25.772	116.878
25.856	110.166
25.94	102.711
26.024	96.4797
26.108	93.2154
26.192	93.6609
26.276	97.1329
26.36	101.506
26.444	104.117
26.528	102.918
26.612	97.2288
26.696	88.0336
26.78	77.6818
26.864	68.9277
26.948	63.892
27.028	63.2499