File: Bakgrunnsmateriale/MATLAB/FTIR/ftir_data/subBb/Mapping_121/C-4040-8_t48.asc
PE IR       SPECTRUM    SPECTRUM    ASCII       PEDS        1.60
  -1
C-C53A~1.ASC
17/03/27
18:27:45.00
17/03/27
18:28:12.00
tln
$C-4040-8_t0048$<tbV0>[5.2,-2.6,8.0,0.0,27,1,0]
27.028
64

2002,4.07
MIRTGS : RIGHTBACK : INTERNAL 2
MIR : ON : INTERNAL 2
OPTKBR

0.200000
8
8.000000
FILLER
RATIO
SPECTRUM
UNLOCKED 256

DOUBLE
64
COMBINED
1
0
0

0.002000
RATIO

1
0
TRUE
51149
0
LEFT NOT FITTED RIGHT NOT FITTED 0
NONE
NONE
15600
12
4.427000
51148
TRUE
1 0 8 72 0 0 0 0

15798

#HDR
-1
-1
#GR
µM
%T
2.38419e-05
0.0
2.000000
0.002000
12515
8
98.0445
34.7146
#DATA
2.000000	 65.5016
2.084000	 65.3146
2.168000	 65.1807
2.252000	 65.6731
2.336000	 65.8236
2.420000	 65.0799
2.504000	 65.0814
2.588000	 65.1773
2.672000	 65.2714
2.756000	 64.9782
2.840000	 65.2305
2.924000	 65.2682
3.008000	 65.2336
3.092000	 65.3664
3.176000	 65.246
3.260000	 65.2901
3.344000	 65.1667
3.428000	 64.9943
3.512000	 65.148
3.596000	 65.0946
3.680000	 65.2004
3.764000	 65.3243
3.848000	 65.142
3.932000	 65.3705
4.016000	 65.0619
4.100000	 65.323
4.184000	 65.2267
4.268000	 65.2297
4.352000	 65.3526
4.436000	 65.2399
4.520000	 65.2507
4.604000	 65.2126
4.688000	 65.3097
4.772000	 65.2703
4.856000	 64.8183
4.940000	 65.4807
5.024000	 65.2001
5.108000	 65.1355
5.192000	 65.3758
5.276000	 65.2357
5.359999	 65.0822
5.444000	 65.2086
5.528000	 65.2253
5.612000	 65.1946
5.696000	 64.9946
5.780000	 65.2142
5.864000	 65.2007
5.948000	 65.1905
6.032000	 65.1561
6.116000	 65.1291
6.200000	 65.2149
6.284000	 64.9566
6.368000	 65.1251
6.452000	 64.9284
6.536000	 64.9295
6.620000	 64.8955
6.704000	 65.1034
6.788000	 64.9513
6.872000	 64.4707
6.956000	 64.9875
7.040000	 64.9489
7.124000	 64.9628
7.208000	 64.9916
7.292000	 64.9208
7.376000	 64.9622
7.460000	 65.0201
7.544000	 65.0823
7.628000	 65.0672
7.712000	 64.7931
7.796000	 64.9535
7.880000	 64.7449
7.964000	 64.9835
8.048000	 65.0316
8.132000	 64.8817
8.216000	 64.9465
8.300000	 65.0554
8.384000	 64.9772
8.468000	 64.7055
8.552000	 64.9328
8.635999	 64.9027
8.719999	 65.0327
8.804000	 64.601
8.888000	 64.819
8.972000	 64.8833
9.056000	 64.35
9.140000	 64.4671
9.224000	 64.8975
9.308000	 64.4289
9.391999	 64.6508
9.475999	 64.712
9.560000	 64.9608
9.644000	 65.0053
9.728000	 64.8442
9.812000	 64.6827
9.896000	 64.8605
9.980000	 64.8788
10.064	64.6919
10.148	64.602
10.232	64.6523
10.316	64.4395
10.4	64.5627
10.484	64.6461
10.568	64.5804
10.652	64.5838
10.736	64.7203
10.82	64.7441
10.904	64.6197
10.988	64.4765
11.072	64.6711
11.156	64.3871
11.24	64.4629
11.324	64.7047
11.408	64.5457
11.492	64.5174
11.576	64.5976
11.66	64.6023
11.744	64.5877
11.828	64.67
11.912	64.6412
11.996	64.4612
12.08	64.266
12.164	64.2614
12.248	64.1665
12.332	64.3168
12.416	64.3257
12.5	64.3056
12.584	64.3398
12.668	64.1074
12.752	64.0214
12.836	64.1073
12.92	64.4076
13.004	64.5248
13.088	64.4395
13.172	64.3543
13.256	64.6499
13.34	65.3251
13.424	65.198
13.508	64.591
13.592	64.3967
13.676	64.1531
13.76	63.6814
13.844	63.2825
13.928	63.3698
14.012	63.7435
14.096	63.9513
14.18	64.1995
14.264	64.2794
14.348	63.9986
14.432	63.7936
14.516	63.7169
14.6	63.6433
14.684	63.5444
14.768	63.4344
14.852	63.3731
14.936	63.4015
15.02	63.5219
15.104	63.7051
15.188	63.9091
15.272	63.9103
15.356	63.6664
15.44	63.4561
15.524	63.4252
15.608	63.5469
15.692	63.6551
15.776	63.6356
15.86	63.5856
15.944	63.5857
16.028	63.6585
16.112	63.806
16.196	63.9222
16.28	63.9228
16.364	63.8154
16.448	63.5902
16.532	63.2582
16.616	62.9293
16.7	62.7287
16.784	62.7221
16.868	62.8691
16.952	62.9798
17.036	62.9446
17.12	62.8834
17.204	62.8406
17.288	62.6701
17.372	62.3837
17.456	62.2406
17.54	62.3807
17.624	62.6586
17.708	62.8359
17.792	62.7838
17.876	62.5884
17.96	62.4541
18.044	62.4806
18.128	62.5936
18.212	62.6926
18.296	62.7359
18.38	62.6974
18.464	62.5849
18.548	62.4906
18.632	62.4873
18.716	62.5284
18.8	62.5393
18.884	62.5512
18.968	62.6163
19.052	62.6456
19.136	62.506
19.22	62.2335
19.304	62.025
19.388	62.0066
19.472	62.1196
19.556	62.218
19.64	62.2204
19.724	62.1437
19.808	62.0545
19.892	62.0129
19.976	62.0363
20.06	62.067
20.144	61.9926
20.228	61.7362
20.312	61.3327
20.396	60.9011
20.48	60.524
20.564	60.2065
20.648	59.9446
20.732	59.814
20.816	59.916
20.9	60.2446
20.984	60.6402
21.068	60.889
21.152	60.8794
21.236	60.6681
21.32	60.4178
21.404	60.2683
21.488	60.2783
21.572	60.459
21.656	60.8299
21.74	61.4181
21.824	62.2071
21.908	63.0821
21.992	63.8452
22.076	64.3023
22.16	64.3675
22.244	64.1094
22.328	63.69
22.412	63.2531
22.496	62.8358
22.58	62.3952
22.664	61.8958
22.748	61.3736
22.832	60.9246
22.916	60.6461
23	60.53
23.084	60.4781
23.168	60.3482
23.252	60.0645
23.336	59.6792
23.42	59.3497
23.504	59.2917
23.588	59.5926
23.672	60.1347
23.756	60.66
23.84	60.89
23.924	60.6421
24.008	59.9196
24.092	58.9336
24.176	58.0364
24.26	57.5921
24.344	57.8849
24.428	59.0046
24.512	60.8684
24.596	63.1793
24.68	65.5069
24.764	67.4668
24.848	68.844
24.932	69.916
25.016	71.427
25.1	74.2372
25.184	78.808
25.268	84.7462
25.352	90.871
25.436	95.6357
25.52	97.9101
25.604	97.4659
25.688	94.8767
25.772	91.2581
25.856	87.7329
25.94	85.1029
26.024	83.6563
26.108	83.1435
26.192	82.8006
26.276	81.6151
26.36	78.6633
26.444	73.5138
26.528	66.4282
26.612	58.342
26.696	50.4826
26.78	43.9232
26.864	39.1917
26.948	36.2331
27.028	34.7146