File: Bakgrunnsmateriale/MATLAB/FTIR/ftir_data/subBb/Mapping_121/C-4040-8_t102_cm-1.asc
PE IR       SPECTRUM    SPECTRUM    ASCII       PEDS        1.60
  -1
C-478C~1.ASC
17/03/27
22:52:01.00
17/03/27
22:52:01.00
tln
$C-4040-8_t0102$<tbV0>[7.8,10.4,8.0,0.0,27,1,0]
370
64

2002,4.07
MIRTGS : RIGHTBACK : INTERNAL 2
MIR : ON : INTERNAL 2
OPTKBR

0.200000
8
8.000000
FILLER
RATIO
SPECTRUM
UNLOCKED 256

DOUBLE
64
COMBINED
1
0
0

1.000000
RATIO

1
0
TRUE
51149
0
LEFT NOT FITTED RIGHT NOT FITTED 0
NONE
NONE
15600
12
4.427000
51148
TRUE
1 0 8 72 0 0 0 0

15798

#HDR
-1
-1
#GR
CM-1
%T
2.38419e-05
0.0
5000
-1.000000
4631
8
200
47.7644
#DATA
5000	65.0988
4984	65.0942
4968	64.3846
4952	65.1366
4936	64.5286
4920	65.0219
4904	64.475
4888	65.1662
4872	64.7799
4856	64.814
4840	64.7819
4824	64.675
4808	65.2933
4792	65.4155
4776	65.047
4760	65.1646
4744	64.7223
4728	65.1333
4712	65.2926
4696	65.016
4680	65.1875
4664	65.6018
4648	65.4917
4632	65.2848
4616	64.9738
4600	64.9822
4584	65.1062
4568	64.8277
4552	65.2674
4536	64.0622
4520	64.0435
4504	64.2196
4488	64.2763
4472	64.0744
4456	63.7253
4440	63.8255
4424	64.1814
4408	63.4
4392	63.7137
4376	68.0269
4360	64.2213
4344	64.3759
4328	64.3473
4312	64.1205
4296	63.9272
4280	64.4441
4264	64.8569
4248	64.1846
4232	64.7977
4216	64.6128
4200	64.5935
4184	64.9149
4168	64.7217
4152	65.0036
4136	64.8733
4120	65.1463
4104	65.2762
4088	65.2386
4072	64.9085
4056	65.1867
4040	65.2503
4024	65.4053
4008	64.9812
3992	65.1009
3976	65.1132
3960	65.2174
3944	64.8381
3928	64.8538
3912	65.0871
3896	64.9699
3880	64.9133
3864	65.061
3848	65.1017
3832	64.7184
3816	64.9083
3800	65.0071
3784	64.846
3768	65.0353
3752	65.1794
3736	65.0118
3720	65.2021
3704	65.2255
3688	65.3403
3672	65.1741
3656	65.1057
3640	65.0146
3624	65.2713
3608	65.2352
3592	65.176
3576	65.2959
3560	65.1898
3544	64.8631
3528	65.2247
3512	65.0993
3496	65.0491
3480	64.9119
3464	65.361
3448	65.0893
3432	65.3058
3416	65.0804
3400	65.1893
3384	65.0869
3368	64.8884
3352	65.0044
3336	65.0836
3320	64.936
3304	64.9755
3288	64.9993
3272	65.2231
3256	65.1364
3240	65.0217
3224	65.255
3208	65.1653
3192	64.953
3176	65.1777
3160	65.3057
3144	65.2395
3128	65.4872
3112	65.0926
3096	65.1107
3080	65.1359
3064	65.1365
3048	65.194
3032	65.187
3016	65.1384
3000	65.1662
2984	65.0532
2968	65.0091
2952	64.96
2936	65.2148
2920	64.6914
2904	65.0651
2888	65.097
2872	65.1383
2856	65.2007
2840	65.0822
2824	65.0852
2808	65.1985
2792	65.3721
2776	65.1696
2760	65.1873
2744	65.1626
2728	65.1047
2712	65.2063
2696	65.1953
2680	65.2126
2664	65.3511
2648	65.1576
2632	65.2482
2616	65.2207
2600	65.0864
2584	65.264
2568	65.1556
2552	65.2065
2536	65.1923
2520	65.2104
2504	64.9781
2488	65.2186
2472	65.2898
2456	64.9953
2440	65.2129
2424	65.4468
2408	64.9542
2392	65.25
2376	65.2427
2360	65.2467
2344	65.3802
2328	65.1824
2312	65.2124
2296	65.2368
2280	65.2849
2264	65.2798
2248	65.2754
2232	65.1466
2216	65.1409
2200	65.098
2184	65.2566
2168	65.1568
2152	65.2319
2136	65.1378
2120	65.1727
2104	65.2105
2088	65.1674
2072	66.0943
2056	65.1166
2040	65.1976
2024	65.1437
2008	65.4058
1992	65.1062
1976	65.29
1960	65.1871
1944	65.1972
1928	65.3717
1912	65.1995
1896	65.2371
1880	65.2102
1864	65.0955
1848	65.3419
1832	65.3307
1816	65.1568
1800	65.1194
1784	65.1004
1768	65.1445
1752	65.1346
1736	64.9631
1720	64.8374
1704	65.0345
1688	64.9926
1672	65.1508
1656	65.0809
1640	65.1224
1624	65.0269
1608	65.0954
1592	65.025
1576	64.9896
1560	64.8125
1544	64.9455
1528	65.0082
1512	64.9728
1496	65.2195
1480	65.0868
1464	65.0157
1448	65.0539
1432	64.7902
1416	65.0211
1400	64.9791
1384	65.0334
1368	64.9273
1352	65.088
1336	64.8987
1320	64.853
1304	64.9522
1288	65.1261
1272	64.9575
1256	64.9762
1240	64.9674
1224	64.9293
1208	64.9402
1192	64.8581
1176	64.9066
1160	64.7768
1144	64.8285
1128	64.7833
1112	65.1074
1096	64.5915
1080	64.4751
1064	64.7404
1048	64.8149
1032	64.7418
1016	64.6372
1000	64.416
984	 64.7001
968	 64.6713
952	 64.5379
936	 64.144
920	 64.9152
904	 64.3407
888	 64.5849
872	 64.3466
856	 64.3005
840	 64.0206
824	 63.8654
808	 63.8734
792	 63.8588
776	 64.0698
760	 63.7336
744	 63.9995
728	 63.5235
712	 62.9449
696	 63.2366
680	 63.2788
664	 63.0153
648	 63.2516
632	 62.961
616	 62.4095
600	 62.282
584	 62.3177
568	 62.2522
552	 62.9841
536	 62.1779
520	 62.0839
504	 61.3354
488	 61.4408
472	 60.436
456	 58.044
440	 58.449
424	 57.2609
408	 55.0642
392	 47.86
376	 148.914
370	 194.538