File: Bakgrunnsmateriale/MATLAB/FTIR/ftir_data/subBb/Mapping_121/C-4040-8_t84.asc
PE IR       SPECTRUM    SPECTRUM    ASCII       PEDS        1.60
  -1
C-B54A~1.ASC
17/03/27
21:21:52.00
17/03/27
21:22:18.00
tln
$C-4040-8_t0084$<tbV0>[-2.6,5.2,8.0,0.0,27,1,0]
27.028
64

2002,4.07
MIRTGS : RIGHTBACK : INTERNAL 2
MIR : ON : INTERNAL 2
OPTKBR

0.200000
8
8.000000
FILLER
RATIO
SPECTRUM
UNLOCKED 256

DOUBLE
64
COMBINED
1
0
0

0.002000
RATIO

1
0
TRUE
51149
0
LEFT NOT FITTED RIGHT NOT FITTED 0
NONE
NONE
15600
12
4.427000
51148
TRUE
1 0 8 72 0 0 0 0

15798

#HDR
-1
-1
#GR
µM
%T
2.38419e-05
0.0
2.000000
0.002000
12515
8
87.6911
52.7446
#DATA
2.000000	 65.1016
2.084000	 64.8379
2.168000	 65.3264
2.252000	 64.7653
2.336000	 65.2598
2.420000	 65.3337
2.504000	 65.2449
2.588000	 65.4683
2.672000	 65.3499
2.756000	 65.2595
2.840000	 65.3245
2.924000	 65.2846
3.008000	 65.0229
3.092000	 65.1551
3.176000	 65.4114
3.260000	 65.2843
3.344000	 65.1579
3.428000	 64.8336
3.512000	 65.1277
3.596000	 65.335
3.680000	 65.5093
3.764000	 65.4455
3.848000	 65.2955
3.932000	 65.3112
4.016000	 65.2121
4.100000	 65.438
4.184000	 65.4998
4.268000	 65.425
4.352000	 65.4151
4.436000	 65.4592
4.520000	 65.4506
4.604000	 65.5032
4.688000	 65.309
4.772000	 65.4635
4.856000	 65.2637
4.940000	 65.4514
5.024000	 65.4154
5.108000	 65.3595
5.192000	 65.404
5.276000	 65.4303
5.359999	 65.4586
5.444000	 65.5249
5.528000	 65.5252
5.612000	 65.4806
5.696000	 65.5373
5.780000	 65.1632
5.864000	 65.2082
5.948000	 65.3662
6.032000	 65.3369
6.116000	 65.3292
6.200000	 65.144
6.284000	 65.0365
6.368000	 65.151
6.452000	 65.0779
6.536000	 65.2371
6.620000	 65.0817
6.704000	 65.2475
6.788000	 65.2741
6.872000	 64.9426
6.956000	 65.1752
7.040000	 65.3308
7.124000	 65.0897
7.208000	 65.1097
7.292000	 65.0971
7.376000	 65.0514
7.460000	 65.2913
7.544000	 65.1807
7.628000	 65.0354
7.712000	 65.0211
7.796000	 65.167
7.880000	 65.0794
7.964000	 65.0892
8.048000	 65.0721
8.132000	 65.0744
8.216000	 65.1986
8.300000	 65.0919
8.384000	 65.0767
8.468000	 64.9456
8.552000	 64.8396
8.635999	 64.8718
8.719999	 64.8373
8.804000	 64.9632
8.888000	 64.9697
8.972000	 64.7283
9.056000	 64.8885
9.140000	 64.3668
9.224000	 64.9139
9.308000	 64.9189
9.391999	 65.0853
9.475999	 65.0456
9.560000	 65.0125
9.644000	 65.0624
9.728000	 65.0281
9.812000	 65.0503
9.896000	 64.6564
9.980000	 64.9655
10.064	65.0809
10.148	64.9229
10.232	64.8061
10.316	64.5659
10.4	64.6997
10.484	65.1182
10.568	64.9101
10.652	64.7598
10.736	64.3615
10.82	64.2871
10.904	64.5384
10.988	64.5949
11.072	64.6833
11.156	64.7553
11.24	64.8597
11.324	64.8582
11.408	64.8097
11.492	64.8675
11.576	64.8565
11.66	64.5814
11.744	64.2619
11.828	64.4488
11.912	64.7362
11.996	64.9669
12.08	64.7371
12.164	64.3863
12.248	64.3965
12.332	64.5184
12.416	64.4484
12.5	64.4507
12.584	64.2904
12.668	64.4016
12.752	64.5867
12.836	64.6295
12.92	64.4719
13.004	64.338
13.088	64.1631
13.172	64.3466
13.256	64.6611
13.34	64.5667
13.424	64.3266
13.508	64.4341
13.592	64.0431
13.676	63.3701
13.76	63.1564
13.844	63.5058
13.928	63.9025
14.012	63.8599
14.096	63.6709
14.18	63.7386
14.264	64.0856
14.348	64.1072
14.432	63.8482
14.516	63.7663
14.6	63.6567
14.684	63.5164
14.768	63.3443
14.852	63.0608
14.936	62.9838
15.02	63.1584
15.104	63.246
15.188	63.2502
15.272	63.4297
15.356	63.6863
15.44	63.6601
15.524	63.2706
15.608	62.8393
15.692	62.6843
15.776	62.8222
15.86	63.1198
15.944	63.3893
16.028	63.3593
16.112	63.0076
16.196	62.6912
16.28	62.6444
16.364	62.8252
16.448	63.2546
16.532	63.8236
16.616	64.105
16.7	63.8839
16.784	63.4362
16.868	63.0618
16.952	62.8031
17.036	62.6517
17.12	62.6458
17.204	62.7432
17.288	62.85
17.372	62.9794
17.456	63.1678
17.54	63.2651
17.624	63.0754
17.708	62.6885
17.792	62.4181
17.876	62.4039
17.96	62.4646
18.044	62.3947
18.128	62.2345
18.212	62.1575
18.296	62.2117
18.38	62.273
18.464	62.2488
18.548	62.1927
18.632	62.1937
18.716	62.2311
18.8	62.2002
18.884	62.0485
18.968	61.8709
19.052	61.8668
19.136	62.1709
19.22	62.6904
19.304	63.1092
19.388	63.1342
19.472	62.7474
19.556	62.1993
19.64	61.762
19.724	61.5335
19.808	61.4531
19.892	61.4324
19.976	61.4279
20.06	61.4268
20.144	61.411
20.228	61.3697
20.312	61.3321
20.396	61.3552
20.48	61.4746
20.564	61.6539
20.648	61.798
20.732	61.8023
20.816	61.6162
20.9	61.2797
20.984	60.9059
21.068	60.6394
21.152	60.5938
21.236	60.7967
21.32	61.1646
21.404	61.5452
21.488	61.7907
21.572	61.8253
21.656	61.6591
21.74	61.3472
21.824	60.9497
21.908	60.5188
21.992	60.1202
22.076	59.8447
22.16	59.7616
22.244	59.8641
22.328	60.0648
22.412	60.2595
22.496	60.4279
22.58	60.6463
22.664	61.0166
22.748	61.5593
22.832	62.1494
22.916	62.5725
23	62.6094
23.084	62.1927
23.168	61.411
23.252	60.4205
23.336	59.3832
23.42	58.4234
23.504	57.5926
23.588	56.9371
23.672	56.556
23.756	56.5917
23.84	57.1549
23.924	58.24
24.008	59.6905
24.092	61.236
24.176	62.6088
24.26	63.659
24.344	64.4707
24.428	65.3798
24.512	66.8957
24.596	69.4285
24.68	72.9029
24.764	76.5535
24.848	79.168
24.932	79.5282
25.016	77.1063
25.1	72.2859
25.184	66.3542
25.268	60.9269
25.352	57.2212
25.436	55.8976
25.52	56.8386
25.604	59.3727
25.688	62.5546
25.772	65.584
25.856	68.088
25.94	70.0593
26.024	71.7452
26.108	73.4306
26.192	75.3812
26.276	77.7236
26.36	80.5011
26.444	83.3607
26.528	85.5588
26.612	86.1553
26.696	84.3152
26.78	79.7476
26.864	72.6159
26.948	63.3127
27.028	52.7446