File: Bakgrunnsmateriale/MATLAB/FTIR/ftir_data/subBb/Mapping_121/C-4040-8_t63_cm-1.asc
PE IR       SPECTRUM    SPECTRUM    ASCII       PEDS        1.60
  -1
C-9CE1~1.ASC
17/03/27
19:37:36.00
17/03/27
19:37:36.00
tln
$C-4040-8_t0063$<tbV0>[-5.2,0.0,8.0,0.0,27,1,0]
370
64

2002,4.07
MIRTGS : RIGHTBACK : INTERNAL 2
MIR : ON : INTERNAL 2
OPTKBR

0.200000
8
8.000000
FILLER
RATIO
SPECTRUM
UNLOCKED 256

DOUBLE
64
COMBINED
1
0
0

1.000000
RATIO

1
0
TRUE
51149
0
LEFT NOT FITTED RIGHT NOT FITTED 0
NONE
NONE
15600
12
4.427000
51148
TRUE
1 0 8 72 0 0 0 0

15798

#HDR
-1
-1
#GR
CM-1
%T
2.38419e-05
0.0
5000
-1.000000
4631
8
105.967
50.082
#DATA
5000	64.9925
4984	64.8025
4968	64.7621
4952	65.0101
4936	65.3011
4920	65.2009
4904	65.3609
4888	65.2758
4872	64.6018
4856	64.9935
4840	65.0984
4824	65.0918
4808	64.9139
4792	65.3647
4776	65.0891
4760	64.6729
4744	64.4305
4728	64.2445
4712	64.7773
4696	64.5968
4680	64.5219
4664	64.4425
4648	64.4307
4632	64.5917
4616	64.412
4600	64.8289
4584	65.0397
4568	64.7617
4552	64.9052
4536	65.418
4520	65.0315
4504	65.5429
4488	65.5048
4472	66.0855
4456	65.7303
4440	66.1636
4424	66.5087
4408	66.3653
4392	66.0793
4376	58.9182
4360	52.983
4344	66.4118
4328	66.4074
4312	66.041
4296	66.0472
4280	66.1206
4264	65.5183
4248	65.5227
4232	65.5349
4216	65.5154
4200	65.4789
4184	64.8249
4168	64.4807
4152	64.9612
4136	64.8237
4120	65.1403
4104	64.5688
4088	64.9001
4072	64.8772
4056	64.6282
4040	64.5876
4024	64.6832
4008	64.6961
3992	64.9776
3976	64.9456
3960	64.9728
3944	65.044
3928	65.1628
3912	64.9431
3896	64.9448
3880	65.2386
3864	65.1813
3848	65.3359
3832	65.1513
3816	65.0887
3800	65.2779
3784	65.1026
3768	65.0744
3752	65.0958
3736	65.2844
3720	65.0474
3704	64.9931
3688	65.0984
3672	64.9005
3656	65.0366
3640	65.0778
3624	65.0348
3608	65.0281
3592	64.9083
3576	65.2089
3560	64.8948
3544	65.0857
3528	65.0889
3512	65.0284
3496	64.842
3480	65.1967
3464	65.1993
3448	65.2451
3432	65.3264
3416	65.0877
3400	65.3639
3384	65.1714
3368	65.2765
3352	65.0344
3336	65.3028
3320	65.2606
3304	65.0489
3288	65.1026
3272	65.0659
3256	65.3738
3240	64.9936
3224	64.826
3208	65.0872
3192	65.0801
3176	65.2895
3160	65.1536
3144	64.9165
3128	64.9344
3112	65.0833
3096	65.3134
3080	65.1258
3064	65.2065
3048	65.171
3032	65.2008
3016	65.222
3000	65.0621
2984	65.0602
2968	65.0689
2952	65.1857
2936	65.1189
2920	64.9128
2904	65.1009
2888	65.0596
2872	65.1011
2856	65.0709
2840	65.0356
2824	65.114
2808	65.1439
2792	65.1452
2776	65.2026
2760	65.0398
2744	65.2031
2728	65.2612
2712	65.0826
2696	65.0938
2680	65.0885
2664	65.2849
2648	65.1354
2632	65.2381
2616	65.1833
2600	65.1734
2584	65.2174
2568	65.155
2552	65.3865
2536	65.1664
2520	65.2049
2504	65.3031
2488	65.0641
2472	65.2682
2456	65.3023
2440	65.3312
2424	65.4139
2408	65.1925
2392	65.3339
2376	65.2799
2360	65.3701
2344	65.2052
2328	65.1806
2312	65.1531
2296	65.2718
2280	65.1566
2264	65.1589
2248	65.438
2232	65.5027
2216	65.2205
2200	65.1928
2184	65.1913
2168	65.2609
2152	65.2886
2136	65.2649
2120	65.233
2104	65.3296
2088	65.1627
2072	65.198
2056	65.211
2040	65.1755
2024	65.2844
2008	65.3048
1992	65.31
1976	65.2627
1960	65.1845
1944	65.2602
1928	65.2741
1912	65.2267
1896	65.3301
1880	65.3213
1864	65.193
1848	65.227
1832	65.2657
1816	65.2756
1800	65.2401
1784	65.2886
1768	65.2752
1752	65.157
1736	64.928
1720	65.1168
1704	65.0995
1688	65.0285
1672	65.294
1656	65.1594
1640	65.1141
1624	65.153
1608	64.9948
1592	65.0132
1576	65.2616
1560	65.1208
1544	65.1395
1528	65.0502
1512	64.9743
1496	65.1435
1480	64.9634
1464	65.0219
1448	64.8988
1432	65.0785
1416	65.0963
1400	65.1187
1384	65.1828
1368	65.0203
1352	64.9759
1336	65.0228
1320	65.0164
1304	64.9861
1288	64.9982
1272	64.977
1256	64.9627
1240	65.0817
1224	64.8039
1208	64.8704
1192	64.8877
1176	64.8743
1160	64.8696
1144	65.014
1128	64.9402
1112	64.8427
1096	64.4642
1080	65.5344
1064	64.9162
1048	64.332
1032	64.778
1016	64.6807
1000	64.7532
984	 64.8245
968	 64.5759
952	 64.2488
936	 64.6224
920	 64.361
904	 64.6449
888	 64.3171
872	 64.5396
856	 64.6359
840	 64.5083
824	 64.4141
808	 64.35
792	 63.5489
776	 64.1052
760	 63.6711
744	 64.1076
728	 63.3937
712	 63.7218
696	 63.6587
680	 63.2762
664	 62.7322
648	 63.1312
632	 63.3544
616	 63.3723
600	 62.2668
584	 62.3443
568	 62.1318
552	 61.8473
536	 62.155
520	 60.8936
504	 61.739
488	 62.5475
472	 60.205
456	 59.1037
440	 58.8924
424	 56.4671
408	 62.2787
392	 95.0954
376	 103.107
370	 96.3523