File: Bakgrunnsmateriale/MATLAB/FTIR/ftir_data/subBb/Mapping_121/C-4040-8_t42_cm-1.asc
PE IR       SPECTRUM    SPECTRUM    ASCII       PEDS        1.60
  -1
C-9B64~1.ASC
17/03/27
17:53:07.00
17/03/27
17:53:07.00
tln
$C-4040-8_t0042$<tbV0>[-7.8,-5.2,8.0,0.0,27,1,0]
370
64

2002,4.07
MIRTGS : RIGHTBACK : INTERNAL 2
MIR : ON : INTERNAL 2
OPTKBR

0.200000
8
8.000000
FILLER
RATIO
SPECTRUM
UNLOCKED 256

DOUBLE
64
COMBINED
1
0
0

1.000000
RATIO

1
0
TRUE
51149
0
LEFT NOT FITTED RIGHT NOT FITTED 0
NONE
NONE
15600
12
4.427000
51148
TRUE
1 0 8 72 0 0 0 0

15798

#HDR
-1
-1
#GR
CM-1
%T
2.38419e-05
0.0
5000
-1.000000
4631
8
115.776
43.9062
#DATA
5000	64.7132
4984	64.1689
4968	64.831
4952	64.4926
4936	65.0901
4920	64.9045
4904	64.7032
4888	64.6145
4872	64.7037
4856	64.5138
4840	64.5719
4824	64.7815
4808	64.3614
4792	64.5269
4776	64.4823
4760	64.9225
4744	64.9417
4728	64.4831
4712	64.8628
4696	64.7383
4680	64.4457
4664	64.5982
4648	64.5923
4632	64.8729
4616	64.5656
4600	64.7753
4584	64.4726
4568	64.4728
4552	64.9305
4536	64.5897
4520	64.6183
4504	64.3029
4488	64.6761
4472	64.3809
4456	64.6702
4440	64.4385
4424	64.1767
4408	64.1329
4392	65.0582
4376	64.7299
4360	63.8393
4344	66.5145
4328	63.6581
4312	64.7051
4296	64.5427
4280	64.2289
4264	64.1814
4248	64.4543
4232	64.4882
4216	64.4069
4200	64.6301
4184	64.4955
4168	64.5223
4152	64.3628
4136	64.1616
4120	64.3663
4104	64.1039
4088	64.634
4072	64.5466
4056	64.3538
4040	64.4231
4024	64.4032
4008	64.4589
3992	64.3048
3976	64.4675
3960	64.1614
3944	64.2129
3928	64.1747
3912	64.1629
3896	64.2207
3880	64.6309
3864	64.2245
3848	64.4687
3832	64.2333
3816	64.5385
3800	64.3702
3784	64.299
3768	64.2762
3752	64.4386
3736	64.2575
3720	64.4169
3704	64.3913
3688	64.2051
3672	64.0893
3656	64.2269
3640	64.2246
3624	64.2484
3608	64.1463
3592	64.164
3576	64.3182
3560	63.9783
3544	63.9549
3528	64.214
3512	64.1938
3496	64.1824
3480	64.0773
3464	63.8546
3448	64.0049
3432	64.0669
3416	63.6942
3400	63.8096
3384	63.8167
3368	63.7923
3352	63.934
3336	63.8826
3320	63.7804
3304	63.7201
3288	63.8199
3272	63.6482
3256	63.6553
3240	63.703
3224	63.7045
3208	63.3185
3192	63.7652
3176	63.3894
3160	63.7105
3144	63.3532
3128	63.2114
3112	63.7823
3096	63.5193
3080	63.3183
3064	63.459
3048	63.3503
3032	63.3494
3016	63.3147
3000	63.2624
2984	63.1893
2968	63.3595
2952	63.0077
2936	62.9821
2920	62.7736
2904	62.879
2888	63.0822
2872	62.9983
2856	62.831
2840	63.0865
2824	62.8119
2808	63.0037
2792	62.9358
2776	62.8998
2760	62.708
2744	62.8665
2728	62.7767
2712	62.711
2696	62.6207
2680	62.6739
2664	62.6529
2648	62.5625
2632	62.579
2616	62.4135
2600	62.4912
2584	62.4212
2568	62.4261
2552	62.3264
2536	62.3364
2520	62.3157
2504	61.991
2488	62.0054
2472	62.2018
2456	62.0482
2440	61.8894
2424	61.9861
2408	62.0237
2392	61.9977
2376	61.7763
2360	61.8188
2344	61.8814
2328	61.5757
2312	61.6778
2296	61.5511
2280	61.5427
2264	61.5092
2248	61.3631
2232	61.4968
2216	61.3665
2200	61.429
2184	61.4057
2168	61.3289
2152	60.9936
2136	61.298
2120	61.0647
2104	61.112
2088	61.0682
2072	60.938
2056	60.9185
2040	60.8366
2024	60.7774
2008	60.8613
1992	60.8046
1976	60.7
1960	60.6485
1944	60.4916
1928	60.5471
1912	60.4782
1896	60.2856
1880	60.3238
1864	60.351
1848	60.2617
1832	60.231
1816	60.1131
1800	59.9779
1784	59.9222
1768	59.8929
1752	59.7532
1736	59.7301
1720	59.4846
1704	59.7293
1688	59.6606
1672	59.658
1656	59.4967
1640	59.5621
1624	59.3947
1608	59.3666
1592	59.1906
1576	59.3271
1560	59.2074
1544	58.9853
1528	58.9864
1512	58.8957
1496	58.9399
1480	58.8639
1464	58.7857
1448	58.6845
1432	58.5148
1416	58.7032
1400	58.4977
1384	58.4768
1368	58.4157
1352	58.4146
1336	58.2336
1320	58.1049
1304	58.1231
1288	58.0543
1272	58.0646
1256	58.0183
1240	57.8548
1224	57.8019
1208	57.7051
1192	57.7217
1176	57.4487
1160	57.5861
1144	57.4893
1128	57.5023
1112	57.298
1096	57.1962
1080	57.5588
1064	57.0132
1048	57.0308
1032	57.0692
1016	56.8743
1000	56.6349
984	 56.7323
968	 56.3078
952	 56.549
936	 56.1355
920	 56.2891
904	 56.2407
888	 56.1446
872	 55.9264
856	 55.9524
840	 55.5329
824	 55.6919
808	 55.4687
792	 55.4171
776	 54.9874
760	 55.0721
744	 54.6971
728	 54.4468
712	 54.2344
696	 54.1768
680	 54.0693
664	 54.0654
648	 53.5726
632	 53.5892
616	 53.3255
600	 53.1507
584	 52.7229
568	 52.0902
552	 52.5928
536	 52.0884
520	 52.2831
504	 51.3219
488	 50.9373
472	 50.0238
456	 49.7191
440	 48.3156
424	 49.0165
408	 50.8258
392	 109.171
376	 50.3423
370	 81.1591