File: Bakgrunnsmateriale/MATLAB/FTIR/ftir_data/subBb/Mapping_121/C-4040-8_t110.asc
PE IR       SPECTRUM    SPECTRUM    ASCII       PEDS        1.60
  -1
C-8CB8~1.ASC
17/03/27
23:28:56.00
17/03/27
23:29:23.00
tln
$C-4040-8_t0110$<tbV0>[-13.0,10.4,8.0,0.0,27,1,0]
27.028
64

2002,4.07
MIRTGS : RIGHTBACK : INTERNAL 2
MIR : ON : INTERNAL 2
OPTKBR

0.200000
8
8.000000
FILLER
RATIO
SPECTRUM
UNLOCKED 256

DOUBLE
64
COMBINED
1
0
0

0.002000
RATIO

1
0
TRUE
51149
0
LEFT NOT FITTED RIGHT NOT FITTED 0
NONE
NONE
15600
12
4.427000
51148
TRUE
1 0 8 72 0 0 0 0

15798

#HDR
-1
-1
#GR
µM
%T
2.38419e-05
0.0
2.000000
0.002000
12515
8
189.675
46.225
#DATA
2.000000	 65.4393
2.084000	 64.8935
2.168000	 64.8069
2.252000	 65.0264
2.336000	 64.8304
2.420000	 64.8427
2.504000	 65.0995
2.588000	 65.1562
2.672000	 65.1681
2.756000	 65.1987
2.840000	 65.1589
2.924000	 64.8929
3.008000	 65.0209
3.092000	 64.9888
3.176000	 64.966
3.260000	 65.1458
3.344000	 65.1332
3.428000	 64.7308
3.512000	 64.7139
3.596000	 65.1883
3.680000	 65.2012
3.764000	 65.2336
3.848000	 65.0979
3.932000	 65.3195
4.016000	 65.3595
4.100000	 65.0641
4.184000	 65.2792
4.268000	 65.0169
4.352000	 65.2995
4.436000	 65.1196
4.520000	 65.0773
4.604000	 65.2569
4.688000	 65.0669
4.772000	 65.2154
4.856000	 65.1518
4.940000	 65.2708
5.024000	 65.2348
5.108000	 65.1739
5.192000	 65.2843
5.276000	 65.3427
5.359999	 65.1637
5.444000	 65.3236
5.528000	 65.2568
5.612000	 65.1814
5.696000	 65.2222
5.780000	 64.9009
5.864000	 65.2244
5.948000	 65.1987
6.032000	 65.1141
6.116000	 65.2583
6.200000	 65.0476
6.284000	 65.1066
6.368000	 64.8623
6.452000	 65.0526
6.536000	 65.1098
6.620000	 64.9545
6.704000	 65.2296
6.788000	 65.0427
6.872000	 64.9648
6.956000	 65.0661
7.040000	 65.0613
7.124000	 65.0914
7.208000	 64.9249
7.292000	 64.8868
7.376000	 64.9793
7.460000	 64.9208
7.544000	 64.8377
7.628000	 64.6294
7.712000	 64.7655
7.796000	 64.7863
7.880000	 64.7201
7.964000	 64.9954
8.048000	 64.9226
8.132000	 64.8251
8.216000	 64.8968
8.300000	 64.7207
8.384000	 64.7994
8.468000	 64.8046
8.552000	 64.9243
8.635999	 64.9047
8.719999	 64.6481
8.804000	 64.6645
8.888000	 64.6783
8.972000	 64.7913
9.056000	 64.7669
9.140000	 64.6384
9.224000	 64.6464
9.308000	 64.8472
9.391999	 64.6
9.475999	 64.4855
9.560000	 64.6349
9.644000	 64.4694
9.728000	 64.9806
9.812000	 64.6766
9.896000	 64.4261
9.980000	 64.2885
10.064	64.5842
10.148	64.7423
10.232	64.4078
10.316	64.5226
10.4	64.336
10.484	64.5418
10.568	64.4649
10.652	64.4982
10.736	64.6022
10.82	64.9914
10.904	64.8868
10.988	64.4868
11.072	64.3399
11.156	64.3519
11.24	64.6441
11.324	64.1486
11.408	64.3539
11.492	64.7849
11.576	64.7123
11.66	65.1346
11.744	64.6702
11.828	63.8613
11.912	63.9671
11.996	64.5759
12.08	64.8192
12.164	63.8366
12.248	63.6128
12.332	63.737
12.416	63.8013
12.5	63.9746
12.584	64.1901
12.668	63.9881
12.752	63.7732
12.836	63.6818
12.92	63.6926
13.004	63.8354
13.088	63.8936
13.172	63.9566
13.256	63.869
13.34	63.6191
13.424	63.1484
13.508	62.5949
13.592	62.7201
13.676	63.1396
13.76	63.3134
13.844	63.3249
13.928	63.2983
14.012	62.9451
14.096	62.7527
14.18	63.0074
14.264	63.0961
14.348	63.0134
14.432	63.0453
14.516	63.1455
14.6	63.3524
14.684	63.4613
14.768	63.275
14.852	62.9888
14.936	62.9759
15.02	63.1396
15.104	62.9638
15.188	62.584
15.272	62.525
15.356	62.7602
15.44	62.8243
15.524	62.5579
15.608	62.3949
15.692	62.5813
15.776	62.7707
15.86	62.7586
15.944	62.737
16.028	62.7997
16.112	62.7841
16.196	62.5967
16.28	62.3771
16.364	62.2335
16.448	62.1493
16.532	62.2064
16.616	62.4015
16.7	62.4649
16.784	62.2867
16.868	62.0545
16.952	61.8717
17.036	61.7393
17.12	61.7779
17.204	62.0068
17.288	62.1389
17.372	61.93
17.456	61.5267
17.54	61.2731
17.624	61.2955
17.708	61.4308
17.792	61.4984
17.876	61.501
17.96	61.5452
18.044	61.6601
18.128	61.7697
18.212	61.775
18.296	61.6237
18.38	61.3486
18.464	61.0743
18.548	60.9455
18.632	60.9981
18.716	61.1155
18.8	61.1142
18.884	60.8867
18.968	60.4801
19.052	60.0841
19.136	59.9305
19.22	60.1287
19.304	60.5662
19.388	60.9948
19.472	61.2414
19.556	61.2995
19.64	61.2423
19.724	61.1157
19.808	60.9504
19.892	60.8161
19.976	60.7761
20.06	60.7638
20.144	60.5861
20.228	60.1023
20.312	59.41
20.396	58.8118
20.48	58.5776
20.564	58.7211
20.648	59.0101
20.732	59.1698
20.816	59.0925
20.9	58.8852
20.984	58.7536
21.068	58.8332
21.152	59.0861
21.236	59.3439
21.32	59.4313
21.404	59.28
21.488	58.9442
21.572	58.532
21.656	58.1499
21.74	57.8732
21.824	57.7449
21.908	57.784
21.992	57.9739
22.076	58.2555
22.16	58.5464
22.244	58.7768
22.328	58.9241
22.412	59.0115
22.496	59.0804
22.58	59.1614
22.664	59.2425
22.748	59.2473
22.832	59.0658
22.916	58.5856
23	57.788
23.084	56.7764
23.168	55.7952
23.252	55.1307
23.336	55.0165
23.42	55.5068
23.504	56.4671
23.588	57.6213
23.672	58.6757
23.756	59.3969
23.84	59.6261
23.924	59.3044
24.008	58.4507
24.092	57.1436
24.176	55.5348
24.26	53.7874
24.344	52.0656
24.428	50.4918
24.512	49.1086
24.596	47.9655
24.68	47.1009
24.764	46.4931
24.848	46.2308
24.932	46.319
25.016	46.6227
25.1	47.0062
25.184	47.4164
25.268	47.9569
25.352	48.8724
25.436	50.4037
25.52	52.6431
25.604	55.4943
25.688	58.6836
25.772	61.8528
25.856	64.7007
25.94	67.0157
26.024	68.7268
26.108	69.962
26.192	71.225
26.276	73.4155
26.36	77.5101
26.444	84.6062
26.528	95.5153
26.612	110.464
26.696	128.675
26.78	148.323
26.864	166.715
26.948	181.16
27.028	189.675