File: Bakgrunnsmateriale/MATLAB/FTIR/ftir_data/subBb/Mapping_121/C-4040-8_t43.asc
PE IR       SPECTRUM    SPECTRUM    ASCII       PEDS        1.60
  -1
C-A536~1.ASC
17/03/27
17:57:44.00
17/03/27
17:58:10.00
tln
$C-4040-8_t0043$<tbV0>[-10.4,-5.2,8.0,0.0,27,1,0]
27.028
64

2002,4.07
MIRTGS : RIGHTBACK : INTERNAL 2
MIR : ON : INTERNAL 2
OPTKBR

0.200000
8
8.000000
FILLER
RATIO
SPECTRUM
UNLOCKED 256

DOUBLE
64
COMBINED
1
0
0

0.002000
RATIO

1
0
TRUE
51149
0
LEFT NOT FITTED RIGHT NOT FITTED 0
NONE
NONE
15600
12
4.427000
51148
TRUE
1 0 8 72 0 0 0 0

15798

#HDR
-1
-1
#GR
µM
%T
2.38419e-05
0.0
2.000000
0.002000
12515
8
76.0595
40.9366
#DATA
2.000000	 64.6763
2.084000	 64.9671
2.168000	 64.9504
2.252000	 64.9245
2.336000	 64.9657
2.420000	 65.0957
2.504000	 64.8345
2.588000	 64.8363
2.672000	 65.155
2.756000	 65.199
2.840000	 65.0088
2.924000	 65.1072
3.008000	 65.0952
3.092000	 65.2015
3.176000	 65.0158
3.260000	 65.2542
3.344000	 65.0708
3.428000	 64.7984
3.512000	 65.1711
3.596000	 65.3154
3.680000	 65.2264
3.764000	 65.1736
3.848000	 65.3037
3.932000	 65.3054
4.016000	 65.0599
4.100000	 65.0696
4.184000	 65.3671
4.268000	 65.2463
4.352000	 65.2798
4.436000	 65.1935
4.520000	 65.1751
4.604000	 65.3148
4.688000	 65.4282
4.772000	 65.2036
4.856000	 65.3382
4.940000	 65.3899
5.024000	 65.3598
5.108000	 65.3468
5.192000	 65.3319
5.276000	 65.3063
5.359999	 65.2169
5.444000	 65.3528
5.528000	 65.2135
5.612000	 65.293
5.696000	 65.2359
5.780000	 65.0041
5.864000	 65.3585
5.948000	 65.2044
6.032000	 65.1438
6.116000	 65.1879
6.200000	 65.072
6.284000	 65.1974
6.368000	 65.0944
6.452000	 65.1033
6.536000	 65.2061
6.620000	 65.3299
6.704000	 65.2592
6.788000	 64.9382
6.872000	 65.0735
6.956000	 65.1214
7.040000	 65.1255
7.124000	 65.0168
7.208000	 65.1295
7.292000	 65.0872
7.376000	 65.1247
7.460000	 64.986
7.544000	 65.014
7.628000	 65.1706
7.712000	 65.0017
7.796000	 64.942
7.880000	 64.9072
7.964000	 65.0213
8.048000	 65.032
8.132000	 65.1224
8.216000	 65.126
8.300000	 64.9172
8.384000	 65.0793
8.468000	 64.6307
8.552000	 64.7186
8.635999	 64.5337
8.719999	 64.7821
8.804000	 65.0821
8.888000	 64.8113
8.972000	 64.6137
9.056000	 64.8291
9.140000	 65.0666
9.224000	 64.9615
9.308000	 64.7543
9.391999	 64.6532
9.475999	 64.8516
9.560000	 65.1181
9.644000	 64.6842
9.728000	 64.6788
9.812000	 65.0928
9.896000	 64.5096
9.980000	 64.2838
10.064	64.1668
10.148	64.7395
10.232	64.3526
10.316	64.6702
10.4	64.4798
10.484	64.7492
10.568	64.6932
10.652	64.4701
10.736	64.4422
10.82	64.4506
10.904	64.5366
10.988	64.584
11.072	64.6512
11.156	64.5465
11.24	64.6963
11.324	64.5167
11.408	64.5788
11.492	64.4429
11.576	64.3132
11.66	64.3491
11.744	64.4239
11.828	64.5243
11.912	64.4446
11.996	64.4763
12.08	64.3546
12.164	64.1109
12.248	64.0317
12.332	64.1171
12.416	64.0618
12.5	64.0884
12.584	64.2088
12.668	64.3681
12.752	64.4738
12.836	64.4522
12.92	64.1138
13.004	63.8784
13.088	64.063
13.172	64.0312
13.256	63.8347
13.34	64.0102
13.424	64.5545
13.508	64.8275
13.592	64.6
13.676	64.0971
13.76	63.7066
13.844	63.5418
13.928	63.4974
14.012	63.6684
14.096	63.7767
14.18	63.7625
14.264	63.7003
14.348	63.6121
14.432	63.4032
14.516	63.1536
14.6	63.1362
14.684	63.1815
14.768	63.1723
14.852	63.3241
14.936	63.5962
15.02	63.5393
15.104	63.1404
15.188	62.9675
15.272	63.0306
15.356	63.0327
15.44	63.1154
15.524	63.2322
15.608	63.0801
15.692	62.7558
15.776	62.487
15.86	62.3089
15.944	62.3116
16.028	62.5029
16.112	62.6515
16.196	62.6495
16.28	62.6241
16.364	62.6995
16.448	62.9577
16.532	63.3309
16.616	63.4925
16.7	63.2484
16.784	62.8468
16.868	62.591
16.952	62.5035
17.036	62.4819
17.12	62.4895
17.204	62.5247
17.288	62.5436
17.372	62.5202
17.456	62.5031
17.54	62.52
17.624	62.4722
17.708	62.2896
17.792	62.0945
17.876	62.0403
17.96	62.1192
18.044	62.2218
18.128	62.2542
18.212	62.1913
18.296	62.1032
18.38	62.11
18.464	62.2211
18.548	62.2855
18.632	62.1858
18.716	62.0054
18.8	61.9032
18.884	61.8897
18.968	61.8478
19.052	61.7298
19.136	61.6267
19.22	61.6387
19.304	61.7738
19.388	61.9811
19.472	62.2164
19.556	62.4211
19.64	62.5084
19.724	62.4388
19.808	62.2716
19.892	62.0936
19.976	61.925
20.06	61.7317
20.144	61.49
20.228	61.2136
20.312	60.9357
20.396	60.6991
20.48	60.5758
20.564	60.6487
20.648	60.9361
20.732	61.3269
20.816	61.6229
20.9	61.6528
20.984	61.3591
21.068	60.8174
21.152	60.1916
21.236	59.6657
21.32	59.364
21.404	59.3072
21.488	59.4196
21.572	59.5788
21.656	59.6831
21.74	59.6888
21.824	59.6118
21.908	59.502
21.992	59.412
22.076	59.3813
22.16	59.4304
22.244	59.5601
22.328	59.7481
22.412	59.9676
22.496	60.1949
22.58	60.402
22.664	60.5533
22.748	60.5997
22.832	60.4924
22.916	60.2264
23	59.8262
23.084	59.3541
23.168	58.922
23.252	58.6447
23.336	58.5879
23.42	58.7002
23.504	58.8498
23.588	58.8783
23.672	58.6864
23.756	58.2975
23.84	57.8164
23.924	57.3573
24.008	57.0196
24.092	56.914
24.176	57.1635
24.26	57.915
24.344	59.2924
24.428	61.2624
24.512	63.5239
24.596	65.5455
24.68	66.778
24.764	66.9466
24.848	66.19
24.932	65.0612
25.016	64.2943
25.1	64.4922
25.184	65.9172
25.268	68.3496
25.352	71.2439
25.436	73.6682
25.52	74.7114
25.604	73.8975
25.688	71.1866
25.772	67.1682
25.856	62.9146
25.94	59.5634
26.024	57.9287
26.108	58.1528
26.192	59.6773
26.276	61.5001
26.36	62.6015
26.444	62.1705
26.528	59.8864
26.612	55.82
26.696	50.6562
26.78	45.5614
26.864	41.9432
26.948	40.9874
27.028	42.9446