File: Bakgrunnsmateriale/MATLAB/FTIR/ftir_data/subBb/Mapping_121/C-4040-8_t111_cm-1.asc
PE IR       SPECTRUM    SPECTRUM    ASCII       PEDS        1.60
  -1
C-4609~1.ASC
17/03/27
23:39:47.00
17/03/27
23:39:47.00
tln
$C-4040-8_t0111$<tbV0>[13.0,13.0,8.0,0.0,27,1,0]
370
64

2002,4.07
MIRTGS : RIGHTBACK : INTERNAL 2
MIR : ON : INTERNAL 2
OPTKBR

0.200000
8
8.000000
FILLER
RATIO
SPECTRUM
UNLOCKED 256

DOUBLE
64
COMBINED
1
0
0

1.000000
RATIO

1
0
TRUE
51149
0
LEFT NOT FITTED RIGHT NOT FITTED 0
NONE
NONE
15600
12
4.427000
51148
TRUE
1 0 8 72 0 0 0 0

15798

#HDR
-1
-1
#GR
CM-1
%T
2.38419e-05
0.0
5000
-1.000000
4631
8
117.435
51.9626
#DATA
5000	62.6936
4984	63.4952
4968	62.0356
4952	62.2104
4936	62.6548
4920	63.1037
4904	62.7302
4888	63.1828
4872	62.3909
4856	62.8062
4840	62.6883
4824	62.4289
4808	62.8327
4792	63.0404
4776	63.2499
4760	62.8193
4744	62.8804
4728	62.966
4712	63.0967
4696	63.1729
4680	63.2152
4664	63.0729
4648	63.0595
4632	62.5955
4616	62.9788
4600	63.2273
4584	63.1207
4568	63.0115
4552	62.7649
4536	63.2942
4520	62.0774
4504	62.4052
4488	62.6569
4472	62.4444
4456	62.8097
4440	62.3721
4424	62.4503
4408	69.8113
4392	61.4632
4376	63.8644
4360	63.3997
4344	63.0663
4328	63.253
4312	63.089
4296	62.8623
4280	63.1795
4264	62.4274
4248	62.9658
4232	62.6008
4216	63.0266
4200	62.9745
4184	61.6005
4168	63.0265
4152	63.1963
4136	63.006
4120	63.3262
4104	62.9682
4088	63.3441
4072	63.2557
4056	63.1858
4040	62.9367
4024	62.8715
4008	63.0509
3992	62.8771
3976	63.036
3960	63.1817
3944	62.9051
3928	62.9045
3912	63.0214
3896	62.9161
3880	63.1551
3864	62.9688
3848	63.2636
3832	62.8716
3816	63.3646
3800	63.0275
3784	63.178
3768	63.0471
3752	63.0149
3736	63.0965
3720	62.9649
3704	63.1331
3688	63.1364
3672	63.1922
3656	63.063
3640	63.2062
3624	63.0856
3608	63.0924
3592	63.1906
3576	62.8374
3560	63.2093
3544	63.1593
3528	63.1125
3512	63.0934
3496	63.1401
3480	63.1176
3464	63.2056
3448	63.0545
3432	63.0312
3416	62.8536
3400	63.1537
3384	63.2771
3368	63.1528
3352	63.1771
3336	63.3214
3320	63.2788
3304	63.0574
3288	63.1134
3272	63.0954
3256	63.3583
3240	62.937
3224	62.9417
3208	63.0539
3192	63.1084
3176	63.2217
3160	63.4216
3144	63.2943
3128	63.4953
3112	63.287
3096	63.3577
3080	63.2861
3064	63.44
3048	63.0847
3032	63.1137
3016	63.14
3000	63.1066
2984	62.9694
2968	62.91
2952	63.0327
2936	62.9544
2920	62.7621
2904	62.9417
2888	63.0147
2872	63.191
2856	62.879
2840	63.1971
2824	63.1838
2808	63.2636
2792	63.2588
2776	63.2123
2760	63.1508
2744	63.1515
2728	63.1088
2712	63.1217
2696	63.1635
2680	63.2722
2664	63.2736
2648	63.2565
2632	63.205
2616	63.314
2600	63.4803
2584	63.4247
2568	63.2915
2552	63.5212
2536	63.3456
2520	63.47
2504	63.1652
2488	63.3334
2472	63.2871
2456	63.439
2440	63.2726
2424	63.0444
2408	63.3195
2392	63.4129
2376	63.5092
2360	63.4987
2344	63.4679
2328	63.382
2312	63.4019
2296	63.4891
2280	63.2428
2264	63.326
2248	63.2217
2232	63.0813
2216	63.1967
2200	63.3669
2184	63.3072
2168	63.3304
2152	63.3748
2136	63.4838
2120	63.3643
2104	63.6545
2088	63.3923
2072	63.892
2056	63.2092
2040	63.3325
2024	63.3337
2008	63.2747
1992	63.3144
1976	63.3517
1960	63.2782
1944	63.2464
1928	63.3304
1912	63.4602
1896	63.4109
1880	63.4925
1864	63.3116
1848	63.4319
1832	63.4354
1816	63.3066
1800	63.4474
1784	63.3494
1768	63.387
1752	63.2571
1736	62.9726
1720	62.9137
1704	63.4156
1688	63.3653
1672	63.2082
1656	63.1647
1640	63.161
1624	63.3764
1608	63.3465
1592	63.2497
1576	63.2214
1560	63.228
1544	63.2499
1528	63.3786
1512	63.1941
1496	63.2657
1480	63.1127
1464	63.075
1448	62.9
1432	63.3637
1416	63.1618
1400	63.4006
1384	63.2116
1368	63.332
1352	63.4678
1336	63.2292
1320	63.2533
1304	63.107
1288	63.032
1272	62.9652
1256	62.9799
1240	62.5372
1224	62.7318
1208	62.7493
1192	62.8671
1176	62.7872
1160	62.6575
1144	62.8695
1128	62.7674
1112	62.964
1096	62.5063
1080	62.5767
1064	62.5148
1048	62.5199
1032	62.3795
1016	62.4835
1000	62.5317
984	 62.7012
968	 62.5125
952	 62.4654
936	 62.3612
920	 62.3698
904	 62.4274
888	 61.8781
872	 62.3924
856	 61.7614
840	 62.8732
824	 62.1088
808	 62.0934
792	 61.9691
776	 62.0717
760	 61.8379
744	 62.4262
728	 61.724
712	 61.448
696	 61.6872
680	 60.9407
664	 61.5651
648	 61.2627
632	 61.0746
616	 61.2159
600	 61.2791
584	 60.8324
568	 61.4611
552	 60.7985
536	 60.7683
520	 60.8885
504	 59.8547
488	 60.404
472	 59.9049
456	 61.3956
440	 58.182
424	 59.8605
408	 70.9728
392	 71.0401
376	 101.244
370	 102.047