File: Bakgrunnsmateriale/MATLAB/FTIR/ftir_data/subBb/Mapping_121/C-4040-8_t04_cm-1.asc
PE IR       SPECTRUM    SPECTRUM    ASCII       PEDS        1.60
  -1
C-996F~1.ASC
17/03/27
14:49:25.00
17/03/27
14:49:25.00
tln
$C-4040-8_t0004$<tbV0>[5.2,-13.0,8.0,0.0,27,1,0]
370
64

2002,4.07
MIRTGS : RIGHTBACK : INTERNAL 2
MIR : ON : INTERNAL 2
OPTKBR

0.200000
8
8.000000
FILLER
RATIO
SPECTRUM
UNLOCKED 256

DOUBLE
64
COMBINED
1
0
0

1.000000
RATIO

1
0
TRUE
51149
0
LEFT NOT FITTED RIGHT NOT FITTED 0
NONE
NONE
15600
12
4.427000
51148
TRUE
1 0 8 72 0 0 0 0

15798

#HDR
-1
-1
#GR
CM-1
%T
2.38419e-05
0.0
5000
-1.000000
4631
8
69.9467
-0.073742
#DATA
5000	63.5407
4984	63.1537
4968	62.9625
4952	63.3184
4936	62.608
4920	63.3767
4904	64.1479
4888	63.5059
4872	63.317
4856	63.5303
4840	63.6736
4824	62.9054
4808	63.1032
4792	63.3483
4776	63.4513
4760	63.112
4744	63.3031
4728	62.958
4712	63.4173
4696	63.2273
4680	63.4282
4664	63.1341
4648	63.0893
4632	63.3363
4616	63.2895
4600	63.4527
4584	63.2674
4568	63.397
4552	62.7249
4536	63.2415
4520	63.4972
4504	63.6868
4488	63.0153
4472	63.1047
4456	65.0905
4440	65.806
4424	60.4306
4408	65.8713
4392	65.8905
4376	64.3931
4360	63.5396
4344	63.4118
4328	63.0383
4312	63.0354
4296	63.0272
4280	62.8598
4264	62.8472
4248	62.7847
4232	62.8308
4216	62.8901
4200	62.77
4184	62.6417
4168	62.457
4152	62.3297
4136	62.7716
4120	62.5448
4104	62.6849
4088	62.7556
4072	62.4051
4056	62.8142
4040	62.549
4024	62.6033
4008	62.7552
3992	62.6525
3976	62.1505
3960	62.5036
3944	62.579
3928	62.6597
3912	62.3989
3896	62.6393
3880	62.1069
3864	62.2467
3848	62.3535
3832	62.2417
3816	62.1694
3800	62.3392
3784	62.078
3768	62.2134
3752	62.1022
3736	62.1119
3720	61.7926
3704	62.0452
3688	61.9989
3672	61.9434
3656	61.765
3640	61.3571
3624	61.5033
3608	61.3415
3592	61.5098
3576	61.4232
3560	61.2241
3544	61.2303
3528	61.2216
3512	60.9196
3496	60.9502
3480	61.1345
3464	60.9271
3448	60.8883
3432	60.7441
3416	60.5896
3400	60.4453
3384	60.5113
3368	60.3397
3352	60.3071
3336	60.2639
3320	60.0745
3304	60.0525
3288	59.9224
3272	60.0032
3256	59.763
3240	59.595
3224	59.7161
3208	59.8059
3192	59.6826
3176	59.3443
3160	59.3681
3144	59.3659
3128	59.1485
3112	59.1813
3096	59.1018
3080	58.8866
3064	58.9863
3048	58.8437
3032	58.7415
3016	58.6265
3000	58.5699
2984	58.3664
2968	58.2131
2952	58.0662
2936	58.0217
2920	57.7789
2904	57.6376
2888	57.6176
2872	57.63
2856	57.4314
2840	57.5483
2824	57.3299
2808	57.2494
2792	56.9889
2776	56.9673
2760	56.8477
2744	56.8842
2728	56.6712
2712	56.4944
2696	56.3934
2680	56.2631
2664	56.2373
2648	55.9421
2632	55.9129
2616	55.6173
2600	55.6188
2584	55.4517
2568	55.364
2552	55.259
2536	55.126
2520	55.0008
2504	54.9895
2488	54.6669
2472	54.6924
2456	54.5261
2440	54.5675
2424	54.2471
2408	54.0759
2392	53.8265
2376	53.8939
2360	53.7055
2344	53.3179
2328	53.3517
2312	53.2822
2296	53.1116
2280	52.9351
2264	52.8824
2248	52.6887
2232	52.4945
2216	52.2666
2200	52.1848
2184	51.968
2168	51.9448
2152	51.6948
2136	51.6489
2120	51.3185
2104	51.3344
2088	51.1566
2072	50.8349
2056	50.79
2040	50.5953
2024	50.4406
2008	50.3839
1992	50.2689
1976	50.0038
1960	49.8635
1944	49.6979
1928	49.4866
1912	49.3642
1896	49.2362
1880	48.9897
1864	48.7968
1848	48.7095
1832	48.5353
1816	48.4123
1800	48.2248
1784	48.0725
1768	47.9497
1752	47.7163
1736	47.6616
1720	47.4001
1704	47.3305
1688	47.1852
1672	47.0043
1656	46.9969
1640	46.5614
1624	46.4674
1608	46.211
1592	46.0419
1576	45.8156
1560	45.9021
1544	45.7
1528	45.4297
1512	45.3196
1496	45.0632
1480	44.73
1464	44.5528
1448	44.6274
1432	44.2755
1416	44.1939
1400	44.0544
1384	43.7422
1368	43.5958
1352	43.3752
1336	43.1155
1320	43.0954
1304	42.9478
1288	42.7324
1272	42.3681
1256	42.3232
1240	42.0334
1224	42.032
1208	41.6309
1192	41.5331
1176	41.2941
1160	41.2312
1144	40.9604
1128	40.9631
1112	40.4842
1096	40.329
1080	40.0869
1064	40.0359
1048	39.9221
1032	39.5896
1016	39.6683
1000	39.1976
984	 39.3045
968	 38.6782
952	 38.7423
936	 38.3805
920	 38.1458
904	 37.8909
888	 37.964
872	 37.5321
856	 37.3516
840	 36.9282
824	 36.1967
808	 36.5764
792	 36.064
776	 35.8066
760	 34.8289
744	 35.9421
728	 34.5584
712	 34.9284
696	 33.7304
680	 33.2796
664	 33.4361
648	 32.8583
632	 32.305
616	 32.3011
600	 31.2826
584	 30.6725
568	 30.5176
552	 29.5284
536	 29.3931
520	 28.2071
504	 27.3869
488	 26.8371
472	 26.8179
456	 25.0259
440	 26.2292
424	 24.1202
408	 28.6253
392	 10.821
376	 28.5837
370	 -0.073742