File: Bakgrunnsmateriale/MATLAB/FTIR/ftir_data/subBb/Mapping_121/C-4040-8_t112_cm-1.asc
PE IR       SPECTRUM    SPECTRUM    ASCII       PEDS        1.60
  -1
C-4709~1.ASC
17/03/27
23:44:24.00
17/03/27
23:44:24.00
tln
$C-4040-8_t0112$<tbV0>[10.4,13.0,8.0,0.0,27,1,0]
370
64

2002,4.07
MIRTGS : RIGHTBACK : INTERNAL 2
MIR : ON : INTERNAL 2
OPTKBR

0.200000
8
8.000000
FILLER
RATIO
SPECTRUM
UNLOCKED 256

DOUBLE
64
COMBINED
1
0
0

1.000000
RATIO

1
0
TRUE
51149
0
LEFT NOT FITTED RIGHT NOT FITTED 0
NONE
NONE
15600
12
4.427000
51148
TRUE
1 0 8 72 0 0 0 0

15798

#HDR
-1
-1
#GR
CM-1
%T
2.38419e-05
0.0
5000
-1.000000
4631
8
68.9909
22.7882
#DATA
5000	64.68
4984	64.7288
4968	63.9961
4952	65.2394
4936	64.3481
4920	64.9758
4904	65.0544
4888	63.9021
4872	64.5643
4856	65.2681
4840	64.613
4824	64.5521
4808	64.8544
4792	64.6227
4776	64.8515
4760	64.5199
4744	64.8969
4728	64.277
4712	64.6951
4696	64.7429
4680	64.4371
4664	64.7282
4648	65.1468
4632	64.7125
4616	64.5233
4600	64.6826
4584	64.8233
4568	64.9162
4552	65.3366
4536	65.8227
4520	65.0326
4504	65.2131
4488	64.9494
4472	65.4037
4456	64.9713
4440	65.1782
4424	66.6303
4408	61.0657
4392	54.1129
4376	67.9607
4360	65.7164
4344	65.5658
4328	65.0171
4312	65.1135
4296	65.2115
4280	65.3222
4264	64.688
4248	65.2898
4232	64.8915
4216	65.1056
4200	64.9403
4184	63.9345
4168	64.1508
4152	64.5541
4136	65.115
4120	64.7393
4104	64.5201
4088	64.7288
4072	64.9546
4056	64.9512
4040	64.5326
4024	64.8297
4008	64.724
3992	64.9523
3976	65.2892
3960	65.059
3944	65.0597
3928	65.0223
3912	64.8948
3896	65.0342
3880	64.9766
3864	64.8561
3848	65.0395
3832	65.013
3816	65.2251
3800	65.004
3784	65.1881
3768	65.198
3752	64.8517
3736	64.9397
3720	64.9785
3704	64.9636
3688	64.8946
3672	64.9579
3656	64.9032
3640	64.9875
3624	65.048
3608	64.9711
3592	65.0987
3576	64.886
3560	65.1242
3544	64.7591
3528	64.983
3512	64.9615
3496	65.0822
3480	65.1572
3464	65.2719
3448	64.8314
3432	64.9588
3416	64.8419
3400	64.7568
3384	65.0813
3368	65.1481
3352	64.9163
3336	64.901
3320	65.0113
3304	64.7654
3288	65.099
3272	64.9756
3256	65.0167
3240	64.8866
3224	64.7383
3208	64.7388
3192	65.1149
3176	64.9239
3160	65.0178
3144	64.9076
3128	64.9355
3112	64.6749
3096	64.9677
3080	65.0615
3064	65.0517
3048	65.0219
3032	65.1515
3016	64.9708
3000	65.2199
2984	64.9669
2968	65.0745
2952	65.0024
2936	64.9994
2920	64.6018
2904	64.7164
2888	64.8994
2872	65.1436
2856	64.8953
2840	64.7648
2824	65.0171
2808	64.9477
2792	64.9594
2776	64.9176
2760	65.052
2744	64.8549
2728	65.0206
2712	65.0388
2696	65.0482
2680	65.158
2664	65.0713
2648	65.098
2632	64.9729
2616	65.1422
2600	65.0923
2584	64.9234
2568	64.9227
2552	65.2197
2536	65.1222
2520	65.0601
2504	65.1344
2488	64.9187
2472	65.1274
2456	65.1041
2440	65.1145
2424	65.1325
2408	65.1743
2392	65.0093
2376	65.0791
2360	65.0183
2344	65.1856
2328	65.1776
2312	65.0727
2296	65.0988
2280	65.0943
2264	65.2102
2248	65.0846
2232	65.0508
2216	65.0737
2200	65.2169
2184	65.0917
2168	65.0211
2152	65.0532
2136	65.0918
2120	65.0936
2104	65.1453
2088	64.9236
2072	64.7973
2056	65.1185
2040	64.9828
2024	65.0695
2008	65.0926
1992	65.0109
1976	65.1167
1960	65.0769
1944	65.027
1928	65.1159
1912	65.2458
1896	65.0089
1880	65.09
1864	64.9781
1848	65.1022
1832	65.1562
1816	65.057
1800	65.0234
1784	65.0245
1768	64.9819
1752	65.0457
1736	64.7146
1720	65.2096
1704	65.0314
1688	64.9192
1672	64.9391
1656	64.7524
1640	64.9194
1624	64.8396
1608	64.7763
1592	64.9503
1576	64.8828
1560	64.8813
1544	64.8213
1528	64.9693
1512	64.7807
1496	64.7967
1480	64.9336
1464	64.9002
1448	64.6193
1432	64.8125
1416	64.7656
1400	64.9067
1384	64.6241
1368	64.7609
1352	64.8238
1336	64.8637
1320	64.8666
1304	64.7026
1288	64.5778
1272	64.7004
1256	64.6874
1240	64.6087
1224	64.726
1208	64.845
1192	64.6846
1176	64.6094
1160	64.7775
1144	64.5783
1128	64.6662
1112	64.5878
1096	64.6152
1080	64.8142
1064	64.4076
1048	64.9729
1032	64.5723
1016	64.6516
1000	64.3645
984	 64.8025
968	 64.769
952	 64.5356
936	 64.4885
920	 64.7107
904	 64.7632
888	 64.6969
872	 64.5557
856	 63.9673
840	 64.63
824	 64.6243
808	 64.5695
792	 64.0785
776	 63.9048
760	 63.3406
744	 64.373
728	 63.5785
712	 63.7838
696	 63.4254
680	 62.9124
664	 63.3516
648	 63.2569
632	 63.7036
616	 63.1085
600	 62.9357
584	 62.7399
568	 62.9909
552	 62.8376
536	 62.7286
520	 62.0012
504	 60.8145
488	 61.9633
472	 61.1878
456	 61.8517
440	 60.0844
424	 60.4335
408	 59.4618
392	 63.0263
376	 62.7045
370	 40.0154