File: Bakgrunnsmateriale/MATLAB/FTIR/ftir_data/subBb/Mapping_121/C-4040-8_t121.asc
PE IR       SPECTRUM    SPECTRUM    ASCII       PEDS        1.60
  -1
C-80C2~1.ASC
17/03/28
00:40:25.00
17/03/28
00:40:51.00
tln
$C-4040-8_t0121$<tbV0>[-13.0,13.0,8.0,0.0,27,1,0]
27.028
64

2002,4.07
MIRTGS : RIGHTBACK : INTERNAL 2
MIR : ON : INTERNAL 2
OPTKBR

0.200000
8
8.000000
FILLER
RATIO
SPECTRUM
UNLOCKED 256

DOUBLE
64
COMBINED
1
0
0

0.002000
RATIO

1
0
TRUE
51149
0
LEFT NOT FITTED RIGHT NOT FITTED 0
NONE
NONE
15600
12
4.427000
51148
TRUE
1 0 8 72 0 0 0 0

15798

#HDR
-1
-1
#GR
µM
%T
2.38419e-05
0.0
2.000000
0.002000
12515
8
84.243
42.2389
#DATA
2.000000	 64.5864
2.084000	 64.7452
2.168000	 64.3792
2.252000	 66.1807
2.336000	 65.2525
2.420000	 64.7968
2.504000	 64.8408
2.588000	 65.1672
2.672000	 64.9059
2.756000	 64.8769
2.840000	 64.8498
2.924000	 65.0548
3.008000	 64.7455
3.092000	 64.6559
3.176000	 64.658
3.260000	 64.898
3.344000	 65.0356
3.428000	 64.6306
3.512000	 64.8927
3.596000	 64.8563
3.680000	 64.9412
3.764000	 64.9839
3.848000	 64.9934
3.932000	 65.0117
4.016000	 64.8926
4.100000	 65.025
4.184000	 64.9866
4.268000	 64.917
4.352000	 65.0654
4.436000	 64.9587
4.520000	 64.9389
4.604000	 64.9563
4.688000	 64.951
4.772000	 65.0125
4.856000	 65.2136
4.940000	 65.1209
5.024000	 64.9416
5.108000	 65.0808
5.192000	 65.0098
5.276000	 64.9724
5.359999	 64.8844
5.444000	 64.9004
5.528000	 64.8322
5.612000	 64.8347
5.696000	 64.8565
5.780000	 64.4149
5.864000	 64.8327
5.948000	 64.8681
6.032000	 64.758
6.116000	 64.8768
6.200000	 64.7284
6.284000	 64.744
6.368000	 64.643
6.452000	 64.6669
6.536000	 64.8724
6.620000	 64.6609
6.704000	 64.6662
6.788000	 64.7607
6.872000	 64.5462
6.956000	 64.7151
7.040000	 64.7705
7.124000	 64.5429
7.208000	 64.6722
7.292000	 64.5586
7.376000	 64.6685
7.460000	 64.5783
7.544000	 64.746
7.628000	 64.5407
7.712000	 64.4754
7.796000	 64.6558
7.880000	 64.6046
7.964000	 64.5514
8.048000	 64.4975
8.132000	 64.4701
8.216000	 64.5665
8.300000	 64.6029
8.384000	 64.6079
8.468000	 64.5287
8.552000	 64.4807
8.635999	 64.5581
8.719999	 64.5185
8.804000	 64.6715
8.888000	 64.2999
8.972000	 64.4841
9.056000	 64.3838
9.140000	 63.9844
9.224000	 64.1016
9.308000	 64.2902
9.391999	 64.5556
9.475999	 64.1226
9.560000	 64.2647
9.644000	 64.1738
9.728000	 64.2367
9.812000	 63.9706
9.896000	 64.1574
9.980000	 64.2987
10.064	64.2483
10.148	64.4853
10.232	64.4785
10.316	64.26
10.4	64.0386
10.484	63.9728
10.568	64.1923
10.652	64.0698
10.736	64.1781
10.82	64.3353
10.904	64.1503
10.988	64.2931
11.072	64.3796
11.156	63.7608
11.24	63.7411
11.324	63.8634
11.408	63.9434
11.492	64.0792
11.576	63.9611
11.66	63.8227
11.744	63.859
11.828	63.8594
11.912	64.2734
11.996	63.9533
12.08	63.7374
12.164	64.061
12.248	64.2122
12.332	63.735
12.416	64.2642
12.5	64.392
12.584	63.7586
12.668	63.5456
12.752	63.5094
12.836	63.4442
12.92	63.2249
13.004	63.4279
13.088	63.3146
13.172	63.1797
13.256	63.5124
13.34	63.7063
13.424	64.0919
13.508	64.0115
13.592	63.3222
13.676	62.9055
13.76	62.6671
13.844	62.6965
13.928	62.695
14.012	62.5885
14.096	62.6198
14.18	62.5945
14.264	62.6692
14.348	62.8154
14.432	62.9064
14.516	62.874
14.6	62.4816
14.684	62.0555
14.768	61.9434
14.852	61.8515
14.936	61.8316
15.02	62.0549
15.104	62.0685
15.188	61.7865
15.272	61.7644
15.356	62.0709
15.44	62.2776
15.524	62.339
15.608	62.4468
15.692	62.5112
15.776	62.4611
15.86	62.3588
15.944	62.1996
16.028	62.0422
16.112	61.9769
16.196	61.8339
16.28	61.5507
16.364	61.5593
16.448	62.0126
16.532	62.3277
16.616	62.2286
16.7	62.1401
16.784	62.1957
16.868	62.0983
16.952	61.8211
17.036	61.586
17.12	61.4078
17.204	61.2051
17.288	61.1249
17.372	61.3186
17.456	61.5937
17.54	61.6223
17.624	61.3696
17.708	61.0805
17.792	60.9609
17.876	61.0683
17.96	61.3553
18.044	61.6742
18.128	61.8158
18.212	61.689
18.296	61.412
18.38	61.1754
18.464	61.0615
18.548	61.0122
18.632	60.936
18.716	60.8038
18.8	60.671
18.884	60.6219
18.968	60.6975
19.052	60.8616
19.136	61.0254
19.22	61.0993
19.304	61.0316
19.388	60.8205
19.472	60.518
19.556	60.2225
19.64	60.0338
19.724	59.9863
19.808	60.0144
19.892	60.0014
19.976	59.8916
20.06	59.7517
20.144	59.7022
20.228	59.7835
20.312	59.9087
20.396	59.942
20.48	59.8149
20.564	59.5664
20.648	59.2949
20.732	59.0829
20.816	58.9667
20.9	58.951
20.984	59.0406
21.068	59.2447
21.152	59.5711
21.236	59.9927
21.32	60.4374
21.404	60.7987
21.488	60.9845
21.572	60.9712
21.656	60.8025
21.74	60.5534
21.824	60.2901
21.908	60.0411
21.992	59.8004
22.076	59.5503
22.16	59.2817
22.244	58.998
22.328	58.6956
22.412	58.3424
22.496	57.9006
22.58	57.3674
22.664	56.8245
22.748	56.4393
22.832	56.3545
22.916	56.6287
23	57.1441
23.084	57.686
23.168	58.0167
23.252	58.006
23.336	57.676
23.42	57.1983
23.504	56.7322
23.588	56.3864
23.672	56.2174
23.756	56.2292
23.84	56.4491
23.924	56.9901
24.008	58.0149
24.092	59.6615
24.176	61.9851
24.26	64.8084
24.344	67.7461
24.428	70.4309
24.512	72.6964
24.596	74.6403
24.68	76.3924
24.764	77.8533
24.848	78.5948
24.932	77.8944
25.016	75.1192
25.1	70.0988
25.184	63.2943
25.268	55.7769
25.352	48.8964
25.436	44.0519
25.52	42.2404
25.604	43.8476
25.688	48.6741
25.772	55.9465
25.856	64.5117
25.94	72.946
26.024	79.7246
26.108	83.5935
26.192	83.9883
26.276	81.1595
26.36	76.1824
26.444	70.4701
26.528	65.296
26.612	61.4605
26.696	59.2589
26.78	58.5831
26.864	59.1318
26.948	60.5661
27.028	62.4125