File: Bakgrunnsmateriale/MATLAB/FTIR/ftir_data/subBb/Mapping_121/C-4040-8_t52.asc
PE IR       SPECTRUM    SPECTRUM    ASCII       PEDS        1.60
  -1
C-A932~1.ASC
17/03/27
18:46:13.00
17/03/27
18:46:39.00
tln
$C-4040-8_t0052$<tbV0>[-5.2,-2.6,8.0,0.0,27,1,0]
27.028
64

2002,4.07
MIRTGS : RIGHTBACK : INTERNAL 2
MIR : ON : INTERNAL 2
OPTKBR

0.200000
8
8.000000
FILLER
RATIO
SPECTRUM
UNLOCKED 256

DOUBLE
64
COMBINED
1
0
0

0.002000
RATIO

1
0
TRUE
51149
0
LEFT NOT FITTED RIGHT NOT FITTED 0
NONE
NONE
15600
12
4.427000
51148
TRUE
1 0 8 72 0 0 0 0

15798

#HDR
-1
-1
#GR
µM
%T
2.38419e-05
0.0
2.000000
0.002000
12515
8
114.346
43.5126
#DATA
2.000000	 64.9157
2.084000	 65.0564
2.168000	 65.039
2.252000	 65.1432
2.336000	 66.1093
2.420000	 65.1358
2.504000	 65.1041
2.588000	 65.2629
2.672000	 65.0526
2.756000	 65.0169
2.840000	 65.132
2.924000	 65.3194
3.008000	 65.2082
3.092000	 65.2794
3.176000	 65.2357
3.260000	 65.2643
3.344000	 65.1862
3.428000	 64.8563
3.512000	 65.0422
3.596000	 65.2787
3.680000	 65.0871
3.764000	 65.32
3.848000	 65.3879
3.932000	 65.4792
4.016000	 65.1726
4.100000	 65.2392
4.184000	 65.3913
4.268000	 65.2942
4.352000	 65.3723
4.436000	 65.3175
4.520000	 65.3143
4.604000	 65.3906
4.688000	 65.2242
4.772000	 65.3637
4.856000	 65.1591
4.940000	 65.2349
5.024000	 65.2989
5.108000	 65.2255
5.192000	 65.2939
5.276000	 65.2916
5.359999	 65.2493
5.444000	 65.3687
5.528000	 65.3579
5.612000	 65.2341
5.696000	 65.1416
5.780000	 64.9296
5.864000	 65.1574
5.948000	 65.2654
6.032000	 65.1778
6.116000	 65.1716
6.200000	 65.2261
6.284000	 65.1577
6.368000	 65.303
6.452000	 65.2777
6.536000	 65.0881
6.620000	 65.1625
6.704000	 65.2101
6.788000	 65.1355
6.872000	 64.9727
6.956000	 65.1599
7.040000	 65.0714
7.124000	 65.1918
7.208000	 65.1193
7.292000	 65.2586
7.376000	 65.1543
7.460000	 65.0352
7.544000	 65.1385
7.628000	 65.0623
7.712000	 65.1076
7.796000	 65.1537
7.880000	 64.9993
7.964000	 65.0652
8.048000	 65.2187
8.132000	 65.0028
8.216000	 64.8627
8.300000	 65.0735
8.384000	 65.2384
8.468000	 64.8955
8.552000	 65.2055
8.635999	 65.1747
8.719999	 65.4186
8.804000	 64.7945
8.888000	 64.8198
8.972000	 64.8798
9.056000	 65.0753
9.140000	 64.865
9.224000	 64.9871
9.308000	 64.9801
9.391999	 64.9593
9.475999	 64.7065
9.560000	 64.6728
9.644000	 65.1109
9.728000	 64.7405
9.812000	 64.2988
9.896000	 64.7577
9.980000	 64.6271
10.064	64.7969
10.148	64.8624
10.232	64.7947
10.316	64.641
10.4	64.6585
10.484	64.5977
10.568	64.4852
10.652	64.7858
10.736	64.7866
10.82	64.6241
10.904	64.6308
10.988	64.6254
11.072	64.5836
11.156	64.3537
11.24	64.4639
11.324	64.5724
11.408	64.3764
11.492	64.4898
11.576	64.6517
11.66	64.539
11.744	64.5561
11.828	64.7085
11.912	64.4755
11.996	64.3623
12.08	64.3989
12.164	64.5951
12.248	64.4196
12.332	64.4399
12.416	64.2727
12.5	64.2247
12.584	64.1177
12.668	63.9238
12.752	64.1133
12.836	63.9565
12.92	64.04
13.004	64.3342
13.088	64.144
13.172	63.8019
13.256	63.7744
13.34	64.0499
13.424	63.8342
13.508	63.8182
13.592	63.9865
13.676	64.0153
13.76	63.9811
13.844	63.7513
13.928	63.6403
14.012	63.6747
14.096	63.549
14.18	63.4852
14.264	63.7193
14.348	63.9067
14.432	63.8986
14.516	63.7794
14.6	63.5068
14.684	63.3441
14.768	63.3411
14.852	63.1442
14.936	62.888
15.02	62.9218
15.104	63.2075
15.188	63.4987
15.272	63.5476
15.356	63.3478
15.44	63.0873
15.524	62.8278
15.608	62.6274
15.692	62.587
15.776	62.7266
15.86	62.989
15.944	63.1982
16.028	63.2123
16.112	63.1297
16.196	63.1525
16.28	63.3395
16.364	63.5016
16.448	63.3848
16.532	63.0096
16.616	62.6247
16.7	62.3499
16.784	62.1423
16.868	62.0016
16.952	61.9563
17.036	61.9842
17.12	62.0525
17.204	62.1226
17.288	62.1388
17.372	62.0819
17.456	61.9865
17.54	61.9057
17.624	61.9087
17.708	62.0349
17.792	62.2059
17.876	62.279
17.96	62.1903
18.044	61.9717
18.128	61.6709
18.212	61.3587
18.296	61.1595
18.38	61.1712
18.464	61.3724
18.548	61.641
18.632	61.8466
18.716	61.9319
18.8	61.9349
18.884	61.9336
18.968	61.9276
19.052	61.7962
19.136	61.4592
19.22	61.0231
19.304	60.6946
19.388	60.58
19.472	60.6494
19.556	60.8443
19.64	61.1404
19.724	61.4955
19.808	61.7952
19.892	61.9151
19.976	61.814
20.06	61.5482
20.144	61.2037
20.228	60.8375
20.312	60.4838
20.396	60.1791
20.48	59.9712
20.564	59.8832
20.648	59.8897
20.732	59.9238
20.816	59.9166
20.9	59.8364
20.984	59.7204
21.068	59.6518
21.152	59.7123
21.236	59.9298
21.32	60.2435
21.404	60.5255
21.488	60.6139
21.572	60.395
21.656	59.8671
21.74	59.1662
21.824	58.5151
21.908	58.1018
21.992	57.9786
22.076	58.048
22.16	58.1222
22.244	58.0652
22.328	57.883
22.412	57.7203
22.496	57.7875
22.58	58.2146
22.664	58.9939
22.748	59.9691
22.832	60.92
22.916	61.6644
23	62.1418
23.084	62.386
23.168	62.4415
23.252	62.2989
23.336	61.9085
23.42	61.1926
23.504	60.2091
23.588	59.1496
23.672	58.2723
23.756	57.8631
23.84	58.0435
23.924	58.7477
24.008	59.83
24.092	61.1737
24.176	62.7007
24.26	64.294
24.344	65.685
24.428	66.5376
24.512	66.6323
24.596	65.9954
24.68	64.9739
24.764	64.1989
24.848	64.2358
24.932	65.686
25.016	69.0457
25.1	74.6446
25.184	82.2769
25.268	91.0962
25.352	99.8716
25.436	107.232
25.52	112.162
25.604	114.264
25.688	113.623
25.772	110.752
25.856	106.383
25.94	101.437
26.024	96.7952
26.108	93.0089
26.192	90.1255
26.276	87.5822
26.36	84.3295
26.444	79.2405
26.528	71.8209
26.612	62.4316
26.696	52.7702
26.78	45.5464
26.864	43.654
26.948	48.9915
27.028	60.6282