File: Bakgrunnsmateriale/MATLAB/FTIR/ftir_data/subBb/Mapping_121/C-4040-8_t40_cm-1.asc
PE IR       SPECTRUM    SPECTRUM    ASCII       PEDS        1.60
  -1
C-9B61~1.ASC
17/03/27
17:43:54.00
17/03/27
17:43:54.00
tln
$C-4040-8_t0040$<tbV0>[-2.6,-5.2,8.0,0.0,27,1,0]
370
64

2002,4.07
MIRTGS : RIGHTBACK : INTERNAL 2
MIR : ON : INTERNAL 2
OPTKBR

0.200000
8
8.000000
FILLER
RATIO
SPECTRUM
UNLOCKED 256

DOUBLE
64
COMBINED
1
0
0

1.000000
RATIO

1
0
TRUE
51149
0
LEFT NOT FITTED RIGHT NOT FITTED 0
NONE
NONE
15600
12
4.427000
51148
TRUE
1 0 8 72 0 0 0 0

15798

#HDR
-1
-1
#GR
CM-1
%T
2.38419e-05
0.0
5000
-1.000000
4631
8
67.031
0.731563
#DATA
5000	63.4793
4984	63.4781
4968	63.3488
4952	63.7884
4936	63.2123
4920	63.5003
4904	63.6137
4888	63.4654
4872	63.4205
4856	63.9723
4840	63.6317
4824	63.7797
4808	63.5578
4792	63.842
4776	63.3587
4760	63.8661
4744	63.6772
4728	63.6281
4712	63.6021
4696	63.5825
4680	63.4906
4664	63.8934
4648	63.1832
4632	63.6269
4616	63.7312
4600	63.6564
4584	63.2522
4568	63.203
4552	63.4619
4536	63.2319
4520	63.4692
4504	63.4838
4488	63.3845
4472	62.9317
4456	63.5606
4440	63.5524
4424	63.2508
4408	62.6905
4392	63.666
4376	65.2874
4360	63.2701
4344	64.7534
4328	64.1658
4312	63.4342
4296	63.2663
4280	62.956
4264	63.1612
4248	63.0074
4232	63.245
4216	63.0177
4200	62.6849
4184	62.9424
4168	62.6122
4152	62.8679
4136	63.0249
4120	62.5514
4104	62.5392
4088	62.6063
4072	62.5927
4056	62.326
4040	62.4703
4024	62.4703
4008	62.3593
3992	62.5497
3976	62.4152
3960	62.3131
3944	62.2185
3928	62.1959
3912	61.9063
3896	62.1886
3880	62.3763
3864	62.1629
3848	61.7041
3832	61.9419
3816	62.122
3800	61.9019
3784	61.7387
3768	61.9755
3752	61.8858
3736	61.7249
3720	61.5799
3704	61.5946
3688	61.6054
3672	61.4362
3656	61.1979
3640	61.3063
3624	61.2529
3608	61.198
3592	61.211
3576	60.991
3560	60.8911
3544	60.9644
3528	60.8517
3512	60.7379
3496	60.8619
3480	60.4136
3464	60.6247
3448	60.5067
3432	60.4072
3416	60.3209
3400	60.2468
3384	59.8683
3368	59.7987
3352	59.9758
3336	59.9173
3320	59.9032
3304	59.6912
3288	59.3606
3272	59.5488
3256	59.6891
3240	59.2529
3224	59.0821
3208	59.0105
3192	58.9371
3176	58.8714
3160	58.9515
3144	58.6766
3128	58.7647
3112	58.6137
3096	58.4788
3080	58.3129
3064	58.1901
3048	58.0123
3032	57.9707
3016	57.8916
3000	57.6708
2984	57.7297
2968	57.6003
2952	57.2919
2936	56.986
2920	56.8688
2904	56.9128
2888	56.8367
2872	56.5889
2856	56.356
2840	56.6259
2824	56.414
2808	56.2739
2792	56.1698
2776	55.9685
2760	55.8413
2744	55.759
2728	55.4888
2712	55.36
2696	55.3759
2680	55.0788
2664	54.9763
2648	54.792
2632	54.7184
2616	54.4011
2600	54.4416
2584	54.2388
2568	54.0975
2552	54.1105
2536	53.9001
2520	53.7694
2504	53.431
2488	53.4451
2472	53.1958
2456	52.9973
2440	52.8144
2424	52.6847
2408	52.5301
2392	52.3159
2376	52.206
2360	52.0355
2344	51.8791
2328	51.7074
2312	51.4909
2296	51.4287
2280	51.2506
2264	50.9894
2248	50.8001
2232	50.6908
2216	50.5323
2200	50.3706
2184	50.2215
2168	50.0338
2152	49.773
2136	49.731
2120	49.3938
2104	49.2227
2088	49.2243
2072	48.9969
2056	48.708
2040	48.4844
2024	48.3457
2008	48.3015
1992	48.0524
1976	47.823
1960	47.5813
1944	47.3365
1928	47.2419
1912	47.14
1896	46.8394
1880	46.6784
1864	46.4782
1848	46.2011
1832	46.0963
1816	45.9247
1800	45.6492
1784	45.6698
1768	45.2685
1752	45.2104
1736	44.8107
1720	44.6903
1704	44.6406
1688	44.3744
1672	44.1979
1656	44.0098
1640	43.806
1624	43.591
1608	43.3218
1592	43.2083
1576	42.9461
1560	42.7473
1544	42.554
1528	42.3574
1512	42.1379
1496	41.993
1480	41.8115
1464	41.4515
1448	41.4237
1432	41.1837
1416	41.0866
1400	40.7257
1384	40.6893
1368	40.3002
1352	40.1715
1336	39.9497
1320	39.749
1304	39.6643
1288	39.4411
1272	39.1975
1256	39.1239
1240	38.86
1224	38.5614
1208	38.4147
1192	38.3987
1176	38.0766
1160	37.5158
1144	37.4722
1128	37.2473
1112	37.3225
1096	37.1054
1080	36.9225
1064	36.2227
1048	36.3447
1032	36.029
1016	35.9405
1000	35.3686
984	 35.4968
968	 35.0687
952	 35.0491
936	 34.5928
920	 34.406
904	 34.3327
888	 33.8875
872	 33.7117
856	 33.3577
840	 33.0826
824	 32.5781
808	 32.6708
792	 32.0271
776	 31.9656
760	 31.5994
744	 31.137
728	 30.9112
712	 30.5372
696	 29.7847
680	 29.6569
664	 29.0978
648	 28.5492
632	 28.3758
616	 27.9358
600	 27.5283
584	 26.6026
568	 26.3217
552	 25.8784
536	 24.9009
520	 25.1349
504	 23.7442
488	 22.8188
472	 22.1741
456	 21.4315
440	 19.6041
424	 19.3537
408	 14.5714
392	 29.8716
376	 42.3441
370	 33.5709