File: Bakgrunnsmateriale/MATLAB/FTIR/ftir_data/subBb/Mapping_121/C-4040-8_t58_cm-1.asc
PE IR       SPECTRUM    SPECTRUM    ASCII       PEDS        1.60
  -1
C-1C65~1.ASC
17/03/27
19:14:32.00
17/03/27
19:14:32.00
tln
$C-4040-8_t0058$<tbV0>[7.8,0.0,8.0,0.0,27,1,0]
370
64

2002,4.07
MIRTGS : RIGHTBACK : INTERNAL 2
MIR : ON : INTERNAL 2
OPTKBR

0.200000
8
8.000000
FILLER
RATIO
SPECTRUM
UNLOCKED 256

DOUBLE
64
COMBINED
1
0
0

1.000000
RATIO

1
0
TRUE
51149
0
LEFT NOT FITTED RIGHT NOT FITTED 0
NONE
NONE
15600
12
4.427000
51148
TRUE
1 0 8 72 0 0 0 0

15798

#HDR
-1
-1
#GR
CM-1
%T
2.38419e-05
0.0
5000
-1.000000
4631
8
73.5169
29.2659
#DATA
5000	65.1107
4984	65.491
4968	64.9515
4952	65.1582
4936	65.42
4920	65.1354
4904	64.9467
4888	64.1095
4872	63.5783
4856	64.7718
4840	64.9116
4824	64.9723
4808	64.8507
4792	64.8368
4776	65.2948
4760	64.8604
4744	64.6662
4728	64.6064
4712	65.1499
4696	64.5543
4680	64.9206
4664	64.5655
4648	64.9466
4632	64.5476
4616	64.6842
4600	65.1616
4584	64.852
4568	64.4967
4552	64.168
4536	64.8056
4520	65.4547
4504	64.9868
4488	64.9104
4472	65.3296
4456	65.8751
4440	65.2615
4424	65.6081
4408	65.6029
4392	65.5018
4376	64.1858
4360	51.7384
4344	65.7994
4328	66.3364
4312	65.6054
4296	65.8135
4280	65.7001
4264	65.3306
4248	64.8905
4232	64.8047
4216	65.1517
4200	64.8957
4184	64.8822
4168	65.5672
4152	65.1303
4136	65.322
4120	64.9486
4104	64.9975
4088	65.1534
4072	65.1172
4056	65.1375
4040	65.2309
4024	64.9277
4008	65.0412
3992	65.2005
3976	65.0496
3960	65.0507
3944	65.2649
3928	64.8223
3912	65.172
3896	65.1958
3880	65.0913
3864	65.1464
3848	65.1342
3832	65.0671
3816	64.9817
3800	65.2914
3784	65.3336
3768	65.1763
3752	65.0999
3736	65.0529
3720	65.2583
3704	65.0326
3688	65.2657
3672	65.1711
3656	65.1007
3640	65.1867
3624	65.2218
3608	65.1736
3592	64.9757
3576	65.4395
3560	65.0448
3544	65.2727
3528	65.1152
3512	65.262
3496	65.2431
3480	65.1676
3464	65.2425
3448	65.2747
3432	65.3669
3416	65.2124
3400	65.2845
3384	65.2313
3368	65.1439
3352	65.1675
3336	65.254
3320	65.2949
3304	65.1974
3288	64.9511
3272	65.0369
3256	65.4089
3240	65.1314
3224	65.3133
3208	64.9262
3192	65.2363
3176	65.3421
3160	65.1659
3144	64.8372
3128	65.4515
3112	64.9711
3096	65.1527
3080	65.1123
3064	65.2922
3048	65.3593
3032	65.0765
3016	65.1558
3000	65.1744
2984	65.0414
2968	65.1715
2952	65.2503
2936	64.9857
2920	65.0126
2904	65.1765
2888	65.1172
2872	65.1605
2856	64.9906
2840	64.9182
2824	65.0635
2808	65.2407
2792	64.9947
2776	65.2186
2760	65.3198
2744	65.2197
2728	65.2722
2712	65.1315
2696	65.2135
2680	65.1995
2664	65.2245
2648	65.244
2632	65.338
2616	65.2771
2600	65.2734
2584	65.3135
2568	65.216
2552	65.4607
2536	65.2597
2520	65.2658
2504	65.17
2488	65.1349
2472	65.2235
2456	65.3506
2440	65.4397
2424	65.4873
2408	65.0999
2392	65.3105
2376	65.2572
2360	65.2883
2344	65.2448
2328	65.3876
2312	65.2422
2296	65.3704
2280	65.1421
2264	65.2946
2248	65.4858
2232	65.403
2216	65.343
2200	65.3336
2184	65.2296
2168	65.0709
2152	65.3064
2136	65.2322
2120	65.2851
2104	65.3807
2088	65.3561
2072	65.3228
2056	65.1728
2040	65.2047
2024	65.4032
2008	65.3023
1992	65.2613
1976	65.2814
1960	65.2983
1944	65.2356
1928	65.3203
1912	65.3488
1896	65.2682
1880	65.358
1864	65.2399
1848	65.1595
1832	65.3858
1816	65.2679
1800	65.1794
1784	65.2818
1768	65.3009
1752	65.2562
1736	65.0677
1720	64.8816
1704	65.1042
1688	65.2435
1672	65.3483
1656	65.1218
1640	65.1298
1624	65.1362
1608	65.0263
1592	65.1047
1576	65.0363
1560	65.046
1544	65.0613
1528	64.9181
1512	65.0744
1496	65.1009
1480	65.0836
1464	65.0543
1448	64.7672
1432	64.9939
1416	65.1506
1400	65.1343
1384	65.1095
1368	64.8985
1352	65.0469
1336	65.0345
1320	65.0692
1304	64.9414
1288	64.9434
1272	64.7354
1256	64.8932
1240	65.0048
1224	64.7963
1208	64.9045
1192	64.8242
1176	64.7138
1160	64.9725
1144	65.0754
1128	64.5499
1112	64.5749
1096	64.8143
1080	64.825
1064	64.7209
1048	64.3823
1032	64.2756
1016	64.193
1000	64.601
984	 64.442
968	 64.233
952	 64.4886
936	 64.3142
920	 64.3476
904	 64.4078
888	 64.1848
872	 64.3764
856	 64.1394
840	 64.0793
824	 64.083
808	 63.9421
792	 63.6907
776	 63.6611
760	 63.2045
744	 63.9361
728	 62.8777
712	 63.3872
696	 63.5407
680	 62.577
664	 62.3663
648	 62.6271
632	 62.0773
616	 62.0919
600	 62.35
584	 61.2104
568	 60.8576
552	 61.1834
536	 61.4017
520	 60.1296
504	 60.3893
488	 59.4589
472	 57.7635
456	 57.1923
440	 53.7413
424	 58.6749
408	 58.4723
392	 73.5169
376	 31.5459
370	 41.3785