File: Bakgrunnsmateriale/MATLAB/FTIR/ftir_data/subBb/Mapping_121/C-4040-8_t120.asc
PE IR       SPECTRUM    SPECTRUM    ASCII       PEDS        1.60
  -1
C-8CB2~1.ASC
17/03/28
00:35:47.00
17/03/28
00:36:14.00
tln
$C-4040-8_t0120$<tbV0>[-10.4,13.0,8.0,0.0,27,1,0]
27.028
64

2002,4.07
MIRTGS : RIGHTBACK : INTERNAL 2
MIR : ON : INTERNAL 2
OPTKBR

0.200000
8
8.000000
FILLER
RATIO
SPECTRUM
UNLOCKED 256

DOUBLE
64
COMBINED
1
0
0

0.002000
RATIO

1
0
TRUE
51149
0
LEFT NOT FITTED RIGHT NOT FITTED 0
NONE
NONE
15600
12
4.427000
51148
TRUE
1 0 8 72 0 0 0 0

15798

#HDR
-1
-1
#GR
µM
%T
2.38419e-05
0.0
2.000000
0.002000
12515
8
70.9835
13.135
#DATA
2.000000	 64.4855
2.084000	 64.481
2.168000	 64.5799
2.252000	 64.6371
2.336000	 64.9218
2.420000	 64.9747
2.504000	 64.9304
2.588000	 64.9805
2.672000	 65.1019
2.756000	 64.993
2.840000	 65.1672
2.924000	 65.0545
3.008000	 64.7057
3.092000	 64.9448
3.176000	 65.0323
3.260000	 65.0329
3.344000	 65.266
3.428000	 64.7059
3.512000	 64.8887
3.596000	 65.0963
3.680000	 64.9845
3.764000	 65.0468
3.848000	 65.0969
3.932000	 65.2128
4.016000	 65.0984
4.100000	 65.0396
4.184000	 65.1959
4.268000	 65.1214
4.352000	 65.0611
4.436000	 65.0743
4.520000	 65.2068
4.604000	 65.2123
4.688000	 64.9023
4.772000	 65.1907
4.856000	 65.1165
4.940000	 65.2466
5.024000	 65.0976
5.108000	 65.0947
5.192000	 65.0717
5.276000	 64.9363
5.359999	 65.0482
5.444000	 64.929
5.528000	 64.8912
5.612000	 65.0845
5.696000	 64.9256
5.780000	 64.6001
5.864000	 65.214
5.948000	 64.8809
6.032000	 64.9193
6.116000	 65.0128
6.200000	 64.9232
6.284000	 64.8581
6.368000	 64.8591
6.452000	 64.8878
6.536000	 64.9849
6.620000	 64.929
6.704000	 64.927
6.788000	 64.9403
6.872000	 65.0828
6.956000	 64.9548
7.040000	 64.916
7.124000	 64.7895
7.208000	 64.7385
7.292000	 64.7339
7.376000	 64.816
7.460000	 64.6893
7.544000	 64.8587
7.628000	 64.7287
7.712000	 64.6479
7.796000	 64.8336
7.880000	 64.6494
7.964000	 64.7504
8.048000	 64.67
8.132000	 64.6973
8.216000	 64.6151
8.300000	 64.5588
8.384000	 64.6316
8.468000	 64.7089
8.552000	 64.5821
8.635999	 64.5259
8.719999	 64.4499
8.804000	 64.5212
8.888000	 64.2921
8.972000	 64.7144
9.056000	 64.8999
9.140000	 64.3229
9.224000	 64.536
9.308000	 64.6099
9.391999	 64.6452
9.475999	 64.4351
9.560000	 64.7179
9.644000	 64.5968
9.728000	 64.2768
9.812000	 63.985
9.896000	 64.0952
9.980000	 64.5183
10.064	64.2448
10.148	64.2865
10.232	64.3952
10.316	64.3111
10.4	64.3199
10.484	64.1402
10.568	64.1751
10.652	64.351
10.736	64.1643
10.82	64.1098
10.904	64.1181
10.988	64.4643
11.072	64.601
11.156	64.288
11.24	63.9916
11.324	63.8513
11.408	63.8577
11.492	63.7325
11.576	63.3896
11.66	63.1816
11.744	63.1082
11.828	63.4333
11.912	64.0304
11.996	63.7861
12.08	63.6028
12.164	63.5104
12.248	64.2231
12.332	63.914
12.416	63.6313
12.5	63.711
12.584	64.0387
12.668	63.6757
12.752	63.1266
12.836	63.2419
12.92	63.2142
13.004	63.3352
13.088	63.2173
13.172	63.1988
13.256	63.4279
13.34	63.4882
13.424	63.4653
13.508	63.7338
13.592	63.6626
13.676	63.1627
13.76	63.0151
13.844	63.2084
13.928	63.0093
14.012	62.5204
14.096	62.2473
14.18	62.2851
14.264	62.5474
14.348	62.6807
14.432	62.7289
14.516	62.91
14.6	62.7708
14.684	62.4224
14.768	62.3262
14.852	62.4727
14.936	62.7898
15.02	62.8416
15.104	62.4562
15.188	62.2114
15.272	62.3667
15.356	62.5654
15.44	62.5089
15.524	62.3642
15.608	62.4729
15.692	62.696
15.776	62.6076
15.86	62.2988
15.944	62.1776
16.028	62.2195
16.112	62.1567
16.196	62.0095
16.28	61.9354
16.364	61.9289
16.448	61.9029
16.532	61.773
16.616	61.5287
16.7	61.3078
16.784	61.254
16.868	61.338
16.952	61.42
17.036	61.3954
17.12	61.3
17.204	61.2686
17.288	61.2745
17.372	61.1515
17.456	60.9383
17.54	60.8843
17.624	61.0518
17.708	61.26
17.792	61.4025
17.876	61.5145
17.96	61.6251
18.044	61.711
18.128	61.7144
18.212	61.6086
18.296	61.4789
18.38	61.4638
18.464	61.5677
18.548	61.621
18.632	61.4993
18.716	61.271
18.8	61.0744
18.884	60.9605
18.968	60.9059
19.052	60.9033
19.136	60.9552
19.22	61.0063
19.304	60.946
19.388	60.7071
19.472	60.3356
19.556	59.9528
19.64	59.6614
19.724	59.4767
19.808	59.3408
19.892	59.1869
19.976	59.0011
20.06	58.8369
20.144	58.7715
20.228	58.834
20.312	58.9571
20.396	59.0223
20.48	58.9705
20.564	58.8698
20.648	58.8609
20.732	59.0294
20.816	59.3265
20.9	59.6083
20.984	59.743
21.068	59.6917
21.152	59.5093
21.236	59.2942
21.32	59.1423
21.404	59.1204
21.488	59.2526
21.572	59.5127
21.656	59.8203
21.74	60.0679
21.824	60.1764
21.908	60.1296
21.992	59.9567
22.076	59.699
22.16	59.391
22.244	59.0736
22.328	58.8018
22.412	58.6208
22.496	58.5257
22.58	58.4666
22.664	58.3974
22.748	58.3264
22.832	58.3196
22.916	58.4589
23	58.7298
23.084	59.0264
23.168	59.157
23.252	58.9494
23.336	58.353
23.42	57.5731
23.504	56.8986
23.588	56.5625
23.672	56.6373
23.756	56.9915
23.84	57.3825
23.924	57.5905
24.008	57.5435
24.092	57.3409
24.176	57.1762
24.26	57.2283
24.344	57.6511
24.428	58.5967
24.512	60.3106
24.596	63.0065
24.68	66.4281
24.764	69.5851
24.848	70.9835
24.932	69.2485
25.016	64.0058
25.1	56.1287
25.184	47.5345
25.268	40.3591
25.352	36.1154
25.436	35.3684
25.52	37.617
25.604	41.7597
25.688	46.2712
25.772	49.7052
25.856	51.1517
25.94	50.3581
26.024	47.8157
26.108	44.5708
26.192	41.8811
26.276	40.7283
26.36	41.5534
26.444	43.9116
26.528	46.58
26.612	48.0329
26.696	46.8173
26.78	42.0621
26.864	33.859
26.948	23.3657
27.028	13.135