File: Bakgrunnsmateriale/MATLAB/FTIR/ftir_data/subBb/Mapping_121/C-4040-8_t65_cm-1.asc
PE IR       SPECTRUM    SPECTRUM    ASCII       PEDS        1.60
  -1
C-9CEE~1.ASC
17/03/27
19:46:50.00
17/03/27
19:46:50.00
tln
$C-4040-8_t0065$<tbV0>[-10.4,0.0,8.0,0.0,27,1,0]
370
64

2002,4.07
MIRTGS : RIGHTBACK : INTERNAL 2
MIR : ON : INTERNAL 2
OPTKBR

0.200000
8
8.000000
FILLER
RATIO
SPECTRUM
UNLOCKED 256

DOUBLE
64
COMBINED
1
0
0

1.000000
RATIO

1
0
TRUE
51149
0
LEFT NOT FITTED RIGHT NOT FITTED 0
NONE
NONE
15600
12
4.427000
51148
TRUE
1 0 8 72 0 0 0 0

15798

#HDR
-1
-1
#GR
CM-1
%T
2.38419e-05
0.0
5000
-1.000000
4631
8
90.842
37.8965
#DATA
5000	64.7607
4984	64.9109
4968	65.4429
4952	64.4795
4936	65.0553
4920	64.8143
4904	65.3592
4888	64.0174
4872	65.5042
4856	64.4498
4840	64.6983
4824	64.7908
4808	64.7945
4792	64.5477
4776	64.793
4760	64.457
4744	64.6663
4728	64.3457
4712	64.8023
4696	64.5076
4680	64.5331
4664	64.7657
4648	64.8282
4632	64.6993
4616	64.6054
4600	64.943
4584	64.9856
4568	64.7323
4552	64.426
4536	64.9308
4520	64.9861
4504	65.1839
4488	65.172
4472	65.0342
4456	65.2693
4440	65.1509
4424	65.2949
4408	64.8518
4392	63.8361
4376	63.2003
4360	60.8074
4344	65.4552
4328	65.3195
4312	65.1845
4296	65.0019
4280	65.7877
4264	64.991
4248	64.8825
4232	65.0212
4216	65.1043
4200	64.7932
4184	64.7398
4168	65.1709
4152	64.9333
4136	65.0908
4120	64.6412
4104	64.7718
4088	65.148
4072	65.3236
4056	64.972
4040	64.7915
4024	64.8241
4008	65.1548
3992	64.9207
3976	64.7506
3960	64.9389
3944	65.1001
3928	64.8011
3912	64.9197
3896	65.1305
3880	64.9664
3864	65.0797
3848	64.9934
3832	64.9278
3816	65.1808
3800	65.0767
3784	65.3461
3768	65.1898
3752	65.0028
3736	64.9982
3720	65.1414
3704	64.9053
3688	65.1729
3672	65.2267
3656	65.1379
3640	64.8704
3624	64.8439
3608	64.927
3592	64.8546
3576	65.1719
3560	64.8842
3544	64.8993
3528	64.9146
3512	65.0443
3496	64.8885
3480	65.2338
3464	65.1686
3448	65.258
3432	65.142
3416	65.2306
3400	65.1989
3384	65.3341
3368	65.3016
3352	65.0759
3336	65.0348
3320	65.1531
3304	65.1748
3288	65.0084
3272	65.145
3256	65.264
3240	65.0831
3224	65.0654
3208	65.138
3192	64.9955
3176	65.2928
3160	65.2204
3144	65.0499
3128	65.1834
3112	64.988
3096	65.3281
3080	65.0167
3064	65.2268
3048	65.1882
3032	65.2105
3016	65.2
3000	64.8606
2984	65.061
2968	65.3192
2952	65.0309
2936	65.0846
2920	64.7556
2904	65.014
2888	65.1424
2872	65.1277
2856	65.0288
2840	65.1492
2824	65.1641
2808	65.2282
2792	65.0572
2776	65.1262
2760	64.9688
2744	65.1072
2728	65.148
2712	65.1057
2696	64.982
2680	65.2072
2664	65.2047
2648	65.0883
2632	65.1639
2616	65.2529
2600	65.2242
2584	65.1354
2568	65.1338
2552	65.2574
2536	65.1166
2520	65.2823
2504	64.937
2488	65.12
2472	65.1783
2456	65.2026
2440	65.1666
2424	65.3318
2408	64.9076
2392	65.1929
2376	65.0944
2360	65.1824
2344	65.1311
2328	65.3443
2312	65.1702
2296	65.2518
2280	65.1479
2264	65.153
2248	65.3551
2232	65.3164
2216	65.281
2200	65.1768
2184	65.0693
2168	65.2171
2152	65.32
2136	65.2291
2120	65.282
2104	65.1216
2088	65.2603
2072	65.1649
2056	65.0465
2040	65.1121
2024	65.2882
2008	65.1437
1992	65.3022
1976	65.2926
1960	65.1405
1944	65.1795
1928	65.2209
1912	65.2441
1896	65.2416
1880	65.2377
1864	65.0671
1848	65.2985
1832	65.2766
1816	65.309
1800	65.1176
1784	65.1059
1768	65.2091
1752	65.1359
1736	64.885
1720	65.1472
1704	65.1221
1688	65.138
1672	65.1873
1656	65.0012
1640	65.026
1624	65.0632
1608	64.9292
1592	64.9473
1576	65.031
1560	64.8704
1544	64.8647
1528	64.8876
1512	65.103
1496	65.1561
1480	65.0859
1464	65.0496
1448	64.961
1432	64.9588
1416	65.0491
1400	65.1038
1384	65.1193
1368	65.0122
1352	65.14
1336	64.9575
1320	64.9042
1304	65.0938
1288	64.9933
1272	64.9262
1256	64.968
1240	64.8872
1224	64.8445
1208	65.026
1192	64.7925
1176	64.8601
1160	65.0247
1144	64.8752
1128	64.8389
1112	64.7356
1096	64.5617
1080	65.0292
1064	64.7856
1048	64.8295
1032	64.9024
1016	64.2825
1000	64.9599
984	 64.5084
968	 64.1022
952	 65.1098
936	 64.6535
920	 64.8786
904	 64.6429
888	 64.4305
872	 64.4674
856	 64.4635
840	 64.1938
824	 64.3343
808	 64.3778
792	 63.9673
776	 64.4542
760	 64.3637
744	 64.0518
728	 63.6405
712	 63.5362
696	 64.013
680	 62.9967
664	 63.1905
648	 62.8838
632	 62.9063
616	 63.3067
600	 63.011
584	 62.4581
568	 62.407
552	 62.7503
536	 61.7234
520	 61.5241
504	 61.6794
488	 60.853
472	 59.8096
456	 60.5256
440	 60.3569
424	 60.9077
408	 67.6795
392	 66.0553
376	 52.836
370	 49.8614