File: Bakgrunnsmateriale/MATLAB/FTIR/ftir_data/subBb/Mapping_121/C-4040-8_t39.asc
PE IR       SPECTRUM    SPECTRUM    ASCII       PEDS        1.60
  -1
C-C13E~1.ASC
17/03/27
17:39:17.00
17/03/27
17:39:43.00
tln
$C-4040-8_t0039$<tbV0>[0.0,-5.2,8.0,0.0,27,1,0]
27.028
64

2002,4.07
MIRTGS : RIGHTBACK : INTERNAL 2
MIR : ON : INTERNAL 2
OPTKBR

0.200000
8
8.000000
FILLER
RATIO
SPECTRUM
UNLOCKED 256

DOUBLE
64
COMBINED
1
0
0

0.002000
RATIO

1
0
TRUE
51149
0
LEFT NOT FITTED RIGHT NOT FITTED 0
NONE
NONE
15600
12
4.427000
51148
TRUE
1 0 8 72 0 0 0 0

15798

#HDR
-1
-1
#GR
µM
%T
2.38419e-05
0.0
2.000000
0.002000
12515
8
70.5129
9.921579
#DATA
2.000000	 63.7665
2.084000	 63.199
2.168000	 63.4209
2.252000	 62.6509
2.336000	 62.5597
2.420000	 62.5588
2.504000	 62.2187
2.588000	 61.6938
2.672000	 61.5462
2.756000	 61.0251
2.840000	 60.5419
2.924000	 59.9217
3.008000	 59.2698
3.092000	 58.7598
3.176000	 58.232
3.260000	 57.6408
3.344000	 57.0888
3.428000	 55.9808
3.512000	 55.6849
3.596000	 55.3629
3.680000	 54.6867
3.764000	 54.1773
3.848000	 53.6029
3.932000	 53.1715
4.016000	 52.3246
4.100000	 51.9043
4.184000	 51.5426
4.268000	 50.8889
4.352000	 50.2297
4.436000	 49.7651
4.520000	 49.4624
4.604000	 48.9851
4.688000	 48.6089
4.772000	 47.9385
4.856000	 47.4334
4.940000	 47.1813
5.024000	 46.781
5.108000	 46.3739
5.192000	 45.9767
5.276000	 45.4983
5.359999	 45.2828
5.444000	 45.0226
5.528000	 44.4879
5.612000	 44.1626
5.696000	 43.7959
5.780000	 43.2783
5.864000	 43.2524
5.948000	 42.8122
6.032000	 42.5789
6.116000	 42.3682
6.200000	 41.9367
6.284000	 41.6218
6.368000	 41.3355
6.452000	 41.1339
6.536000	 40.8819
6.620000	 40.6602
6.704000	 40.4905
6.788000	 40.0184
6.872000	 40.1231
6.956000	 39.7574
7.040000	 39.5115
7.124000	 39.2379
7.208000	 39.0621
7.292000	 38.7116
7.376000	 38.7526
7.460000	 38.446
7.544000	 38.387
7.628000	 38.0111
7.712000	 37.8305
7.796000	 37.7227
7.880000	 37.5951
7.964000	 37.3638
8.048000	 37.1771
8.132000	 37.1026
8.216000	 36.8252
8.300000	 36.4371
8.384000	 36.6732
8.468000	 36.3728
8.552000	 36.2135
8.635999	 36.0158
8.719999	 35.7913
8.804000	 35.6438
8.888000	 35.8577
8.972000	 35.1691
9.056000	 35.7996
9.140000	 35.2488
9.224000	 35.1466
9.308000	 34.6331
9.391999	 34.5435
9.475999	 34.6402
9.560000	 34.4179
9.644000	 34.4042
9.728000	 34.3298
9.812000	 34.3858
9.896000	 33.614
9.980000	 33.5082
10.064	33.7118
10.148	33.6424
10.232	33.5429
10.316	33.4348
10.4	33.0946
10.484	33.032
10.568	33.1065
10.652	32.8358
10.736	32.8273
10.82	32.795
10.904	32.4506
10.988	32.357
11.072	32.3619
11.156	32.1663
11.24	32.089
11.324	32.0383
11.408	31.8922
11.492	31.6043
11.576	31.7311
11.66	31.6719
11.744	31.4008
11.828	31.1768
11.912	31.0139
11.996	31.1138
12.08	30.9749
12.164	30.6584
12.248	30.736
12.332	30.6774
12.416	30.6549
12.5	30.4325
12.584	30.3617
12.668	30.2496
12.752	30.1911
12.836	30.0162
12.92	29.7862
13.004	29.6425
13.088	29.6209
13.172	29.6157
13.256	29.4194
13.34	29.322
13.424	29.437
13.508	29.2783
13.592	28.9737
13.676	28.7898
13.76	28.5425
13.844	28.4453
13.928	28.3796
14.012	28.235
14.096	28.1376
14.18	28.2546
14.264	28.2943
14.348	27.9583
14.432	27.6072
14.516	27.5
14.6	27.444
14.684	27.2888
14.768	27.1195
14.852	27.0944
14.936	27.1238
15.02	27.0567
15.104	26.9433
15.188	26.7515
15.272	26.5297
15.356	26.4478
15.44	26.4364
15.524	26.3722
15.608	26.3163
15.692	26.3611
15.776	26.3824
15.86	26.2474
15.944	26.1509
16.028	26.2037
16.112	26.1407
16.196	25.83
16.28	25.4919
16.364	25.3507
16.448	25.4468
16.532	25.6521
16.616	25.7801
16.7	25.7136
16.784	25.4389
16.868	25.0926
16.952	24.9092
17.036	24.9543
17.12	25.0513
17.204	25.0524
17.288	24.9558
17.372	24.7818
17.456	24.5457
17.54	24.3086
17.624	24.1209
17.708	23.9794
17.792	23.903
17.876	23.9437
17.96	24.0769
18.044	24.1667
18.128	24.0863
18.212	23.8432
18.296	23.5565
18.38	23.3387
18.464	23.2366
18.548	23.2329
18.632	23.247
18.716	23.1643
18.8	22.9132
18.884	22.5349
18.968	22.1666
19.052	21.9454
19.136	21.9129
19.22	21.9993
19.304	22.0821
19.388	22.082
19.472	22.0034
19.556	21.9053
19.64	21.8361
19.724	21.8031
19.808	21.7816
19.892	21.736
19.976	21.6423
20.06	21.5141
20.144	21.4151
20.228	21.4299
20.312	21.5905
20.396	21.821
20.48	21.9609
20.564	21.8664
20.648	21.5223
20.732	21.0541
20.816	20.6374
20.9	20.3814
20.984	20.2773
21.068	20.2364
21.152	20.1637
21.236	20.01
21.32	19.7845
21.404	19.5336
21.488	19.3164
21.572	19.1719
21.656	19.0947
21.74	19.0343
21.824	18.9276
21.908	18.7435
21.992	18.5103
22.076	18.302
22.16	18.1923
22.244	18.2067
22.328	18.3194
22.412	18.4729
22.496	18.5996
22.58	18.6411
22.664	18.5502
22.748	18.3046
22.832	17.931
22.916	17.5123
23	17.146
23.084	16.897
23.168	16.7481
23.252	16.6112
23.336	16.3919
23.42	16.0636
23.504	15.6966
23.588	15.4293
23.672	15.3686
23.756	15.5029
23.84	15.7168
23.924	15.8292
24.008	15.6983
24.092	15.312
24.176	14.8105
24.26	14.404
24.344	14.285
24.428	14.5389
24.512	15.139
24.596	16.0359
24.68	17.1393
24.764	18.2899
24.848	19.3578
24.932	20.2651
25.016	20.9792
25.1	21.4754
25.184	21.6049
25.268	21.0985
25.352	19.6565
25.436	17.3131
25.52	14.5198
25.604	11.9343
25.688	10.2766
25.772	9.979323
25.856	11.0133
25.94	12.8036
26.024	14.6311
26.108	16.1377
26.192	17.5035
26.276	19.3409
26.36	22.3672
26.444	27.0298
26.528	33.2026
26.612	40.2822
26.696	47.1901
26.78	52.6701
26.864	55.6207
26.948	55.3973
27.028	52.3703