File: Bakgrunnsmateriale/MATLAB/FTIR/ftir_data/subBb/Mapping_121/C-4040-8_t66.asc
PE IR       SPECTRUM    SPECTRUM    ASCII       PEDS        1.60
  -1
C-BD32~1.ASC
17/03/27
19:51:26.00
17/03/27
19:51:53.00
tln
$C-4040-8_t0066$<tbV0>[-13.0,0.0,8.0,0.0,27,1,0]
27.028
64

2002,4.07
MIRTGS : RIGHTBACK : INTERNAL 2
MIR : ON : INTERNAL 2
OPTKBR

0.200000
8
8.000000
FILLER
RATIO
SPECTRUM
UNLOCKED 256

DOUBLE
64
COMBINED
1
0
0

0.002000
RATIO

1
0
TRUE
51149
0
LEFT NOT FITTED RIGHT NOT FITTED 0
NONE
NONE
15600
12
4.427000
51148
TRUE
1 0 8 72 0 0 0 0

15798

#HDR
-1
-1
#GR
µM
%T
2.38419e-05
0.0
2.000000
0.002000
12515
8
91.9088
43.3743
#DATA
2.000000	 64.4802
2.084000	 64.8986
2.168000	 64.4464
2.252000	 66.6022
2.336000	 65.9844
2.420000	 64.8959
2.504000	 64.8268
2.588000	 65.1761
2.672000	 65.2029
2.756000	 64.7606
2.840000	 64.9653
2.924000	 65.1407
3.008000	 65.2288
3.092000	 64.8631
3.176000	 65.1097
3.260000	 65.2158
3.344000	 65.0784
3.428000	 64.8343
3.512000	 65.0603
3.596000	 64.9934
3.680000	 65.1315
3.764000	 65.1804
3.848000	 65.209
3.932000	 65.19
4.016000	 65.141
4.100000	 65.389
4.184000	 65.3322
4.268000	 65.2524
4.352000	 65.2377
4.436000	 65.3004
4.520000	 65.1866
4.604000	 65.2664
4.688000	 65.3316
4.772000	 65.2198
4.856000	 65.491
4.940000	 65.2381
5.024000	 65.1524
5.108000	 65.2577
5.192000	 65.2507
5.276000	 65.3135
5.359999	 65.1423
5.444000	 65.2313
5.528000	 65.1909
5.612000	 65.1608
5.696000	 65.171
5.780000	 64.9825
5.864000	 65.2807
5.948000	 65.2372
6.032000	 65.0494
6.116000	 65.012
6.200000	 65.1555
6.284000	 64.9928
6.368000	 65.0791
6.452000	 64.9466
6.536000	 65.0327
6.620000	 65.0107
6.704000	 65.1545
6.788000	 64.966
6.872000	 64.723
6.956000	 64.8868
7.040000	 65.1144
7.124000	 65.0634
7.208000	 64.9017
7.292000	 64.8999
7.376000	 64.9557
7.460000	 64.9632
7.544000	 65.1598
7.628000	 64.9161
7.712000	 65.0834
7.796000	 65.0964
7.880000	 64.8652
7.964000	 65.0681
8.048000	 65.0311
8.132000	 64.9351
8.216000	 64.8106
8.300000	 65.003
8.384000	 64.9297
8.468000	 64.9107
8.552000	 64.8952
8.635999	 65.0586
8.719999	 65.0025
8.804000	 64.7882
8.888000	 64.906
8.972000	 64.907
9.056000	 64.7178
9.140000	 64.387
9.224000	 65.0182
9.308000	 64.9911
9.391999	 65.0213
9.475999	 64.893
9.560000	 64.6176
9.644000	 64.6975
9.728000	 64.8669
9.812000	 64.5537
9.896000	 65.1393
9.980000	 64.3735
10.064	64.5259
10.148	64.7723
10.232	64.895
10.316	64.5233
10.4	64.5701
10.484	64.7935
10.568	64.7918
10.652	64.4461
10.736	64.6634
10.82	64.7979
10.904	64.6745
10.988	64.7123
11.072	64.6151
11.156	64.439
11.24	64.6319
11.324	64.8945
11.408	64.6367
11.492	64.263
11.576	64.2891
11.66	64.4236
11.744	64.4641
11.828	64.5968
11.912	64.2711
11.996	64.2086
12.08	64.5008
12.164	64.6087
12.248	64.2704
12.332	64.4691
12.416	64.6799
12.5	64.5057
12.584	64.1793
12.668	63.9677
12.752	63.9536
12.836	63.9191
12.92	64.133
13.004	64.2622
13.088	64.1562
13.172	63.8459
13.256	63.6534
13.34	64.1434
13.424	64.5085
13.508	64.3038
13.592	64.0161
13.676	63.8556
13.76	63.7514
13.844	63.7629
13.928	64.0762
14.012	64.1183
14.096	63.807
14.18	63.8139
14.264	64.009
14.348	64.1453
14.432	64.2358
14.516	64.1635
14.6	63.785
14.684	63.3053
14.768	63.1183
14.852	63.2579
14.936	63.4288
15.02	63.4957
15.104	63.492
15.188	63.5087
15.272	63.5637
15.356	63.4659
15.44	63.1399
15.524	62.8158
15.608	62.7688
15.692	63.0191
15.776	63.3156
15.86	63.3569
15.944	63.1626
16.028	63.077
16.112	63.2439
16.196	63.4814
16.28	63.6012
16.364	63.5407
16.448	63.4597
16.532	63.5626
16.616	63.6698
16.7	63.459
16.784	63.0605
16.868	62.7952
16.952	62.6374
17.036	62.4758
17.12	62.4772
17.204	62.7563
17.288	63.0564
17.372	63.0856
17.456	62.8922
17.54	62.7207
17.624	62.722
17.708	62.8525
17.792	62.9747
17.876	63.0099
17.96	62.9834
18.044	62.9428
18.128	62.9233
18.212	62.9703
18.296	63.0551
18.38	63.0103
18.464	62.7209
18.548	62.3388
18.632	62.1239
18.716	62.1384
18.8	62.2516
18.884	62.3914
18.968	62.5747
19.052	62.7052
19.136	62.5917
19.22	62.2048
19.304	61.7638
19.388	61.5263
19.472	61.5723
19.556	61.7955
19.64	62.0434
19.724	62.2395
19.808	62.3831
19.892	62.4842
19.976	62.5196
20.06	62.4487
20.144	62.2728
20.228	62.0713
20.312	61.955
20.396	61.9734
20.48	62.0664
20.564	62.1108
20.648	62.0101
20.732	61.7603
20.816	61.4466
20.9	61.1722
20.984	61.0008
21.068	60.9301
21.152	60.9075
21.236	60.876
21.32	60.8105
21.404	60.7242
21.488	60.6564
21.572	60.6385
21.656	60.6787
21.74	60.7599
21.824	60.8307
21.908	60.8143
21.992	60.6459
22.076	60.3119
22.16	59.8921
22.244	59.545
22.328	59.4316
22.412	59.6402
22.496	60.1078
22.58	60.6295
22.664	60.948
22.748	60.8751
22.832	60.4072
22.916	59.7276
23	59.1316
23.084	58.8621
23.168	59.0525
23.252	59.6932
23.336	60.6528
23.42	61.7084
23.504	62.6617
23.588	63.3244
23.672	63.5311
23.756	63.2199
23.84	62.4543
23.924	61.3749
24.008	60.197
24.092	59.2235
24.176	58.7647
24.26	58.9609
24.344	59.6925
24.428	60.6068
24.512	61.1932
24.596	61.0631
24.68	60.0435
24.764	58.2656
24.848	56.1401
24.932	54.7241
25.016	55.4281
25.1	59.4573
25.184	66.823
25.268	75.8753
25.352	83.8197
25.436	87.8904
25.52	86.8123
25.604	81.2495
25.688	73.2074
25.772	65.0625
25.856	58.5944
25.94	54.972
26.024	54.853
26.108	58.4593
26.192	65.2844
26.276	74.0428
26.36	82.65
26.444	89.0347
26.528	91.8245
26.612	90.8182
26.696	86.8433
26.78	81.4084
26.864	75.9848
26.948	71.5794
27.028	68.8189