File: Bakgrunnsmateriale/MATLAB/FTIR/ftir_data/subBb/Mapping_121/C-4040-8_t33_cm-1.asc
PE IR       SPECTRUM    SPECTRUM    ASCII       PEDS        1.60
  -1
C-1BE1~1.ASC
17/03/27
17:10:59.00
17/03/27
17:10:59.00
tln
$C-4040-8_t0033$<tbV0>[-13.0,-7.8,8.0,0.0,27,1,0]
370
64

2002,4.07
MIRTGS : RIGHTBACK : INTERNAL 2
MIR : ON : INTERNAL 2
OPTKBR

0.200000
8
8.000000
FILLER
RATIO
SPECTRUM
UNLOCKED 256

DOUBLE
64
COMBINED
1
0
0

1.000000
RATIO

1
0
TRUE
51149
0
LEFT NOT FITTED RIGHT NOT FITTED 0
NONE
NONE
15600
12
4.427000
51148
TRUE
1 0 8 72 0 0 0 0

15798

#HDR
-1
-1
#GR
CM-1
%T
2.38419e-05
0.0
5000
-1.000000
4631
8
89.6532
33.0258
#DATA
5000	64.6348
4984	64.2451
4968	64.7314
4952	64.7331
4936	65.124
4920	65.0145
4904	65.0509
4888	65.2826
4872	65.1826
4856	65.0335
4840	64.885
4824	65.2345
4808	64.8099
4792	65.2009
4776	64.732
4760	64.9237
4744	64.9422
4728	64.9463
4712	64.5853
4696	65.0427
4680	64.6456
4664	64.7581
4648	64.8938
4632	65.0131
4616	64.8074
4600	65.323
4584	64.7326
4568	65.1882
4552	64.866
4536	64.4782
4520	65.149
4504	65.0885
4488	64.9389
4472	65.081
4456	65.3207
4440	64.8352
4424	64.7544
4408	64.8858
4392	66.2422
4376	67.6239
4360	59.3274
4344	66.9431
4328	64.7691
4312	65.705
4296	65.2564
4280	65.0915
4264	65.4286
4248	65.0687
4232	65.4926
4216	64.8888
4200	64.5273
4184	64.2156
4168	65.156
4152	64.9439
4136	65.1912
4120	64.9487
4104	64.7906
4088	64.9527
4072	65.1004
4056	64.6632
4040	64.9054
4024	65.0689
4008	64.8386
3992	65.079
3976	65.0074
3960	65.2677
3944	64.7879
3928	64.9738
3912	65.111
3896	65.3831
3880	65.4284
3864	65.1361
3848	65.2118
3832	64.9075
3816	65.0831
3800	65.1436
3784	64.7863
3768	65.2104
3752	65.2439
3736	65.0689
3720	65.1257
3704	65.2834
3688	65.1451
3672	64.9353
3656	65.1123
3640	65.1064
3624	65.1649
3608	65.1512
3592	65.132
3576	65.0617
3560	65.0059
3544	65.0978
3528	65.279
3512	65.0791
3496	65.2056
3480	65.2112
3464	65.3119
3448	65.1337
3432	65.3867
3416	65.0905
3400	65.1757
3384	65.0644
3368	65.1201
3352	65.3193
3336	65.1105
3320	65.3991
3304	64.9474
3288	65.369
3272	65.2101
3256	65.2644
3240	65.2889
3224	65.1517
3208	65.2107
3192	65.314
3176	65.3481
3160	65.1677
3144	65.1339
3128	65.035
3112	65.3851
3096	65.3228
3080	65.261
3064	65.1651
3048	65.207
3032	65.2783
3016	65.0853
3000	65.2247
2984	65.1082
2968	65.3864
2952	65.0109
2936	64.9535
2920	64.7851
2904	65.0244
2888	65.1386
2872	65.279
2856	64.9761
2840	65.1256
2824	65.2418
2808	65.1055
2792	65.243
2776	65.3323
2760	65.1622
2744	65.3752
2728	65.0732
2712	65.1883
2696	65.2958
2680	65.2549
2664	65.2906
2648	65.1828
2632	65.2323
2616	65.1993
2600	65.3447
2584	65.1943
2568	65.1575
2552	65.2303
2536	65.2951
2520	65.4956
2504	65.2365
2488	65.2742
2472	65.2001
2456	65.2844
2440	65.281
2424	65.2427
2408	65.3584
2392	65.2959
2376	65.4027
2360	65.2747
2344	65.229
2328	65.321
2312	65.3306
2296	65.293
2280	65.3908
2264	65.3407
2248	65.3862
2232	65.3648
2216	65.3983
2200	65.3815
2184	65.3605
2168	65.3131
2152	65.1545
2136	65.3585
2120	65.3673
2104	65.3584
2088	65.5227
2072	65.2379
2056	65.6518
2040	65.2606
2024	65.4186
2008	65.3962
1992	65.4829
1976	65.3538
1960	65.4131
1944	65.2089
1928	65.398
1912	65.2987
1896	65.3476
1880	65.3147
1864	65.3747
1848	65.2755
1832	65.3758
1816	65.2901
1800	65.2741
1784	65.2742
1768	65.3659
1752	65.3622
1736	65.1482
1720	65.0772
1704	65.2318
1688	65.1951
1672	65.2412
1656	65.1912
1640	65.2741
1624	65.0691
1608	65.2445
1592	65.2227
1576	65.0407
1560	65.1365
1544	65.092
1528	65.1482
1512	65.1161
1496	65.1392
1480	65.1427
1464	65.0866
1448	65.1908
1432	65.1901
1416	65.202
1400	64.998
1384	64.9655
1368	64.9669
1352	65.1385
1336	65.3175
1320	65.1125
1304	65.0905
1288	65.1068
1272	65.1683
1256	65.1279
1240	65.0015
1224	65.0238
1208	65.0431
1192	65.0113
1176	65.0503
1160	64.8759
1144	65.0552
1128	65.0633
1112	64.7394
1096	64.6644
1080	65.1596
1064	64.8019
1048	64.5006
1032	65.2207
1016	65.0347
1000	64.5408
984	 65.1188
968	 64.82
952	 64.8534
936	 64.67
920	 64.9024
904	 64.659
888	 64.6298
872	 64.6068
856	 64.8911
840	 64.5219
824	 64.3797
808	 64.2057
792	 64.3498
776	 64.3985
760	 64.2762
744	 64.0936
728	 64.0326
712	 63.9661
696	 63.8476
680	 63.6621
664	 63.6509
648	 63.475
632	 63.1701
616	 63.3994
600	 63.2492
584	 63.0468
568	 62.7742
552	 63.0959
536	 62.6489
520	 62.7209
504	 61.7715
488	 62.1196
472	 62.2107
456	 61.8565
440	 61.0526
424	 59.4196
408	 45.9891
392	 54.4583
376	 71.4512
370	 33.0258