File: Bakgrunnsmateriale/MATLAB/FTIR/ftir_data/subBb/Mapping_121/C-4040-8_t107.asc
PE IR       SPECTRUM    SPECTRUM    ASCII       PEDS        1.60
  -1
C-88D6~1.ASC
17/03/27
23:15:06.00
17/03/27
23:15:32.00
tln
$C-4040-8_t0107$<tbV0>[-5.2,10.4,8.0,0.0,27,1,0]
27.028
64

2002,4.07
MIRTGS : RIGHTBACK : INTERNAL 2
MIR : ON : INTERNAL 2
OPTKBR

0.200000
8
8.000000
FILLER
RATIO
SPECTRUM
UNLOCKED 256

DOUBLE
64
COMBINED
1
0
0

0.002000
RATIO

1
0
TRUE
51149
0
LEFT NOT FITTED RIGHT NOT FITTED 0
NONE
NONE
15600
12
4.427000
51148
TRUE
1 0 8 72 0 0 0 0

15798

#HDR
-1
-1
#GR
µM
%T
2.38419e-05
0.0
2.000000
0.002000
12515
8
102.897
40.8791
#DATA
2.000000	 65.464
2.084000	 64.6969
2.168000	 65.455
2.252000	 63.5619
2.336000	 64.0633
2.420000	 64.9469
2.504000	 65.3606
2.588000	 64.8524
2.672000	 65.1361
2.756000	 65.0972
2.840000	 65.2173
2.924000	 65.0021
3.008000	 65.0881
3.092000	 64.9523
3.176000	 65.0611
3.260000	 65.1859
3.344000	 65.1922
3.428000	 64.7492
3.512000	 65.0114
3.596000	 65.2
3.680000	 65.2527
3.764000	 65.158
3.848000	 65.1579
3.932000	 65.2198
4.016000	 65.1638
4.100000	 65.3197
4.184000	 65.1499
4.268000	 65.1682
4.352000	 65.2851
4.436000	 65.1857
4.520000	 65.1611
4.604000	 65.2266
4.688000	 65.3864
4.772000	 65.2635
4.856000	 65.3969
4.940000	 65.1867
5.024000	 65.2141
5.108000	 65.1503
5.192000	 65.3887
5.276000	 65.141
5.359999	 65.1186
5.444000	 65.2323
5.528000	 65.0932
5.612000	 65.1512
5.696000	 65.1311
5.780000	 64.9987
5.864000	 65.2108
5.948000	 65.0792
6.032000	 65.2549
6.116000	 65.1293
6.200000	 65.0814
6.284000	 65.044
6.368000	 65.0439
6.452000	 65.0975
6.536000	 65.2289
6.620000	 65.0191
6.704000	 65.0941
6.788000	 65.0194
6.872000	 65.0394
6.956000	 64.8691
7.040000	 65.0435
7.124000	 65.1673
7.208000	 64.9533
7.292000	 64.9894
7.376000	 64.939
7.460000	 64.9216
7.544000	 64.9564
7.628000	 64.781
7.712000	 64.8374
7.796000	 65.0292
7.880000	 64.8047
7.964000	 64.9184
8.048000	 64.886
8.132000	 64.8426
8.216000	 64.9921
8.300000	 64.9065
8.384000	 64.8483
8.468000	 64.8209
8.552000	 65.0597
8.635999	 64.8121
8.719999	 64.745
8.804000	 64.8831
8.888000	 64.582
8.972000	 64.9139
9.056000	 65.1588
9.140000	 64.4137
9.224000	 64.3151
9.308000	 64.4687
9.391999	 64.5213
9.475999	 64.6764
9.560000	 64.9194
9.644000	 64.562
9.728000	 64.5181
9.812000	 64.565
9.896000	 64.3227
9.980000	 64.5309
10.064	64.5233
10.148	64.4397
10.232	64.4811
10.316	64.4817
10.4	64.3804
10.484	64.5611
10.568	64.4411
10.652	64.3191
10.736	64.1784
10.82	64.6518
10.904	64.652
10.988	64.0983
11.072	63.9478
11.156	64.0379
11.24	64.3818
11.324	63.8535
11.408	63.3891
11.492	63.9055
11.576	64.4718
11.66	64.5154
11.744	64.3391
11.828	64.6888
11.912	64.2442
11.996	63.6801
12.08	63.5948
12.164	63.8515
12.248	64.0815
12.332	64.1485
12.416	64.2112
12.5	64.0152
12.584	64.0091
12.668	63.7828
12.752	63.5237
12.836	63.537
12.92	63.6896
13.004	63.7098
13.088	63.8037
13.172	63.761
13.256	63.5038
13.34	63.195
13.424	63.386
13.508	63.1567
13.592	62.8916
13.676	63.0672
13.76	63.3873
13.844	63.6255
13.928	63.3751
14.012	63.1501
14.096	63.1577
14.18	63.2947
14.264	63.3578
14.348	63.1194
14.432	62.9538
14.516	63.1003
14.6	63.1317
14.684	63.0359
14.768	63.0664
14.852	62.9772
14.936	62.7307
15.02	62.4741
15.104	62.3622
15.188	62.5605
15.272	62.8054
15.356	62.8495
15.44	62.8031
15.524	62.7342
15.608	62.6547
15.692	62.5607
15.776	62.4912
15.86	62.6027
15.944	62.8108
16.028	62.826
16.112	62.6191
16.196	62.4124
16.28	62.4189
16.364	62.622
16.448	62.7384
16.532	62.6743
16.616	62.6695
16.7	62.7998
16.784	62.8287
16.868	62.5845
16.952	62.1629
17.036	61.7572
17.12	61.455
17.204	61.2376
17.288	61.131
17.372	61.1788
17.456	61.3074
17.54	61.4169
17.624	61.5127
17.708	61.6129
17.792	61.6787
17.876	61.7605
17.96	61.9983
18.044	62.3658
18.128	62.5922
18.212	62.4707
18.296	62.0943
18.38	61.6959
18.464	61.3898
18.548	61.1359
18.632	60.8889
18.716	60.7026
18.8	60.6657
18.884	60.751
18.968	60.7952
19.052	60.6888
19.136	60.544
19.22	60.5819
19.304	60.8452
19.388	61.119
19.472	61.1835
19.556	61.0456
19.64	60.88
19.724	60.7971
19.808	60.7563
19.892	60.687
19.976	60.628
20.06	60.6812
20.144	60.8551
20.228	61.0068
20.312	60.9613
20.396	60.6714
20.48	60.2485
20.564	59.8505
20.648	59.5554
20.732	59.3545
20.816	59.24
20.9	59.2457
20.984	59.3883
21.068	59.5906
21.152	59.6973
21.236	59.5816
21.32	59.2329
21.404	58.7585
21.488	58.309
21.572	57.9931
21.656	57.864
21.74	57.9306
21.824	58.1642
21.908	58.4883
21.992	58.7804
22.076	58.9151
22.16	58.8267
22.244	58.5511
22.328	58.2194
22.412	57.9911
22.496	57.9674
22.58	58.1164
22.664	58.2886
22.748	58.2858
22.832	57.9789
22.916	57.3508
23	56.5245
23.084	55.6816
23.168	54.9752
23.252	54.4688
23.336	54.1808
23.42	54.145
23.504	54.387
23.588	54.9089
23.672	55.654
23.756	56.4645
23.84	57.1513
23.924	57.5885
24.008	57.7719
24.092	57.7822
24.176	57.6809
24.26	57.3721
24.344	56.662
24.428	55.4636
24.512	53.9371
24.596	52.5816
24.68	51.9899
24.764	52.4606
24.848	53.8064
24.932	55.2547
25.016	55.7763
25.1	54.5897
25.184	51.6123
25.268	47.6098
25.352	43.8158
25.436	41.4149
25.52	40.9264
25.604	42.0825
25.688	44.0733
25.772	46.1308
25.856	48.0214
25.94	49.8188
26.024	51.7772
26.108	54.1086
26.192	57.2205
26.276	61.5819
26.36	67.5617
26.444	75.0597
26.528	83.3976
26.612	91.3708
26.696	97.7136
26.78	101.629
26.864	102.897
26.948	101.799
27.028	99.0229