File: Bakgrunnsmateriale/MATLAB/FTIR/ftir_data/subBb/Mapping_121/C-4040-8_t49_cm-1.asc
PE IR       SPECTRUM    SPECTRUM    ASCII       PEDS        1.60
  -1
C-9BE0~1.ASC
17/03/27
18:32:22.00
17/03/27
18:32:22.00
tln
$C-4040-8_t0049$<tbV0>[2.6,-2.6,8.0,0.0,27,1,0]
370
64

2002,4.07
MIRTGS : RIGHTBACK : INTERNAL 2
MIR : ON : INTERNAL 2
OPTKBR

0.200000
8
8.000000
FILLER
RATIO
SPECTRUM
UNLOCKED 256

DOUBLE
64
COMBINED
1
0
0

1.000000
RATIO

1
0
TRUE
51149
0
LEFT NOT FITTED RIGHT NOT FITTED 0
NONE
NONE
15600
12
4.427000
51148
TRUE
1 0 8 72 0 0 0 0

15798

#HDR
-1
-1
#GR
CM-1
%T
2.38419e-05
0.0
5000
-1.000000
4631
8
75.5474
21.7587
#DATA
5000	64.0359
4984	64.7841
4968	64.1047
4952	64.6797
4936	64.3265
4920	64.7916
4904	64.3972
4888	64.5937
4872	63.957
4856	63.8494
4840	64.0198
4824	64.4181
4808	64.0728
4792	64.2094
4776	64.3197
4760	64.2189
4744	63.8103
4728	63.5442
4712	64.5195
4696	64.1992
4680	64.1578
4664	63.8214
4648	64.0043
4632	64.2531
4616	63.9009
4600	64.1538
4584	64.0024
4568	63.7497
4552	64.2117
4536	63.7766
4520	64.2452
4504	64.4577
4488	63.9958
4472	64.2386
4456	64.3213
4440	64.2332
4424	64.7507
4408	64.5058
4392	64.4496
4376	63.9137
4360	52.9771
4344	71.6783
4328	65.8139
4312	63.8453
4296	64.14
4280	64.3692
4264	63.9572
4248	64.0945
4232	63.8926
4216	64.0068
4200	63.8065
4184	63.4454
4168	64.3028
4152	63.8919
4136	63.3061
4120	63.6218
4104	63.6597
4088	63.4782
4072	63.9135
4056	63.7455
4040	63.5531
4024	63.723
4008	63.9053
3992	63.9494
3976	63.9482
3960	63.6821
3944	63.6994
3928	63.618
3912	63.607
3896	63.6637
3880	63.5603
3864	63.692
3848	63.5888
3832	63.4305
3816	63.2342
3800	63.5837
3784	63.3897
3768	63.4895
3752	63.5624
3736	63.3897
3720	63.3464
3704	63.3942
3688	63.5484
3672	63.3027
3656	63.2713
3640	63.2676
3624	63.2968
3608	63.2258
3592	62.9587
3576	63.1222
3560	63.0983
3544	62.8719
3528	62.7828
3512	62.9134
3496	62.8093
3480	62.9452
3464	62.8758
3448	62.7528
3432	62.7719
3416	62.7499
3400	62.7291
3384	62.6709
3368	62.7242
3352	62.4968
3336	62.6948
3320	62.6389
3304	62.4023
3288	62.2293
3272	62.3336
3256	62.5811
3240	62.235
3224	62.2497
3208	61.9965
3192	62.3212
3176	62.3206
3160	61.9288
3144	62.0766
3128	62.04
3112	61.3854
3096	61.9573
3080	61.8008
3064	61.8462
3048	61.9401
3032	61.8131
3016	61.45
3000	61.4382
2984	61.4665
2968	61.6882
2952	61.3888
2936	61.2284
2920	60.994
2904	61.2165
2888	61.2519
2872	61.2038
2856	60.7667
2840	61.1245
2824	60.9457
2808	61.0313
2792	60.9187
2776	60.7512
2760	60.8217
2744	60.6971
2728	60.7176
2712	60.6008
2696	60.4254
2680	60.3996
2664	60.3662
2648	60.4159
2632	60.3093
2616	60.177
2600	59.9713
2584	60.1455
2568	60.0196
2552	60.0463
2536	59.9429
2520	59.945
2504	59.703
2488	59.6931
2472	59.5512
2456	59.6084
2440	59.6618
2424	59.8797
2408	59.5495
2392	59.4229
2376	59.0445
2360	59.0336
2344	58.911
2328	58.9095
2312	58.8265
2296	58.7181
2280	58.7499
2264	58.6004
2248	58.6909
2232	58.6226
2216	58.4467
2200	58.4234
2184	58.3382
2168	58.0803
2152	58.0387
2136	58.1069
2120	57.8801
2104	57.812
2088	57.679
2072	57.3028
2056	57.293
2040	57.6022
2024	57.4732
2008	57.335
1992	57.4001
1976	57.216
1960	57.1687
1944	57.1288
1928	56.945
1912	56.9574
1896	56.8141
1880	56.8129
1864	56.6474
1848	56.5665
1832	56.5084
1816	56.3065
1800	56.3513
1784	56.257
1768	56.193
1752	56.0224
1736	55.8561
1720	55.6237
1704	55.8793
1688	55.6531
1672	55.8197
1656	55.5124
1640	55.4911
1624	55.2794
1608	55.2362
1592	55.0333
1576	55.2266
1560	54.9198
1544	54.7371
1528	54.7876
1512	54.8537
1496	54.8504
1480	54.5909
1464	54.5992
1448	54.3537
1432	54.0997
1416	54.1065
1400	54.1518
1384	54.1095
1368	54.1344
1352	53.8497
1336	53.8088
1320	53.6511
1304	53.6377
1288	53.6275
1272	53.5208
1256	53.3193
1240	53.289
1224	53.3137
1208	53.3585
1192	52.9828
1176	53.1008
1160	53.0113
1144	52.7301
1128	52.8249
1112	52.7171
1096	52.3404
1080	52.5606
1064	52.3771
1048	52.3113
1032	52.1236
1016	52.1925
1000	52.1627
984	 52.0288
968	 51.9738
952	 51.6158
936	 51.5065
920	 51.3141
904	 51.361
888	 51.3836
872	 50.6894
856	 50.918
840	 50.7562
824	 50.6325
808	 50.6611
792	 50.3668
776	 50.2027
760	 50.181
744	 50.0097
728	 49.3086
712	 49.9521
696	 49.4267
680	 48.5146
664	 48.5407
648	 48.3611
632	 47.9892
616	 48.2237
600	 47.7856
584	 47.3283
568	 47.109
552	 46.3763
536	 46.1361
520	 46.0881
504	 45.414
488	 44.4019
472	 44.5398
456	 46.0479
440	 44.2073
424	 46.4491
408	 34.2992
392	 61.9894
376	 47.1898
370	 36.0611