File: Bakgrunnsmateriale/MATLAB/FTIR/ftir_data/subBb/Mapping_121/C-4040-8_t22.asc
PE IR       SPECTRUM    SPECTRUM    ASCII       PEDS        1.60
  -1
C-AD22~1.ASC
17/03/27
16:13:04.00
17/03/27
16:13:30.00
tln
$C-4040-8_t0022$<tbV0>[-13.0,-10.4,8.0,0.0,27,1,0]
27.028
64

2002,4.07
MIRTGS : RIGHTBACK : INTERNAL 2
MIR : ON : INTERNAL 2
OPTKBR

0.200000
8
8.000000
FILLER
RATIO
SPECTRUM
UNLOCKED 256

DOUBLE
64
COMBINED
1
0
0

0.002000
RATIO

1
0
TRUE
51149
0
LEFT NOT FITTED RIGHT NOT FITTED 0
NONE
NONE
15600
12
4.427000
51148
TRUE
1 0 8 72 0 0 0 0

15798

#HDR
-1
-1
#GR
µM
%T
2.38419e-05
0.0
2.000000
0.002000
12515
8
100.757
44.6678
#DATA
2.000000	 64.3334
2.084000	 64.5627
2.168000	 65.2919
2.252000	 69.0148
2.336000	 64.8301
2.420000	 64.9179
2.504000	 65.2219
2.588000	 65.2897
2.672000	 65.774
2.756000	 65.5334
2.840000	 65.1138
2.924000	 64.9171
3.008000	 65.1988
3.092000	 65.38
3.176000	 65.2167
3.260000	 65.326
3.344000	 65.3821
3.428000	 65.032
3.512000	 65.1783
3.596000	 65.3659
3.680000	 65.3073
3.764000	 65.1782
3.848000	 65.2915
3.932000	 65.3524
4.016000	 65.3689
4.100000	 65.4452
4.184000	 65.3947
4.268000	 65.3828
4.352000	 65.4427
4.436000	 65.3933
4.520000	 65.3205
4.604000	 65.4532
4.688000	 65.4064
4.772000	 65.3247
4.856000	 65.4033
4.940000	 65.3448
5.024000	 65.5567
5.108000	 65.3126
5.192000	 65.3759
5.276000	 65.3587
5.359999	 65.4018
5.444000	 65.3507
5.528000	 65.452
5.612000	 65.4502
5.696000	 65.4644
5.780000	 65.4857
5.864000	 65.5305
5.948000	 65.7317
6.032000	 65.7227
6.116000	 65.5462
6.200000	 65.412
6.284000	 65.2414
6.368000	 65.3446
6.452000	 65.4171
6.536000	 65.5202
6.620000	 65.7177
6.704000	 65.4798
6.788000	 65.4664
6.872000	 65.4005
6.956000	 65.4481
7.040000	 65.3222
7.124000	 65.1274
7.208000	 65.2388
7.292000	 65.1514
7.376000	 65.1154
7.460000	 65.1411
7.544000	 65.2091
7.628000	 65.0523
7.712000	 65.1972
7.796000	 65.0227
7.880000	 65.0629
7.964000	 65.1098
8.048000	 65.0193
8.132000	 65.0977
8.216000	 65.1004
8.300000	 65.1253
8.384000	 65.0491
8.468000	 65.0237
8.552000	 65.0838
8.635999	 65.028
8.719999	 65.097
8.804000	 64.9541
8.888000	 65.0843
8.972000	 65.0666
9.056000	 65.1412
9.140000	 65.097
9.224000	 64.951
9.308000	 64.8434
9.391999	 64.8569
9.475999	 64.5562
9.560000	 64.8932
9.644000	 65.318
9.728000	 65.3766
9.812000	 65.2768
9.896000	 64.8422
9.980000	 65.0795
10.064	64.8419
10.148	65.0934
10.232	65.0955
10.316	64.7645
10.4	64.6682
10.484	64.6281
10.568	64.7625
10.652	64.6867
10.736	64.7666
10.82	64.7514
10.904	64.8044
10.988	64.7322
11.072	64.5079
11.156	64.6657
11.24	64.6909
11.324	64.4416
11.408	64.5727
11.492	64.7362
11.576	64.5347
11.66	64.5788
11.744	64.6039
11.828	64.6817
11.912	64.6162
11.996	64.2557
12.08	64.0734
12.164	64.2964
12.248	64.488
12.332	64.3355
12.416	64.3249
12.5	64.3955
12.584	64.3593
12.668	64.3605
12.752	64.3517
12.836	64.3116
12.92	64.3608
13.004	64.2558
13.088	64.3609
13.172	64.6003
13.256	64.3549
13.34	64.0923
13.424	64.3052
13.508	63.9811
13.592	63.5419
13.676	63.7588
13.76	63.8448
13.844	63.79
13.928	63.9152
14.012	63.8562
14.096	63.5394
14.18	63.3315
14.264	63.4265
14.348	63.6514
14.432	63.744
14.516	63.7325
14.6	63.6291
14.684	63.449
14.768	63.3527
14.852	63.3521
14.936	63.3013
15.02	63.3088
15.104	63.5229
15.188	63.7393
15.272	63.7316
15.356	63.5825
15.44	63.5707
15.524	63.6927
15.608	63.6938
15.692	63.5794
15.776	63.4377
15.86	63.2651
15.944	63.1685
16.028	63.1431
16.112	63.0938
16.196	63.1309
16.28	63.2569
16.364	63.2241
16.448	63.0034
16.532	62.866
16.616	62.9479
16.7	63.1396
16.784	63.2929
16.868	63.3032
16.952	63.1739
17.036	63.0254
17.12	62.9343
17.204	62.8422
17.288	62.6776
17.372	62.5284
17.456	62.5467
17.54	62.6757
17.624	62.7193
17.708	62.6507
17.792	62.6104
17.876	62.6494
17.96	62.6614
18.044	62.5912
18.128	62.5363
18.212	62.6094
18.296	62.7835
18.38	62.8956
18.464	62.7913
18.548	62.4565
18.632	62.0291
18.716	61.7178
18.8	61.6647
18.884	61.8159
18.968	61.9589
19.052	61.9239
19.136	61.7541
19.22	61.6328
19.304	61.67
19.388	61.8099
19.472	61.9314
19.556	61.9582
19.64	61.8758
19.724	61.7127
19.808	61.5638
19.892	61.5796
19.976	61.8434
20.06	62.2444
20.144	62.5309
20.228	62.5301
20.312	62.2823
20.396	61.9844
20.48	61.824
20.564	61.8784
20.648	62.1216
20.732	62.4656
20.816	62.791
20.9	62.9495
20.984	62.8016
21.068	62.2956
21.152	61.5121
21.236	60.6583
21.32	60.0014
21.404	59.7482
21.488	59.9556
21.572	60.5062
21.656	61.1712
21.74	61.7057
21.824	61.9229
21.908	61.746
21.992	61.2269
22.076	60.5382
22.16	59.9441
22.244	59.6998
22.328	59.9213
22.412	60.5052
22.496	61.1267
22.58	61.4342
22.664	61.2267
22.748	60.567
22.832	59.7207
22.916	59.0177
23	58.6555
23.084	58.6553
23.168	58.8902
23.252	59.1952
23.336	59.457
23.42	59.7184
23.504	60.0701
23.588	60.5736
23.672	61.2014
23.756	61.7986
23.84	62.12
23.924	61.9488
24.008	61.2035
24.092	60.0086
24.176	58.7254
24.26	57.7631
24.344	57.4553
24.428	57.9656
24.512	59.3774
24.596	61.6559
24.68	64.402
24.764	66.7467
24.848	67.6534
24.932	66.3208
25.016	62.7025
25.1	57.6382
25.184	52.4088
25.268	48.1442
25.352	45.4491
25.436	44.6851
25.52	46.0488
25.604	49.6236
25.688	55.2728
25.772	62.3652
25.856	69.7316
25.94	75.931
26.024	79.6079
26.108	80.0121
26.192	77.3757
26.276	72.8226
26.36	68.0797
26.444	64.793
26.528	64.0356
26.612	66.0034
26.696	70.3701
26.78	76.6211
26.864	84.3041
26.948	92.8608
27.028	100.757