File: Bakgrunnsmateriale/MATLAB/FTIR/ftir_data/subBb/Mapping_121/C-4040-8_t120_cm-1.asc
PE IR       SPECTRUM    SPECTRUM    ASCII       PEDS        1.60
  -1
C-458B~1.ASC
17/03/28
00:35:47.00
17/03/28
00:35:47.00
tln
$C-4040-8_t0120$<tbV0>[-10.4,13.0,8.0,0.0,27,1,0]
370
64

2002,4.07
MIRTGS : RIGHTBACK : INTERNAL 2
MIR : ON : INTERNAL 2
OPTKBR

0.200000
8
8.000000
FILLER
RATIO
SPECTRUM
UNLOCKED 256

DOUBLE
64
COMBINED
1
0
0

1.000000
RATIO

1
0
TRUE
51149
0
LEFT NOT FITTED RIGHT NOT FITTED 0
NONE
NONE
15600
12
4.427000
51148
TRUE
1 0 8 72 0 0 0 0

15798

#HDR
-1
-1
#GR
CM-1
%T
2.38419e-05
0.0
5000
-1.000000
4631
8
70.8051
13.135
#DATA
5000	64.4855
4984	65.2331
4968	64.6596
4952	63.7349
4936	64.7444
4920	64.5165
4904	64.5876
4888	65.5173
4872	63.9725
4856	64.7772
4840	64.6061
4824	64.6432
4808	64.8652
4792	64.2517
4776	65.0773
4760	64.2809
4744	64.5582
4728	64.5993
4712	65.3279
4696	64.9294
4680	64.6523
4664	64.8695
4648	64.7504
4632	64.877
4616	64.5066
4600	64.815
4584	64.5633
4568	64.7496
4552	64.9606
4536	64.9192
4520	64.7841
4504	65.1891
4488	64.6265
4472	64.9387
4456	64.9064
4440	64.6559
4424	64.9301
4408	65.32
4392	59.7778
4376	66.5046
4360	65.4581
4344	65.1728
4328	65.0633
4312	65.2438
4296	64.93
4280	64.8663
4264	64.5814
4248	64.872
4232	64.7896
4216	64.9945
4200	64.6834
4184	64.3205
4168	63.3824
4152	64.5696
4136	64.7228
4120	64.9051
4104	64.5948
4088	64.9441
4072	65.0083
4056	64.8729
4040	64.7896
4024	64.7676
4008	64.8244
3992	64.914
3976	65.0029
3960	64.9075
3944	65.0885
3928	64.9322
3912	64.7746
3896	64.6166
3880	65.0726
3864	64.9804
3848	65.0285
3832	64.699
3816	64.9724
3800	64.9913
3784	65.0322
3768	65.0893
3752	64.7308
3736	65.2236
3720	64.9822
3704	64.9933
3688	64.9897
3672	64.9557
3656	64.8762
3640	64.9547
3624	65.0361
3608	65.0567
3592	65.0259
3576	64.9562
3560	64.9196
3544	65.0995
3528	65.0737
3512	64.9373
3496	65.0928
3480	65.0024
3464	64.91
3448	64.8797
3432	64.805
3416	64.93
3400	64.9312
3384	65.0529
3368	64.9214
3352	64.9129
3336	64.9454
3320	64.7155
3304	64.8669
3288	64.9895
3272	64.7703
3256	65.0306
3240	64.8599
3224	64.9351
3208	64.7993
3192	64.8005
3176	65.0832
3160	64.9399
3144	65.0378
3128	64.8847
3112	65.0921
3096	65.0668
3080	65.1467
3064	65.102
3048	65.0395
3032	65.0843
3016	65.1164
3000	65.2632
2984	65.0996
2968	64.9757
2952	64.7942
2936	64.8366
2920	64.7281
2904	64.8624
2888	64.7466
2872	64.8967
2856	64.8241
2840	64.8414
2824	65.1578
2808	65.2116
2792	65.011
2776	64.9907
2760	65.0199
2744	64.9975
2728	65.1062
2712	65.065
2696	64.962
2680	65.194
2664	65.134
2648	65.0217
2632	65.0623
2616	65.0426
2600	65.1013
2584	65.0856
2568	65.1659
2552	65.3131
2536	65.1873
2520	65.146
2504	65.0302
2488	65.1337
2472	65.0619
2456	65.2134
2440	65.0444
2424	64.8358
2408	65.5726
2392	65.1586
2376	65.1808
2360	65.1424
2344	65.1471
2328	65.1035
2312	65.0429
2296	65.0651
2280	65.0393
2264	65.105
2248	65.1123
2232	65.1885
2216	65.1203
2200	65.3451
2184	65.2448
2168	65.1914
2152	65.0595
2136	64.9423
2120	65.0823
2104	65.081
2088	65.2195
2072	65.241
2056	65.0148
2040	65.0687
2024	65.2399
2008	65.1509
1992	65.0559
1976	65.1043
1960	65.1463
1944	65.0811
1928	65.0591
1912	65.1461
1896	64.9302
1880	65.2165
1864	65.0434
1848	65.2056
1832	65.0125
1816	65.1009
1800	65.0717
1784	65.0317
1768	65.1368
1752	64.8696
1736	64.7816
1720	64.8542
1704	65.1758
1688	64.8324
1672	65.1426
1656	64.9158
1640	64.9021
1624	64.9206
1608	64.8828
1592	64.8794
1576	64.905
1560	64.817
1544	64.893
1528	64.9556
1512	64.8865
1496	64.9967
1480	65.0153
1464	65.0752
1448	64.9324
1432	65.0106
1416	64.8479
1400	64.7955
1384	64.6975
1368	64.7614
1352	64.8475
1336	64.7582
1320	64.8905
1304	64.6335
1288	64.6684
1272	64.6714
1256	64.744
1240	64.6266
1224	64.645
1208	64.6027
1192	64.6353
1176	64.5888
1160	64.5659
1144	64.4627
1128	64.3133
1112	64.821
1096	64.3615
1080	64.5187
1064	64.5931
1048	64.7189
1032	64.4577
1016	63.9381
1000	64.5088
984	 64.2996
968	 64.2852
952	 64.1315
936	 64.3066
920	 64.0801
904	 64.6005
888	 63.9119
872	 63.7657
856	 63.1814
840	 64.0181
824	 63.4262
808	 63.6931
792	 63.9856
776	 63.238
760	 63.1698
744	 63.4995
728	 62.9976
712	 62.3764
696	 62.6827
680	 62.369
664	 62.6839
648	 62.5238
632	 62.4326
616	 61.9632
600	 61.3803
584	 61.2969
568	 61.0044
552	 61.721
536	 61.4362
520	 61.007
504	 59.2845
488	 58.9567
472	 59.4189
456	 60.095
440	 58.3415
424	 56.5675
408	 60.2535
392	 37.2382
376	 47.9348
370	 13.135