File: Bakgrunnsmateriale/MATLAB/FTIR/ftir_data/subBb/Mapping_121/C-4040-8_t78_cm-1.asc
PE IR       SPECTRUM    SPECTRUM    ASCII       PEDS        1.60
  -1
C-1D65~1.ASC
17/03/27
20:54:11.00
17/03/27
20:54:11.00
tln
$C-4040-8_t0078$<tbV0>[13.0,5.2,8.0,0.0,27,1,0]
370
64

2002,4.07
MIRTGS : RIGHTBACK : INTERNAL 2
MIR : ON : INTERNAL 2
OPTKBR

0.200000
8
8.000000
FILLER
RATIO
SPECTRUM
UNLOCKED 256

DOUBLE
64
COMBINED
1
0
0

1.000000
RATIO

1
0
TRUE
51149
0
LEFT NOT FITTED RIGHT NOT FITTED 0
NONE
NONE
15600
12
4.427000
51148
TRUE
1 0 8 72 0 0 0 0

15798

#HDR
-1
-1
#GR
CM-1
%T
2.38419e-05
0.0
5000
-1.000000
4631
8
93.5179
44.4249
#DATA
5000	65.2309
4984	65.236
4968	64.6575
4952	65.6455
4936	64.538
4920	64.5654
4904	65.0505
4888	64.7618
4872	64.9692
4856	64.9518
4840	64.7575
4824	64.7707
4808	64.6299
4792	64.5591
4776	65.0011
4760	64.8864
4744	65.3936
4728	65.4747
4712	65.3965
4696	64.5845
4680	65.3617
4664	65.3618
4648	65.3158
4632	65.5624
4616	65.0904
4600	64.9151
4584	65.2781
4568	64.7527
4552	65.2508
4536	65.094
4520	63.9142
4504	64.4552
4488	64.3932
4472	64.3849
4456	64.421
4440	64.6045
4424	64.1508
4408	64.0192
4392	61.7794
4376	78.6756
4360	64.6921
4344	64.9646
4328	64.9831
4312	64.7011
4296	64.6155
4280	64.8751
4264	64.8524
4248	64.9904
4232	65.0966
4216	64.7811
4200	65.1513
4184	65.6406
4168	66.0071
4152	65.2998
4136	65.2777
4120	65.1499
4104	65.0192
4088	64.8248
4072	65.3338
4056	65.0819
4040	65.136
4024	65.1979
4008	65.1828
3992	65.2942
3976	65.4715
3960	65.3052
3944	65.2009
3928	65.3736
3912	65.3596
3896	65.0971
3880	65.0572
3864	65.1644
3848	64.9758
3832	64.8836
3816	65.2416
3800	65.0667
3784	65.1496
3768	65.2048
3752	65.3165
3736	65.1422
3720	65.1463
3704	65.1757
3688	65.0511
3672	65.27
3656	65.1286
3640	65.4543
3624	65.3221
3608	65.2951
3592	65.5182
3576	65.2688
3560	65.1889
3544	65.0823
3528	65.3009
3512	65.3166
3496	65.181
3480	65.1372
3464	65.5654
3448	65.369
3432	65.2739
3416	65.3551
3400	65.1103
3384	65.41
3368	65.2166
3352	65.1206
3336	65.4086
3320	65.1118
3304	65.1816
3288	65.3251
3272	65.1308
3256	65.2969
3240	65.1718
3224	65.2873
3208	65.1025
3192	65.2495
3176	65.2282
3160	65.1677
3144	65.4002
3128	65.1491
3112	65.2688
3096	65.3031
3080	65.1624
3064	65.3371
3048	65.1691
3032	65.347
3016	64.9848
3000	65.2684
2984	65.0788
2968	65.1003
2952	65.1005
2936	65.1783
2920	64.9412
2904	65.1168
2888	65.1059
2872	65.0204
2856	65.0694
2840	65.262
2824	65.2616
2808	65.3865
2792	65.2907
2776	65.3774
2760	65.3957
2744	65.4533
2728	65.2748
2712	65.3949
2696	65.3273
2680	65.2889
2664	65.3925
2648	65.3159
2632	65.457
2616	65.3436
2600	65.2893
2584	65.3388
2568	65.3115
2552	65.3683
2536	65.3307
2520	65.4808
2504	65.1579
2488	65.4136
2472	65.4071
2456	65.3296
2440	65.3657
2424	64.4401
2408	65.4589
2392	65.3684
2376	65.5299
2360	65.3522
2344	65.3509
2328	65.4627
2312	65.3872
2296	65.2776
2280	65.4186
2264	65.3673
2248	65.3202
2232	65.3631
2216	65.2897
2200	65.3523
2184	65.3259
2168	65.2382
2152	65.0612
2136	65.4088
2120	65.3542
2104	65.3342
2088	65.5311
2072	65.4065
2056	65.4544
2040	65.3968
2024	65.3899
2008	65.3868
1992	65.4404
1976	65.3432
1960	65.3668
1944	65.3633
1928	65.3809
1912	65.5273
1896	65.4116
1880	65.3055
1864	65.4012
1848	65.3375
1832	65.3477
1816	65.516
1800	65.3233
1784	65.5061
1768	65.2608
1752	65.4191
1736	65.0788
1720	65.4918
1704	65.1218
1688	65.4639
1672	65.2428
1656	65.2719
1640	65.4663
1624	65.2359
1608	65.1963
1592	65.0142
1576	65.3168
1560	65.2636
1544	65.1228
1528	65.1293
1512	64.8879
1496	65.141
1480	65.2562
1464	65.1536
1448	64.9703
1432	65.3644
1416	65.2233
1400	65.1477
1384	65.2079
1368	65.0474
1352	65.0604
1336	65.1106
1320	65.1471
1304	64.9269
1288	65.1176
1272	65.2001
1256	65.0653
1240	64.9001
1224	64.9973
1208	65.1051
1192	65.0857
1176	64.8216
1160	64.804
1144	64.7856
1128	64.8404
1112	64.8293
1096	64.8264
1080	64.9374
1064	64.79
1048	64.7173
1032	64.6461
1016	64.6856
1000	64.6654
984	 64.6081
968	 64.368
952	 65.0282
936	 64.5559
920	 64.8835
904	 64.5176
888	 64.7976
872	 64.621
856	 64.4801
840	 64.5243
824	 64.2121
808	 64.4753
792	 63.8164
776	 64.1112
760	 64.0031
744	 64.6928
728	 63.1079
712	 63.4158
696	 63.3292
680	 63.358
664	 63.0022
648	 62.8976
632	 62.1286
616	 62.2042
600	 62.6631
584	 62.2199
568	 61.9416
552	 61.8531
536	 61.6226
520	 61.5937
504	 61.0301
488	 60.4467
472	 60.2417
456	 61.3505
440	 59.5144
424	 54.8924
408	 59.6997
392	 46.0532
376	 59.9808
370	 45.7551