File: Bakgrunnsmateriale/MATLAB/FTIR/ftir_data/subBb/Mapping_121/C-4040-8_t19.asc
PE IR       SPECTRUM    SPECTRUM    ASCII       PEDS        1.60
  -1
C-C92E~1.ASC
17/03/27
15:59:14.00
17/03/27
15:59:40.00
tln
$C-4040-8_t0019$<tbV0>[-5.2,-10.4,8.0,0.0,27,1,0]
27.028
64

2002,4.07
MIRTGS : RIGHTBACK : INTERNAL 2
MIR : ON : INTERNAL 2
OPTKBR

0.200000
8
8.000000
FILLER
RATIO
SPECTRUM
UNLOCKED 256

DOUBLE
64
COMBINED
1
0
0

0.002000
RATIO

1
0
TRUE
51149
0
LEFT NOT FITTED RIGHT NOT FITTED 0
NONE
NONE
15600
12
4.427000
51148
TRUE
1 0 8 72 0 0 0 0

15798

#HDR
-1
-1
#GR
µM
%T
2.38419e-05
0.0
2.000000
0.002000
12515
8
72.2533
31.0119
#DATA
2.000000	 63.67
2.084000	 63.6409
2.168000	 64.1522
2.252000	 67.3539
2.336000	 63.6385
2.420000	 64.0192
2.504000	 63.8338
2.588000	 63.9449
2.672000	 64.0316
2.756000	 63.6047
2.840000	 63.202
2.924000	 62.7949
3.008000	 62.7976
3.092000	 62.4646
3.176000	 62.3173
3.260000	 62.1577
3.344000	 61.8466
3.428000	 61.2126
3.512000	 61.1742
3.596000	 61.0878
3.680000	 60.8275
3.764000	 60.6071
3.848000	 60.4383
3.932000	 60.231
4.016000	 59.8791
4.100000	 59.7578
4.184000	 59.519
4.268000	 59.3256
4.352000	 59.1158
4.436000	 58.8728
4.520000	 58.7659
4.604000	 58.4893
4.688000	 58.2968
4.772000	 58.097
4.856000	 57.8333
4.940000	 57.6528
5.024000	 57.4566
5.108000	 57.2818
5.192000	 57.0835
5.276000	 56.8959
5.359999	 56.7289
5.444000	 56.4891
5.528000	 56.3664
5.612000	 56.2099
5.696000	 56.1895
5.780000	 55.9089
5.864000	 55.848
5.948000	 55.8289
6.032000	 55.6721
6.116000	 55.4329
6.200000	 55.2036
6.284000	 54.8461
6.368000	 54.8342
6.452000	 54.8261
6.536000	 54.5791
6.620000	 54.7801
6.704000	 54.4404
6.788000	 54.3252
6.872000	 54.2738
6.956000	 54.0751
7.040000	 53.8767
7.124000	 53.6095
7.208000	 53.5954
7.292000	 53.592
7.376000	 53.1489
7.460000	 53.164
7.544000	 53.2014
7.628000	 52.8964
7.712000	 52.9455
7.796000	 52.6529
7.880000	 52.676
7.964000	 52.492
8.048000	 52.496
8.132000	 52.3814
8.216000	 52.1837
8.300000	 52.148
8.384000	 52.0888
8.468000	 51.9393
8.552000	 51.9026
8.635999	 51.7321
8.719999	 51.8139
8.804000	 51.7229
8.888000	 51.6136
8.972000	 51.5293
9.056000	 51.277
9.140000	 51.092
9.224000	 51.2646
9.308000	 51.2269
9.391999	 51.2067
9.475999	 51.293
9.560000	 51.4711
9.644000	 51.0492
9.728000	 50.9193
9.812000	 51.0148
9.896000	 50.6907
9.980000	 50.6371
10.064	50.9898
10.148	50.8028
10.232	50.482
10.316	50.4091
10.4	50.2459
10.484	50.2563
10.568	49.9338
10.652	50.0238
10.736	49.9846
10.82	49.9175
10.904	49.5726
10.988	49.5428
11.072	49.5933
11.156	49.6479
11.24	49.6952
11.324	49.4672
11.408	49.5022
11.492	49.5858
11.576	49.4406
11.66	49.3926
11.744	49.4583
11.828	49.3555
11.912	49.3444
11.996	49.0752
12.08	48.9645
12.164	48.8125
12.248	48.7779
12.332	48.9162
12.416	48.9927
12.5	48.8539
12.584	48.8465
12.668	48.7545
12.752	48.698
12.836	48.6039
12.92	48.567
13.004	48.4244
13.088	48.3863
13.172	48.5717
13.256	48.5141
13.34	48.3047
13.424	48.0693
13.508	47.6898
13.592	47.6849
13.676	47.9437
13.76	47.8765
13.844	47.5817
13.928	47.4328
14.012	47.417
14.096	47.2981
14.18	47.132
14.264	47.1491
14.348	47.2319
14.432	47.1997
14.516	47.1184
14.6	47.014
14.684	46.8836
14.768	46.8159
14.852	46.7373
14.936	46.6861
15.02	46.7684
15.104	46.7817
15.188	46.6004
15.272	46.4968
15.356	46.6519
15.44	46.7798
15.524	46.6332
15.608	46.4251
15.692	46.3987
15.776	46.4583
15.86	46.4296
15.944	46.2828
16.028	46.0295
16.112	45.7599
16.196	45.6315
16.28	45.6292
16.364	45.5963
16.448	45.456
16.532	45.2431
16.616	45.0501
16.7	44.9544
16.784	44.938
16.868	44.9502
16.952	45.0003
17.036	45.1216
17.12	45.313
17.204	45.5276
17.288	45.6497
17.372	45.571
17.456	45.3064
17.54	44.9685
17.624	44.706
17.708	44.6357
17.792	44.7262
17.876	44.7897
17.96	44.6784
18.044	44.4418
18.128	44.2306
18.212	44.1127
18.296	44.0684
18.38	44.0862
18.464	44.1456
18.548	44.1647
18.632	44.0629
18.716	43.8859
18.8	43.7668
18.884	43.7342
18.968	43.645
19.052	43.3404
19.136	42.8513
19.22	42.3996
19.304	42.213
19.388	42.3459
19.472	42.6547
19.556	42.8985
19.64	42.9042
19.724	42.701
19.808	42.513
19.892	42.5833
19.976	42.96
20.06	43.4402
20.144	43.7409
20.228	43.7315
20.312	43.5047
20.396	43.259
20.48	43.143
20.564	43.1922
20.648	43.3619
20.732	43.5844
20.816	43.8055
20.9	43.9708
20.984	44.0025
21.068	43.8274
21.152	43.4301
21.236	42.8931
21.32	42.3646
21.404	41.9655
21.488	41.7201
21.572	41.5586
21.656	41.3851
21.74	41.1477
21.824	40.8647
21.908	40.6006
21.992	40.4267
22.076	40.4019
22.16	40.5662
22.244	40.9334
22.328	41.4586
22.412	42.0178
22.496	42.4301
22.58	42.5517
22.664	42.3472
22.748	41.9322
22.832	41.506
22.916	41.2501
23	41.2259
23.084	41.3782
23.168	41.5758
23.252	41.7024
23.336	41.7013
23.42	41.5903
23.504	41.4068
23.588	41.1969
23.672	41.0126
23.756	40.9113
23.84	40.9473
23.924	41.1338
24.008	41.3924
24.092	41.5492
24.176	41.4333
24.26	40.9036
24.344	39.9506
24.428	38.7735
24.512	37.7792
24.596	37.3579
24.68	37.69
24.764	38.6187
24.848	39.7028
24.932	40.3804
25.016	40.25
25.1	39.2042
25.184	37.4624
25.268	35.4453
25.352	33.5505
25.436	32.0793
25.52	31.2052
25.604	31.0706
25.688	32.0613
25.772	34.738
25.856	39.5016
25.94	46.1279
26.024	53.5301
26.108	59.9578
26.192	63.7977
26.276	64.1502
26.36	61.2733
26.444	56.2398
26.528	50.4249
26.612	44.902
26.696	40.3133
26.78	36.8485
26.864	34.4455
26.948	32.8858
27.028	31.8635