File: Bakgrunnsmateriale/MATLAB/FTIR/ftir_data/subBb/Mapping_121/C-4040-8_e126.asc
PE IR       SPECTRUM    SPECTRUM    ASCII       PEDS        1.60
  -1
C-74D3~1.ASC
17/03/27
21:45:55.00
17/03/27
21:46:22.00
tln
$C-4040-8_e0126$<ebV0>[-23.3,12.1,10.0,0.0,27,1,0]
27.028
64

2002,4.07
MIRTGS : RIGHTBACK : INTERNAL 2
MIR : ON : INTERNAL 2
OPTKBR

0.200000
8
8.000000
FILLER
SINGLE
SPECTRUM
UNLOCKED 256

DOUBLE

COMBINED
1
0
0

0.002000
BACKG

1
0
TRUE
51149
0
LEFT NOT FITTED RIGHT NOT FITTED 0
NONE
NONE
15600
12
4.427000
51148
TRUE
1 0 8 72 0 0 0 0

15798

#HDR
-1
-1
#GR
µM
EGY
2.38419e-05
0.0
2.000000
0.002000
12515
8
2.458306
0.003146
#DATA
2.000000	 0.763607
2.084000	 0.862976
2.168000	 0.924221
2.252000	 1.015750
2.336000	 1.142709
2.420000	 1.229136
2.504000	 1.389997
2.588000	 1.445684
2.672000	 1.547997
2.756000	 1.571377
2.840000	 1.622467
2.924000	 1.585397
3.008000	 1.685232
3.092000	 1.783884
3.176000	 1.813394
3.260000	 1.931483
3.344000	 2.027325
3.428000	 1.837347
3.512000	 2.012611
3.596000	 2.213332
3.680000	 2.251244
3.764000	 2.216946
3.848000	 2.227008
3.932000	 2.292673
4.016000	 2.319689
4.100000	 2.290437
4.184000	 2.248540
4.268000	 2.263896
4.352000	 2.341025
4.436000	 2.379734
4.520000	 2.370593
4.604000	 2.338219
4.688000	 2.332461
4.772000	 2.340124
4.856000	 2.385240
4.940000	 2.442775
5.024000	 2.457184
5.108000	 2.430907
5.192000	 2.401009
5.276000	 2.372681
5.359999	 2.382488
5.444000	 2.402863
5.528000	 2.430522
5.612000	 2.430370
5.696000	 2.402008
5.780000	 2.327910
5.864000	 2.279961
5.948000	 2.240695
6.032000	 2.191950
6.116000	 2.139629
6.200000	 2.009200
6.284000	 2.017525
6.368000	 1.983193
6.452000	 1.956456
6.536000	 2.098660
6.620000	 2.084747
6.704000	 1.690164
6.788000	 1.975215
6.872000	 1.792320
6.956000	 1.863578
7.040000	 1.856497
7.124000	 1.723328
7.208000	 1.786509
7.292000	 1.815663
7.376000	 1.814884
7.460000	 1.816361
7.544000	 1.847737
7.628000	 1.861207
7.712000	 1.853413
7.796000	 1.849964
7.880000	 1.775989
7.964000	 1.759113
8.048000	 1.832759
8.132000	 1.826697
8.216000	 1.784619
8.300000	 1.743757
8.384000	 1.739209
8.468000	 1.711900
8.552000	 1.672046
8.635999	 1.620622
8.719999	 1.604363
8.804000	 1.574278
8.888000	 1.526017
8.972000	 1.468022
9.056000	 1.432676
9.140000	 1.429012
9.224000	 1.433009
9.308000	 1.430676
9.391999	 1.438455
9.475999	 1.359829
9.560000	 1.324174
9.644000	 1.388092
9.728000	 1.368377
9.812000	 1.361209
9.896000	 1.386932
9.980000	 1.401802
10.064	1.399002
10.148	1.385427
10.232	1.370582
10.316	1.346829
10.4	1.320395
10.484	1.292432
10.568	1.272631
10.652	1.258671
10.736	1.241191
10.82	1.218302
10.904	1.200974
10.988	1.177684
11.072	1.160743
11.156	1.150651
11.24	1.128507
11.324	1.078957
11.408	1.032231
11.492	1.046420
11.576	1.082081
11.66	1.091135
11.744	1.085499
11.828	1.079460
11.912	1.059802
11.996	0.993451
12.08	0.881804
12.164	0.852583
12.248	0.914357
12.332	0.946426
12.416	0.949113
12.5	0.948143
12.584	0.954147
12.668	0.970258
12.752	0.982201
12.836	0.983056
12.92	0.978558
13.004	0.972359
13.088	0.967539
13.172	0.964576
13.256	0.957925
13.34	0.949849
13.424	0.943352
13.508	0.939331
13.592	0.930926
13.676	0.915903
13.76	0.900829
13.844	0.887347
13.928	0.875729
14.012	0.865123
14.096	0.851293
14.18	0.834641
14.264	0.817713
14.348	0.798482
14.432	0.769796
14.516	0.739956
14.6	0.729096
14.684	0.732789
14.768	0.733490
14.852	0.728110
14.936	0.720953
15.02	0.713332
15.104	0.705199
15.188	0.696477
15.272	0.686583
15.356	0.675589
15.44	0.664836
15.524	0.655083
15.608	0.646192
15.692	0.637906
15.776	0.629576
15.86	0.620316
15.944	0.610348
16.028	0.600471
16.112	0.591161
16.196	0.581738
16.28	0.569790
16.364	0.554034
16.448	0.538223
16.532	0.528425
16.616	0.525603
16.7	0.525413
16.784	0.523649
16.868	0.520186
16.952	0.516385
17.036	0.512924
17.12	0.509653
17.204	0.506330
17.288	0.502937
17.372	0.499642
17.456	0.496662
17.54	0.494070
17.624	0.491479
17.708	0.488255
17.792	0.484124
17.876	0.479170
17.96	0.473646
18.044	0.468178
18.128	0.463374
18.212	0.459370
18.296	0.455911
18.38	0.452498
18.464	0.448744
18.548	0.444284
18.632	0.439308
18.716	0.434262
18.8	0.429285
18.884	0.424199
18.968	0.418952
19.052	0.413743
19.136	0.408501
19.22	0.402895
19.304	0.396850
19.388	0.390674
19.472	0.384715
19.556	0.379025
19.64	0.373539
19.724	0.368133
19.808	0.362717
19.892	0.357019
19.976	0.350629
20.06	0.343269
20.144	0.335090
20.228	0.326679
20.312	0.318655
20.396	0.311224
20.48	0.304353
20.564	0.297709
20.648	0.291153
20.732	0.284632
20.816	0.278240
20.9	0.272003
20.984	0.265946
21.068	0.260185
21.152	0.254777
21.236	0.249788
21.32	0.245083
21.404	0.240467
21.488	0.235517
21.572	0.229957
21.656	0.223447
21.74	0.215997
21.824	0.207809
21.908	0.199494
21.992	0.191633
22.076	0.184799
22.16	0.179153
22.244	0.174583
22.328	0.170649
22.412	0.166972
22.496	0.163272
22.58	0.159373
22.664	0.155192
22.748	0.150804
22.832	0.146289
22.916	0.141694
23	0.137012
23.084	0.132165
23.168	0.127100
23.252	0.121858
23.336	0.116499
23.42	0.111147
23.504	0.105841
23.588	0.100713
23.672	0.095770
23.756	0.091078
23.84	0.086681
23.924	0.082682
24.008	0.079061
24.092	0.075743
24.176	0.072684
24.26	0.069699
24.344	0.066774
24.428	0.063779
24.512	0.060491
24.596	0.056815
24.68	0.052567
24.764	0.047822
24.848	0.042859
24.932	0.038218
25.016	0.034369
25.1	0.031608
25.184	0.029967
25.268	0.029075
25.352	0.028480
25.436	0.027679
25.52	0.026355
25.604	0.024595
25.688	0.022636
25.772	0.020766
25.856	0.019206
25.94	0.017954
26.024	0.016902
26.108	0.015830
26.192	0.014486
26.276	0.012786
26.36	0.010828
26.444	0.008838
26.528	0.006951
26.612	0.005403
26.696	0.004260
26.78	0.003548
26.864	0.003225
26.948	0.003146
27.028	0.003218