File: Bakgrunnsmateriale/MATLAB/FTIR/ftir_data/subBb/Mapping_121/C-4040-8_t100.asc
PE IR       SPECTRUM    SPECTRUM    ASCII       PEDS        1.60
  -1
C-8CB6~1.ASC
17/03/27
22:42:47.00
17/03/27
22:43:14.00
tln
$C-4040-8_t0100$<tbV0>[13.0,10.4,8.0,0.0,27,1,0]
27.028
64

2002,4.07
MIRTGS : RIGHTBACK : INTERNAL 2
MIR : ON : INTERNAL 2
OPTKBR

0.200000
8
8.000000
FILLER
RATIO
SPECTRUM
UNLOCKED 256

DOUBLE
64
COMBINED
1
0
0

0.002000
RATIO

1
0
TRUE
51149
0
LEFT NOT FITTED RIGHT NOT FITTED 0
NONE
NONE
15600
12
4.427000
51148
TRUE
1 0 8 72 0 0 0 0

15798

#HDR
-1
-1
#GR
µM
%T
2.38419e-05
0.0
2.000000
0.002000
12515
8
185.842
49.7641
#DATA
2.000000	 64.9681
2.084000	 65.0751
2.168000	 65.3228
2.252000	 64.2043
2.336000	 64.3325
2.420000	 65.0558
2.504000	 65.2639
2.588000	 64.8251
2.672000	 65.0297
2.756000	 65.1784
2.840000	 65.1965
2.924000	 65.1232
3.008000	 65.3017
3.092000	 64.9782
3.176000	 65.1948
3.260000	 65.2066
3.344000	 65.2999
3.428000	 65.009
3.512000	 65.2263
3.596000	 65.2977
3.680000	 65.2964
3.764000	 65.3959
3.848000	 65.2269
3.932000	 65.3465
4.016000	 65.5048
4.100000	 65.2721
4.184000	 65.3864
4.268000	 65.2712
4.352000	 65.3602
4.436000	 65.3546
4.520000	 65.3766
4.604000	 65.332
4.688000	 65.3633
4.772000	 65.2616
4.856000	 65.2411
4.940000	 65.4445
5.024000	 65.2474
5.108000	 65.3404
5.192000	 65.4537
5.276000	 65.4471
5.359999	 65.4559
5.444000	 65.416
5.528000	 65.3278
5.612000	 65.3781
5.696000	 65.1362
5.780000	 64.9761
5.864000	 65.4161
5.948000	 65.2547
6.032000	 65.3254
6.116000	 65.2439
6.200000	 65.1791
6.284000	 65.2563
6.368000	 65.2325
6.452000	 65.129
6.536000	 65.1558
6.620000	 65.1345
6.704000	 65.2537
6.788000	 65.2297
6.872000	 65.1179
6.956000	 65.063
7.040000	 65.3453
7.124000	 65.4278
7.208000	 65.1436
7.292000	 65.1805
7.376000	 65.2197
7.460000	 65.0764
7.544000	 65.1557
7.628000	 64.8569
7.712000	 65.1826
7.796000	 65.1758
7.880000	 64.976
7.964000	 65.1318
8.048000	 65.0415
8.132000	 65.0721
8.216000	 65.145
8.300000	 65.0217
8.384000	 65.0721
8.468000	 65.0755
8.552000	 65.1401
8.635999	 65.0489
8.719999	 64.894
8.804000	 65.1289
8.888000	 64.9625
8.972000	 65.1501
9.056000	 65.1319
9.140000	 64.8821
9.224000	 64.7716
9.308000	 64.6253
9.391999	 64.7895
9.475999	 64.7908
9.560000	 65.2523
9.644000	 64.6932
9.728000	 64.6745
9.812000	 64.7375
9.896000	 64.6019
9.980000	 64.6791
10.064	64.8331
10.148	65.1732
10.232	64.8069
10.316	64.8904
10.4	64.8669
10.484	64.8041
10.568	64.8982
10.652	64.8787
10.736	65.1075
10.82	65.2613
10.904	65.5611
10.988	64.8405
11.072	64.4504
11.156	64.3657
11.24	64.6156
11.324	64.7351
11.408	64.6955
11.492	64.7299
11.576	64.7249
11.66	64.9153
11.744	64.9137
11.828	64.3427
11.912	64.0624
11.996	64.5823
12.08	64.7021
12.164	64.2018
12.248	64.238
12.332	64.6454
12.416	64.7516
12.5	64.5575
12.584	64.7156
12.668	64.5629
12.752	64.3588
12.836	64.3516
12.92	64.3599
13.004	64.5042
13.088	64.3354
13.172	63.9434
13.256	64.2432
13.34	64.4772
13.424	63.9446
13.508	63.5331
13.592	63.6643
13.676	63.9574
13.76	63.9824
13.844	63.8412
13.928	63.8502
14.012	63.9255
14.096	64.0578
14.18	64.0435
14.264	63.9577
14.348	63.9682
14.432	64.1134
14.516	64.3113
14.6	64.2743
14.684	64.0763
14.768	63.9484
14.852	63.9337
14.936	63.8175
15.02	63.4714
15.104	63.1181
15.188	62.9715
15.272	63.0756
15.356	63.3287
15.44	63.5283
15.524	63.5579
15.608	63.5155
15.692	63.4841
15.776	63.4102
15.86	63.357
15.944	63.3994
16.028	63.4352
16.112	63.3664
16.196	63.2629
16.28	63.294
16.364	63.4647
16.448	63.5093
16.532	63.3146
16.616	63.0963
16.7	62.9709
16.784	62.8449
16.868	62.7221
16.952	62.6687
17.036	62.6555
17.12	62.6855
17.204	62.8333
17.288	63.0733
17.372	63.2373
17.456	63.2032
17.54	63.0532
17.624	62.9788
17.708	63.0495
17.792	63.1751
17.876	63.3014
17.96	63.4308
18.044	63.4536
18.128	63.1986
18.212	62.6965
18.296	62.2317
18.38	62.0781
18.464	62.2684
18.548	62.5981
18.632	62.7822
18.716	62.6686
18.8	62.3408
18.884	62.0003
18.968	61.7753
19.052	61.6708
19.136	61.6682
19.22	61.7794
19.304	61.9902
19.388	62.23
19.472	62.4212
19.556	62.5167
19.64	62.4825
19.724	62.3221
19.808	62.1219
19.892	62.0335
19.976	62.147
20.06	62.3899
20.144	62.6002
20.228	62.6926
20.312	62.7182
20.396	62.7539
20.48	62.7746
20.564	62.6639
20.648	62.3357
20.732	61.8383
20.816	61.34
20.9	61.0116
20.984	60.923
21.068	61.0177
21.152	61.163
21.236	61.2253
21.32	61.134
21.404	60.9
21.488	60.6083
21.572	60.3676
21.656	60.2701
21.74	60.3523
21.824	60.57
21.908	60.8181
21.992	60.9872
22.076	61.0133
22.16	60.903
22.244	60.7153
22.328	60.5106
22.412	60.3265
22.496	60.1553
22.58	59.9677
22.664	59.7259
22.748	59.3863
22.832	58.9285
22.916	58.3801
23	57.8156
23.084	57.3767
23.168	57.2087
23.252	57.3735
23.336	57.8445
23.42	58.4546
23.504	58.9358
23.588	59.0707
23.672	58.784
23.756	58.1034
23.84	57.0745
23.924	55.741
24.008	54.174
24.092	52.5276
24.176	51.053
24.26	50.0442
24.344	49.7852
24.428	50.4725
24.512	52.206
24.596	55.1201
24.68	59.2355
24.764	64.2115
24.848	69.5639
24.932	74.3098
25.016	77.1397
25.1	76.7893
25.184	72.8732
25.268	66.3901
25.352	59.4163
25.436	54.1374
25.52	51.6882
25.604	51.77
25.688	53.5468
25.772	56.1453
25.856	58.9553
25.94	61.1293
26.024	61.651
26.108	59.7464
26.192	56.5699
26.276	55.3217
26.36	60.864
26.444	76.5255
26.528	102.028
26.612	132.56
26.696	160.83
26.78	179.791
26.864	185.836
26.948	179.712
27.028	166.323