File: Bakgrunnsmateriale/MATLAB/FTIR/ftir_data/subBb/Mapping_121/C-4040-8_t90_cm-1.asc
PE IR       SPECTRUM    SPECTRUM    ASCII       PEDS        1.60
  -1
C-1E61~1.ASC
17/03/27
21:56:01.00
17/03/27
21:56:01.00
tln
$C-4040-8_t0090$<tbV0>[10.4,7.8,8.0,0.0,27,1,0]
370
64

2002,4.07
MIRTGS : RIGHTBACK : INTERNAL 2
MIR : ON : INTERNAL 2
OPTKBR

0.200000
8
8.000000
FILLER
RATIO
SPECTRUM
UNLOCKED 256

DOUBLE
64
COMBINED
1
0
0

1.000000
RATIO

1
0
TRUE
51149
0
LEFT NOT FITTED RIGHT NOT FITTED 0
NONE
NONE
15600
12
4.427000
51148
TRUE
1 0 8 72 0 0 0 0

15798

#HDR
-1
-1
#GR
CM-1
%T
2.38419e-05
0.0
5000
-1.000000
4631
8
163.39
53.4172
#DATA
5000	65.1561
4984	65.1325
4968	64.6783
4952	64.5254
4936	64.7714
4920	64.4968
4904	64.8093
4888	65.0825
4872	64.9821
4856	64.9666
4840	64.5474
4824	65.0356
4808	65.0299
4792	65.5371
4776	65.1126
4760	64.8884
4744	64.8816
4728	65.2718
4712	65.3814
4696	65.634
4680	65.3862
4664	65.2326
4648	65.8914
4632	65.5552
4616	65.3317
4600	65.0287
4584	65.5303
4568	64.7159
4552	65.0033
4536	63.8459
4520	64.2269
4504	64.1952
4488	64.0229
4472	63.801
4456	63.2924
4440	62.8753
4424	63.2679
4408	62.9388
4392	69.6137
4376	67.9836
4360	63.4318
4344	63.8202
4328	63.7635
4312	63.2997
4296	63.461
4280	63.9243
4264	64.4579
4248	64.0192
4232	64.4565
4216	64.648
4200	64.6033
4184	64.9365
4168	64.7741
4152	64.9563
4136	65.4826
4120	65.364
4104	65.6059
4088	65.26
4072	65.1623
4056	65.482
4040	65.338
4024	65.5922
4008	65.4943
3992	65.4038
3976	65.3629
3960	65.2077
3944	65.1995
3928	65.032
3912	65.1133
3896	64.9582
3880	65.2617
3864	65.0352
3848	64.7595
3832	64.8543
3816	64.9072
3800	65.0369
3784	65.3586
3768	65.1758
3752	65.1401
3736	65.2091
3720	65.2858
3704	65.3322
3688	65.4886
3672	65.3512
3656	65.293
3640	65.4334
3624	65.4248
3608	65.1247
3592	65.4037
3576	65.2318
3560	65.4821
3544	65.275
3528	65.4027
3512	65.3615
3496	65.2097
3480	65.1786
3464	64.934
3448	65.342
3432	65.4942
3416	65.2524
3400	65.159
3384	65.0854
3368	65.0519
3352	65.2151
3336	65.2695
3320	65.1698
3304	65.1743
3288	65.3316
3272	65.2865
3256	65.3116
3240	65.2276
3224	65.401
3208	65.3579
3192	65.3881
3176	65.6314
3160	65.5124
3144	65.4775
3128	65.7872
3112	65.1591
3096	65.383
3080	65.2413
3064	65.2256
3048	65.3149
3032	65.4155
3016	65.3741
3000	65.3714
2984	65.2432
2968	65.2054
2952	65.0905
2936	65.1571
2920	64.9392
2904	65.1625
2888	65.1965
2872	65.3011
2856	65.1671
2840	65.2312
2824	65.2774
2808	65.3184
2792	65.5249
2776	65.3362
2760	65.3043
2744	65.3844
2728	65.3223
2712	65.3772
2696	65.3128
2680	65.3321
2664	65.6245
2648	65.2769
2632	65.33
2616	65.3239
2600	65.1565
2584	65.4167
2568	65.3958
2552	65.3905
2536	65.2468
2520	65.2897
2504	65.1271
2488	65.385
2472	65.5646
2456	65.3467
2440	65.1943
2424	64.8229
2408	65.2639
2392	65.3472
2376	65.3693
2360	65.4426
2344	65.3138
2328	65.3858
2312	65.3749
2296	65.4793
2280	65.4954
2264	65.457
2248	65.4418
2232	65.3707
2216	65.3567
2200	65.3875
2184	65.4842
2168	65.4918
2152	65.5258
2136	65.3646
2120	65.3134
2104	65.4152
2088	65.2462
2072	65.9721
2056	65.0842
2040	65.4587
2024	65.3737
2008	65.4146
1992	65.337
1976	65.2859
1960	65.3785
1944	65.3514
1928	65.3102
1912	65.3093
1896	65.4299
1880	65.4204
1864	65.306
1848	65.4337
1832	65.491
1816	65.4766
1800	65.4447
1784	65.2702
1768	65.387
1752	65.2511
1736	65.1653
1720	65.2705
1704	65.2751
1688	65.3798
1672	65.3344
1656	65.3098
1640	65.267
1624	65.2097
1608	65.1908
1592	65.2715
1576	65.2822
1560	65.1747
1544	65.2818
1528	65.2181
1512	65.1657
1496	65.311
1480	65.2337
1464	65.2672
1448	65.3026
1432	65.1259
1416	65.2985
1400	65.3031
1384	65.1711
1368	65.0594
1352	65.1685
1336	65.0721
1320	65.2217
1304	65.0298
1288	65.1394
1272	64.9889
1256	65.0696
1240	65.0067
1224	65.0773
1208	65.1046
1192	65.0266
1176	65.0367
1160	64.9585
1144	64.9091
1128	64.8291
1112	64.8689
1096	64.7027
1080	64.8046
1064	64.8469
1048	65.115
1032	64.9829
1016	64.5935
1000	64.7299
984	 64.7562
968	 64.9863
952	 64.9376
936	 64.1712
920	 64.279
904	 64.1709
888	 64.3714
872	 64.3983
856	 64.6942
840	 64.3547
824	 64.3215
808	 64.3855
792	 64.1471
776	 63.8968
760	 64.3273
744	 63.7265
728	 63.2555
712	 63.274
696	 63.1582
680	 63.2246
664	 63.1864
648	 63.117
632	 62.3868
616	 62.5262
600	 62.9617
584	 62.1355
568	 61.9031
552	 62.1746
536	 61.4777
520	 61.1717
504	 60.4396
488	 60.2701
472	 60.2319
456	 60.7035
440	 59.0619
424	 58.2095
408	 56.1548
392	 54.0424
376	 88.4985
370	 159.689