File: Bakgrunnsmateriale/MATLAB/FTIR/ftir_data/subBb/Mapping_121/C-4040-8_t114_cm-1.asc
PE IR       SPECTRUM    SPECTRUM    ASCII       PEDS        1.60
  -1
C-4909~1.ASC
17/03/27
23:53:38.00
17/03/27
23:53:38.00
tln
$C-4040-8_t0114$<tbV0>[5.2,13.0,8.0,0.0,27,1,0]
370
64

2002,4.07
MIRTGS : RIGHTBACK : INTERNAL 2
MIR : ON : INTERNAL 2
OPTKBR

0.200000
8
8.000000
FILLER
RATIO
SPECTRUM
UNLOCKED 256

DOUBLE
64
COMBINED
1
0
0

1.000000
RATIO

1
0
TRUE
51149
0
LEFT NOT FITTED RIGHT NOT FITTED 0
NONE
NONE
15600
12
4.427000
51148
TRUE
1 0 8 72 0 0 0 0

15798

#HDR
-1
-1
#GR
CM-1
%T
2.38419e-05
0.0
5000
-1.000000
4631
8
96.9612
39.1434
#DATA
5000	64.6216
4984	64.8519
4968	65.4916
4952	65.4668
4936	65.3762
4920	65.2346
4904	64.7953
4888	65.1071
4872	64.5396
4856	65.1202
4840	65.1506
4824	64.6699
4808	65.0828
4792	65.3451
4776	64.6777
4760	64.8165
4744	64.794
4728	64.5259
4712	64.3935
4696	64.6269
4680	64.5405
4664	64.8576
4648	64.9899
4632	64.6719
4616	65.1386
4600	65.318
4584	65.3292
4568	65.7536
4552	65.4665
4536	66.0588
4520	65.781
4504	65.8021
4488	66.1853
4472	66.4286
4456	66.4411
4440	66.3825
4424	67.0072
4408	64.7109
4392	45.289
4376	67.9574
4360	66.8739
4344	66.4623
4328	66.1288
4312	65.9549
4296	65.6938
4280	65.8068
4264	65.6123
4248	65.4163
4232	64.9224
4216	65.5062
4200	65.3625
4184	64.8765
4168	64.864
4152	64.874
4136	64.7747
4120	65.0611
4104	64.3522
4088	64.8742
4072	64.9982
4056	64.7941
4040	64.8041
4024	64.7637
4008	64.8455
3992	65.1462
3976	65.055
3960	65.0803
3944	65.1354
3928	65.1556
3912	65.0452
3896	65.034
3880	65.3649
3864	65.4689
3848	65.2126
3832	65.4344
3816	65.2332
3800	65.315
3784	65.3718
3768	65.077
3752	65.1344
3736	65.3337
3720	65.025
3704	65.2806
3688	65.3019
3672	65.2543
3656	65.1262
3640	65.3534
3624	65.229
3608	65.0725
3592	65.1246
3576	65.2014
3560	65.0394
3544	65.3715
3528	65.2084
3512	65.0183
3496	65.2586
3480	65.2153
3464	65.3458
3448	65.0963
3432	65.0476
3416	65.1088
3400	65.1647
3384	65.1083
3368	65.1937
3352	65.2056
3336	65.036
3320	65.1169
3304	65.0938
3288	65.12
3272	64.9379
3256	65.4924
3240	65.0168
3224	65.2085
3208	65.1324
3192	65.0952
3176	65.1157
3160	65.1773
3144	65.1022
3128	65.4997
3112	65.5811
3096	65.1487
3080	65.4359
3064	65.141
3048	65.188
3032	65.3784
3016	65.2437
3000	65.2319
2984	65.041
2968	65.2915
2952	65.0946
2936	64.9498
2920	64.9358
2904	64.97
2888	65.1595
2872	64.98
2856	64.811
2840	65.1507
2824	65.2511
2808	65.2016
2792	65.0534
2776	65.1082
2760	65.2813
2744	65.1373
2728	65.1904
2712	65.1983
2696	65.3919
2680	65.2249
2664	65.1121
2648	65.2093
2632	65.1372
2616	65.1957
2600	65.228
2584	65.1323
2568	65.1587
2552	65.3507
2536	65.3527
2520	65.2555
2504	65.2327
2488	65.0516
2472	65.2479
2456	65.2951
2440	65.2544
2424	64.834
2408	65.5738
2392	65.1407
2376	65.1608
2360	65.2628
2344	65.3042
2328	65.3237
2312	65.265
2296	65.4171
2280	65.2383
2264	65.335
2248	65.2983
2232	65.2109
2216	65.3517
2200	65.371
2184	65.3502
2168	65.308
2152	65.234
2136	65.1055
2120	65.429
2104	65.4235
2088	65.3338
2072	65.3472
2056	65.0324
2040	65.3302
2024	65.3787
2008	65.3239
1992	65.1139
1976	65.3177
1960	65.2413
1944	65.2657
1928	65.2238
1912	65.4019
1896	65.2275
1880	65.2242
1864	65.2348
1848	65.3383
1832	65.3017
1816	65.1841
1800	65.222
1784	65.2028
1768	65.1811
1752	65.1622
1736	64.838
1720	65.0095
1704	65.1251
1688	65.1721
1672	65.2249
1656	65.1166
1640	65.1511
1624	65.2431
1608	64.997
1592	65.1318
1576	65.0826
1560	65.1426
1544	65.1452
1528	65.239
1512	65.0229
1496	65.1963
1480	65.1929
1464	65.023
1448	64.9662
1432	65.0014
1416	64.9295
1400	65.0052
1384	64.9543
1368	64.8595
1352	65.0844
1336	65.0214
1320	65.114
1304	64.9646
1288	64.8148
1272	64.8651
1256	64.9663
1240	64.8478
1224	64.8665
1208	64.8704
1192	64.938
1176	64.8554
1160	64.9364
1144	64.8
1128	64.8736
1112	64.8484
1096	64.6501
1080	65.0028
1064	64.8206
1048	64.8071
1032	64.8081
1016	64.478
1000	64.5369
984	 64.5901
968	 64.6141
952	 64.6554
936	 64.5331
920	 64.7094
904	 64.8229
888	 64.3271
872	 64.5731
856	 63.9845
840	 64.4982
824	 63.8085
808	 63.4495
792	 64.0817
776	 64.3138
760	 63.6405
744	 64.1212
728	 63.6775
712	 63.4105
696	 63.4776
680	 63.359
664	 63.5164
648	 63.1676
632	 63.5219
616	 63.0718
600	 62.9961
584	 62.7941
568	 62.1863
552	 62.1273
536	 62.9082
520	 61.5443
504	 61.3697
488	 61.1444
472	 60.3437
456	 59.27
440	 59.2608
424	 59.128
408	 60.7796
392	 41.34
376	 83.657
370	 96.9612