File: Bakgrunnsmateriale/MATLAB/FTIR/ftir_data/subBb/Mapping_121/C-4040-8_t14.asc
PE IR       SPECTRUM    SPECTRUM    ASCII       PEDS        1.60
  -1
C-B92A~1.ASC
17/03/27
15:36:10.00
17/03/27
15:36:36.00
tln
$C-4040-8_t0014$<tbV0>[7.8,-10.4,8.0,0.0,27,1,0]
27.028
64

2002,4.07
MIRTGS : RIGHTBACK : INTERNAL 2
MIR : ON : INTERNAL 2
OPTKBR

0.200000
8
8.000000
FILLER
RATIO
SPECTRUM
UNLOCKED 256

DOUBLE
64
COMBINED
1
0
0

0.002000
RATIO

1
0
TRUE
51149
0
LEFT NOT FITTED RIGHT NOT FITTED 0
NONE
NONE
15600
12
4.427000
51148
TRUE
1 0 8 72 0 0 0 0

15798

#HDR
-1
-1
#GR
µM
%T
2.38419e-05
0.0
2.000000
0.002000
12515
8
67.9638
11.8022
#DATA
2.000000	 63.0001
2.084000	 62.6706
2.168000	 62.5859
2.252000	 65.4315
2.336000	 61.5407
2.420000	 61.8206
2.504000	 61.3965
2.588000	 60.8207
2.672000	 60.568
2.756000	 59.8965
2.840000	 58.9711
2.924000	 58.123
3.008000	 57.661
3.092000	 56.6577
3.176000	 56.3387
3.260000	 55.5788
3.344000	 54.8749
3.428000	 53.9374
3.512000	 53.3241
3.596000	 52.666
3.680000	 51.9054
3.764000	 51.1447
3.848000	 50.6244
3.932000	 49.9913
4.016000	 49.2394
4.100000	 48.8069
4.184000	 48.0026
4.268000	 47.2537
4.352000	 46.8917
4.436000	 46.2669
4.520000	 45.7121
4.604000	 45.0498
4.688000	 44.6774
4.772000	 44.0474
4.856000	 43.4266
4.940000	 43.1186
5.024000	 42.721
5.108000	 42.1617
5.192000	 41.8429
5.276000	 41.3135
5.359999	 40.8473
5.444000	 40.5075
5.528000	 40.0827
5.612000	 39.8637
5.696000	 39.3395
5.780000	 39.105
5.864000	 38.6782
5.948000	 38.4859
6.032000	 38.1838
6.116000	 37.7747
6.200000	 37.4655
6.284000	 36.9633
6.368000	 36.8182
6.452000	 36.5304
6.536000	 36.2
6.620000	 36.3045
6.704000	 35.7166
6.788000	 35.4399
6.872000	 35.3681
6.956000	 34.9151
7.040000	 34.7623
7.124000	 34.3892
7.208000	 34.2266
7.292000	 34.0602
7.376000	 33.7788
7.460000	 33.4566
7.544000	 33.2957
7.628000	 33.0773
7.712000	 32.989
7.796000	 32.6251
7.880000	 32.4642
7.964000	 32.2978
8.048000	 32.1408
8.132000	 32.0001
8.216000	 31.9823
8.300000	 31.7972
8.384000	 31.4749
8.468000	 31.3121
8.552000	 31.1838
8.635999	 31.0426
8.719999	 30.9733
8.804000	 30.7473
8.888000	 30.6111
8.972000	 30.435
9.056000	 30.1846
9.140000	 29.9766
9.224000	 30.1428
9.308000	 29.6854
9.391999	 29.7433
9.475999	 29.7551
9.560000	 29.5046
9.644000	 29.1881
9.728000	 29.1311
9.812000	 28.9461
9.896000	 28.905
9.980000	 28.8714
10.064	28.6919
10.148	28.2896
10.232	28.2684
10.316	28.1069
10.4	28.2194
10.484	27.8165
10.568	27.5959
10.652	27.7243
10.736	27.6902
10.82	27.6374
10.904	27.5848
10.988	27.317
11.072	26.4362
11.156	26.8278
11.24	27.2456
11.324	26.7605
11.408	26.8319
11.492	26.9159
11.576	26.6277
11.66	26.1051
11.744	25.9837
11.828	25.5866
11.912	25.4718
11.996	25.5307
12.08	25.4655
12.164	25.5366
12.248	25.4411
12.332	25.2836
12.416	25.251
12.5	24.9933
12.584	24.9014
12.668	24.9393
12.752	25.0667
12.836	24.8818
12.92	24.6568
13.004	24.5356
13.088	24.4981
13.172	24.4687
13.256	24.307
13.34	24.102
13.424	24.075
13.508	24.1502
13.592	23.9106
13.676	23.8347
13.76	23.7388
13.844	23.2992
13.928	22.9728
14.012	22.9804
14.096	22.9907
14.18	22.9616
14.264	23.1052
14.348	23.1706
14.432	22.9423
14.516	22.6476
14.6	22.4547
14.684	22.3321
14.768	22.178
14.852	22.0579
14.936	22.0513
15.02	22.0326
15.104	22.0003
15.188	21.9838
15.272	21.8203
15.356	21.5028
15.44	21.243
15.524	21.1448
15.608	21.1282
15.692	21.0812
15.776	21.0436
15.86	21.1383
15.944	21.2977
16.028	21.2885
16.112	21.0405
16.196	20.7165
16.28	20.4612
16.364	20.2951
16.448	20.2484
16.532	20.342
16.616	20.4411
16.7	20.3638
16.784	20.1255
16.868	19.901
16.952	19.7829
17.036	19.6956
17.12	19.5302
17.204	19.2613
17.288	18.9307
17.372	18.6408
17.456	18.531
17.54	18.6353
17.624	18.8025
17.708	18.843
17.792	18.718
17.876	18.5416
17.96	18.4054
18.044	18.2966
18.128	18.1896
18.212	18.1125
18.296	18.0893
18.38	18.1062
18.464	18.1348
18.548	18.1462
18.632	18.0885
18.716	17.9248
18.8	17.7076
18.884	17.5585
18.968	17.5265
19.052	17.4835
19.136	17.2328
19.22	16.73
19.304	16.185
19.388	15.8896
19.472	15.9595
19.556	16.2473
19.64	16.4974
19.724	16.5709
19.808	16.5061
19.892	16.4125
19.976	16.3449
20.06	16.2785
20.144	16.167
20.228	15.9958
20.312	15.797
20.396	15.6319
20.48	15.5618
20.564	15.6077
20.648	15.7159
20.732	15.7796
20.816	15.7136
20.9	15.5211
20.984	15.2879
21.068	15.1089
21.152	15.0172
21.236	14.9788
21.32	14.935
21.404	14.8522
21.488	14.7321
21.572	14.588
21.656	14.4244
21.74	14.243
21.824	14.0601
21.908	13.9092
21.992	13.8266
22.076	13.8302
22.16	13.9085
22.244	14.0326
22.328	14.175
22.412	14.3244
22.496	14.4758
22.58	14.6088
22.664	14.6911
22.748	14.6929
22.832	14.6106
22.916	14.4889
23	14.3785
23.084	14.3199
23.168	14.3021
23.252	14.2707
23.336	14.181
23.42	14.0225
23.504	13.8171
23.588	13.5994
23.672	13.3818
23.756	13.1331
23.84	12.8116
23.924	12.409
24.008	12.009
24.092	11.8026
24.176	12.011
24.26	12.7446
24.344	13.975
24.428	15.5811
24.512	17.4021
24.596	19.3825
24.68	21.5111
24.764	23.7002
24.848	25.7573
24.932	27.363
25.016	28.1945
25.1	28.0947
25.184	27.105
25.268	25.471
25.352	23.5474
25.436	21.6729
25.52	20.0652
25.604	18.815
25.688	17.9261
25.772	17.395
25.856	17.3014
25.94	17.8559
26.024	19.372
26.108	22.1159
26.192	26.1721
26.276	31.3628
26.36	37.189
26.444	42.9973
26.528	48.1472
26.612	52.2077
26.696	54.9456
26.78	56.3349
26.864	56.5182
26.948	55.8006
27.028	54.7353