File: Bakgrunnsmateriale/MATLAB/FTIR/ftir_data/subBb/Mapping_121/C-4040-8_t48_cm-1.asc
PE IR       SPECTRUM    SPECTRUM    ASCII       PEDS        1.60
  -1
C-9B65~1.ASC
17/03/27
18:27:45.00
17/03/27
18:27:45.00
tln
$C-4040-8_t0048$<tbV0>[5.2,-2.6,8.0,0.0,27,1,0]
370
64

2002,4.07
MIRTGS : RIGHTBACK : INTERNAL 2
MIR : ON : INTERNAL 2
OPTKBR

0.200000
8
8.000000
FILLER
RATIO
SPECTRUM
UNLOCKED 256

DOUBLE
64
COMBINED
1
0
0

1.000000
RATIO

1
0
TRUE
51149
0
LEFT NOT FITTED RIGHT NOT FITTED 0
NONE
NONE
15600
12
4.427000
51148
TRUE
1 0 8 72 0 0 0 0

15798

#HDR
-1
-1
#GR
CM-1
%T
2.38419e-05
0.0
5000
-1.000000
4631
8
97.9028
34.7146
#DATA
5000	65.5016
4984	65.6604
4968	64.5704
4952	65.4822
4936	64.9803
4920	65.3111
4904	65.3056
4888	65.467
4872	65.3752
4856	65.0239
4840	65.0745
4824	64.8601
4808	65.2752
4792	65.2858
4776	65.0085
4760	64.8167
4744	64.6838
4728	64.7349
4712	65.0878
4696	65.2265
4680	64.9811
4664	64.4502
4648	64.803
4632	64.952
4616	65.1544
4600	64.8469
4584	65.0907
4568	65.2144
4552	64.8948
4536	64.3617
4520	64.9875
4504	65.5718
4488	65.199
4472	65.5011
4456	65.7687
4440	65.6661
4424	65.6242
4408	66.4015
4392	65.0919
4376	65.3017
4360	51.9599
4344	72.5547
4328	65.6441
4312	65.7877
4296	65.4811
4280	65.8828
4264	65.2938
4248	64.4841
4232	65.2741
4216	65.2776
4200	65.0828
4184	64.3425
4168	64.5085
4152	65.1289
4136	65.1831
4120	64.9308
4104	64.9492
4088	65.1508
4072	65.081
4056	64.8288
4040	65.1914
4024	65.1097
4008	65.2597
3992	65.0206
3976	65.2236
3960	64.9941
3944	65.0331
3928	65.1035
3912	65.134
3896	65.1469
3880	64.9201
3864	65.1778
3848	65.2982
3832	64.971
3816	65.3332
3800	65.2766
3784	65.2703
3768	65.2009
3752	65.0778
3736	65.373
3720	65.3599
3704	65.2565
3688	65.2967
3672	65.1067
3656	65.2429
3640	65.0707
3624	65.0331
3608	65.2737
3592	65.045
3576	65.4263
3560	65.211
3544	64.9475
3528	65.0841
3512	65.0968
3496	65.287
3480	65.2533
3464	64.93
3448	65.1616
3432	65.4471
3416	65.2385
3400	65.3975
3384	65.2754
3368	65.0922
3352	65.2785
3336	65.3542
3320	65.311
3304	65.1185
3288	65.0629
3272	65.1916
3256	65.1715
3240	65.3169
3224	65.0807
3208	65.3613
3192	64.957
3176	65.4684
3160	65.2359
3144	65.0087
3128	64.8742
3112	65.0714
3096	65.2563
3080	65.1594
3064	65.2636
3048	65.2752
3032	65.2181
3016	65.2189
3000	65.3126
2984	65.0856
2968	65.1324
2952	65.1703
2936	65.1019
2920	65.092
2904	65.1781
2888	65.1569
2872	65.0403
2856	65.0317
2840	65.3321
2824	65.2236
2808	65.1829
2792	65.0614
2776	65.1661
2760	65.3338
2744	65.289
2728	65.22
2712	65.2248
2696	65.1617
2680	65.2585
2664	65.216
2648	65.2185
2632	65.2274
2616	65.2399
2600	65.1467
2584	65.251
2568	65.1655
2552	65.3919
2536	65.2647
2520	65.2508
2504	65.1159
2488	65.1052
2472	65.162
2456	65.2395
2440	65.3225
2424	65.3984
2408	65.2442
2392	65.2305
2376	65.3111
2360	65.2689
2344	65.2236
2328	65.2885
2312	65.0725
2296	65.3535
2280	65.2925
2264	65.3223
2248	65.4272
2232	65.3614
2216	65.2221
2200	65.1938
2184	65.1991
2168	65.2181
2152	65.405
2136	65.1703
2120	65.1753
2104	65.2906
2088	65.1335
2072	65.2894
2056	64.7238
2040	65.226
2024	65.4767
2008	65.2192
1992	65.2098
1976	65.1809
1960	65.0892
1944	65.1818
1928	65.3985
1912	65.327
1896	65.2319
1880	65.2385
1864	65.0961
1848	65.1572
1832	65.321
1816	65.2532
1800	65.1353
1784	65.1864
1768	65.2956
1752	65.0367
1736	65.0745
1720	65.2026
1704	65.216
1688	65.0983
1672	65.0846
1656	65.1438
1640	65.2252
1624	65.2248
1608	65.2231
1592	64.9616
1576	65.1204
1560	64.9301
1544	64.9994
1528	64.9238
1512	64.9122
1496	65.2067
1480	65.0205
1464	64.982
1448	64.8255
1432	64.9205
1416	64.9245
1400	64.9301
1384	65.0221
1368	64.9529
1352	64.8608
1336	65.0501
1320	65.0429
1304	64.9763
1288	64.8565
1272	64.8246
1256	64.9883
1240	64.9554
1224	65.0046
1208	65.0697
1192	64.9766
1176	64.7562
1160	64.8776
1144	65.0251
1128	65.0257
1112	64.6709
1096	64.5248
1080	64.6632
1064	64.6885
1048	64.939
1032	64.9165
1016	64.689
1000	64.9009
984	 64.5976
968	 64.416
952	 64.6213
936	 64.6213
920	 64.6906
904	 64.6636
888	 64.5261
872	 64.4641
856	 64.5815
840	 64.6416
824	 64.2743
808	 64.3658
792	 64.2334
776	 64.2779
760	 64.36
744	 65.0681
728	 63.824
712	 63.8411
696	 63.931
680	 63.5139
664	 63.6015
648	 63.4688
632	 63.6032
616	 63.9371
600	 62.7872
584	 62.8819
568	 62.5986
552	 62.5767
536	 62.4992
520	 62.1991
504	 62.0298
488	 60.4762
472	 60.8086
456	 63.3001
440	 61.5
424	 59.5764
408	 60.813
392	 97.7888
376	 59.915
370	 34.7146