File: Bakgrunnsmateriale/MATLAB/FTIR/ftir_data/subBb/Mapping_121/C-4040-8_t81_cm-1.asc
PE IR       SPECTRUM    SPECTRUM    ASCII       PEDS        1.60
  -1
C-9DE4~1.ASC
17/03/27
21:08:01.00
17/03/27
21:08:01.00
tln
$C-4040-8_t0081$<tbV0>[5.2,5.2,8.0,0.0,27,1,0]
370
64

2002,4.07
MIRTGS : RIGHTBACK : INTERNAL 2
MIR : ON : INTERNAL 2
OPTKBR

0.200000
8
8.000000
FILLER
RATIO
SPECTRUM
UNLOCKED 256

DOUBLE
64
COMBINED
1
0
0

1.000000
RATIO

1
0
TRUE
51149
0
LEFT NOT FITTED RIGHT NOT FITTED 0
NONE
NONE
15600
12
4.427000
51148
TRUE
1 0 8 72 0 0 0 0

15798

#HDR
-1
-1
#GR
CM-1
%T
2.38419e-05
0.0
5000
-1.000000
4631
8
110.557
55.7271
#DATA
5000	65.3626
4984	64.6784
4968	64.5818
4952	66.0656
4936	64.5394
4920	64.8378
4904	65.0467
4888	64.5076
4872	64.8824
4856	65.1977
4840	64.7654
4824	65.2992
4808	65.5747
4792	65.0693
4776	65.2361
4760	64.7874
4744	64.9738
4728	65.3111
4712	65.4018
4696	65.1622
4680	65.1263
4664	65.1176
4648	65.6625
4632	65.2868
4616	65.291
4600	64.8214
4584	65.2886
4568	65.1441
4552	64.9316
4536	64.6738
4520	65.073
4504	64.3773
4488	65.0262
4472	64.374
4456	65.194
4440	64.9239
4424	64.4377
4408	63.6888
4392	60.2962
4376	90.2703
4360	63.3341
4344	65.2141
4328	64.89
4312	65.2908
4296	65.0682
4280	64.5437
4264	64.9667
4248	64.7408
4232	64.7578
4216	64.8403
4200	65.2541
4184	66.4332
4168	64.7167
4152	65.372
4136	65.1887
4120	65.1333
4104	65.1811
4088	65.0508
4072	65.0812
4056	65.1593
4040	65.397
4024	65.4214
4008	65.2823
3992	65.5548
3976	65.0513
3960	65.2515
3944	65.1975
3928	65.4375
3912	65.1846
3896	65.4296
3880	65.0353
3864	65.3248
3848	65.0388
3832	65.3487
3816	65.2368
3800	65.0714
3784	65.2491
3768	65.2013
3752	65.1652
3736	65.1078
3720	65.1937
3704	65.0909
3688	64.9829
3672	65.2958
3656	65.1898
3640	65.5201
3624	65.2464
3608	65.2501
3592	65.2839
3576	65.1493
3560	65.2846
3544	65.307
3528	65.2842
3512	65.126
3496	65.4307
3480	65.3757
3464	65.0702
3448	65.2562
3432	65.4424
3416	65.2623
3400	65.0416
3384	65.39
3368	65.2219
3352	65.1006
3336	65.1925
3320	65.4226
3304	65.3209
3288	65.0777
3272	65.1889
3256	65.3483
3240	65.1613
3224	65.148
3208	65.3244
3192	65.4277
3176	65.1289
3160	65.1366
3144	65.442
3128	65.1218
3112	64.841
3096	65.2659
3080	65.2088
3064	65.3888
3048	65.2767
3032	65.2668
3016	65.03
3000	65.1919
2984	65.1095
2968	65.1
2952	64.9757
2936	64.9971
2920	64.8996
2904	65.2307
2888	65.1991
2872	65.335
2856	65.1687
2840	64.9804
2824	65.3636
2808	65.2116
2792	65.2299
2776	65.3988
2760	65.3942
2744	65.4231
2728	65.4048
2712	65.374
2696	65.4321
2680	65.3389
2664	65.3522
2648	65.2411
2632	65.3636
2616	65.3116
2600	65.3531
2584	65.184
2568	65.2003
2552	65.3314
2536	65.3852
2520	65.4207
2504	65.268
2488	65.1882
2472	65.4073
2456	65.447
2440	65.3737
2424	64.8826
2408	65.3049
2392	65.2993
2376	65.3051
2360	65.3126
2344	65.269
2328	65.2986
2312	65.316
2296	65.3445
2280	65.3027
2264	65.3214
2248	65.2983
2232	65.3984
2216	65.36
2200	65.261
2184	65.2365
2168	65.3749
2152	65.3081
2136	65.0985
2120	65.2264
2104	65.4995
2088	65.3813
2072	65.6512
2056	65.3608
2040	65.4653
2024	65.5194
2008	65.2835
1992	65.289
1976	65.2874
1960	65.3255
1944	65.3864
1928	65.3145
1912	65.4324
1896	65.2866
1880	65.3035
1864	65.3038
1848	65.1953
1832	65.4075
1816	65.396
1800	65.3381
1784	65.3834
1768	65.3733
1752	65.363
1736	65.1121
1720	65.4382
1704	65.2163
1688	65.5044
1672	65.3301
1656	65.3533
1640	65.1716
1624	65.1796
1608	65.3636
1592	65.1704
1576	65.2593
1560	65.1772
1544	65.0475
1528	65.0012
1512	65.1305
1496	65.2236
1480	65.1918
1464	64.9827
1448	65.035
1432	65.3133
1416	65.2282
1400	65.1999
1384	65.0926
1368	65.0462
1352	64.9355
1336	65.2829
1320	65.2163
1304	65.098
1288	65.0264
1272	65.0935
1256	64.9692
1240	64.8611
1224	64.955
1208	65.102
1192	64.989
1176	64.9317
1160	64.8957
1144	64.763
1128	64.9979
1112	64.8295
1096	64.8888
1080	65.0383
1064	64.6349
1048	64.6136
1032	64.7857
1016	64.8505
1000	64.4486
984	 64.7445
968	 64.5162
952	 64.7786
936	 64.9937
920	 65.359
904	 65.0043
888	 64.6194
872	 64.0772
856	 64.3608
840	 64.7018
824	 64.5744
808	 64.3248
792	 64.0194
776	 64.0893
760	 64.337
744	 64.2429
728	 64.4536
712	 63.771
696	 63.457
680	 63.3626
664	 63.0995
648	 63.2206
632	 62.6261
616	 62.738
600	 63.497
584	 62.893
568	 62.9604
552	 62.67
536	 62.8205
520	 62.3267
504	 61.7631
488	 60.3959
472	 60.6832
456	 59.9588
440	 59.3678
424	 56.5596
408	 62.8774
392	 76.0647
376	 60.96
370	 110.557