File: Bakgrunnsmateriale/MATLAB/FTIR/ftir_data/subBb/Mapping_121/C-4040-8_e124_cm-1.asc
PE IR       SPECTRUM    SPECTRUM    ASCII       PEDS        1.60
  -1
C-39CF~1.ASC
17/03/27
18:08:11.00
17/03/27
18:08:11.00
tln
$C-4040-8_e0124$<ebV0>[-23.3,12.1,10.0,0.0,27,1,0]
370
64

2002,4.07
MIRTGS : RIGHTBACK : INTERNAL 2
MIR : ON : INTERNAL 2
OPTKBR

0.200000
8
8.000000
FILLER
SINGLE
SPECTRUM
UNLOCKED 256

DOUBLE

COMBINED
1
0
0

1.000000
BACKG

1
0
TRUE
51149
0
LEFT NOT FITTED RIGHT NOT FITTED 0
NONE
NONE
15600
12
4.427000
51148
TRUE
1 0 8 72 0 0 0 0

15798

#HDR
-1
-1
#GR
CM-1
EGY
2.38419e-05
0.0
5000
-1.000000
4631
8
2.460765
0.007486
#DATA
5000	0.766897
4984	0.771284
4968	0.780320
4952	0.787615
4936	0.790977
4920	0.797915
4904	0.801610
4888	0.813961
4872	0.822973
4856	0.831508
4840	0.839328
4824	0.849866
4808	0.859284
4792	0.868582
4776	0.878620
4760	0.889778
4744	0.897908
4728	0.901556
4712	0.900912
4696	0.905036
4680	0.906944
4664	0.912690
4648	0.914216
4632	0.919628
4616	0.929021
4600	0.935316
4584	0.946187
4568	0.960135
4552	0.974845
4536	0.985002
4520	0.989770
4504	0.994706
4488	1.001596
4472	1.002669
4456	1.004099
4440	1.004838
4424	1.001715
4408	1.002383
4392	1.014280
4376	1.014018
4360	1.144313
4344	1.067566
4328	1.082515
4312	1.100826
4296	1.118588
4280	1.129579
4264	1.147770
4248	1.166963
4232	1.175594
4216	1.181244
4200	1.192498
4184	1.206254
4168	1.208424
4152	1.215434
4136	1.226687
4120	1.241898
4104	1.257848
4088	1.276159
4072	1.296567
4056	1.322698
4040	1.342844
4024	1.363086
4008	1.379108
3992	1.392340
3976	1.403284
3960	1.410770
3944	1.413917
3928	1.421403
3912	1.425075
3896	1.427817
3880	1.438999
3864	1.446056
3848	1.459193
3832	1.484036
3816	1.493716
3800	1.512241
3784	1.533913
3768	1.549077
3752	1.546072
3736	1.558065
3720	1.570582
3704	1.574659
3688	1.566195
3672	1.562881
3656	1.569986
3640	1.577830
3624	1.579451
3608	1.586294
3592	1.596784
3576	1.602625
3560	1.615357
3544	1.622724
3528	1.623582
3512	1.628708
3496	1.624155
3480	1.611781
3464	1.603865
3448	1.594209
3432	1.582860
3416	1.586818
3400	1.594972
3384	1.605987
3368	1.621723
3352	1.646637
3336	1.667475
3320	1.690459
3304	1.717853
3288	1.740074
3272	1.755833
3256	1.766037
3240	1.783299
3224	1.787066
3208	1.790428
3192	1.795125
3176	1.793408
3160	1.804876
3144	1.820755
3128	1.835465
3112	1.858782
3096	1.883172
3080	1.916790
3064	1.935839
3048	1.962661
3032	1.978230
3016	1.963734
3000	2.025651
2984	2.025198
2968	1.956892
2952	1.917099
2936	1.813864
2920	1.802349
2904	1.943969
2888	1.994919
2872	1.982593
2856	1.928758
2840	2.069115
2824	2.131247
2808	2.167463
2792	2.196335
2776	2.225327
2760	2.244544
2744	2.253103
2728	2.256631
2712	2.253317
2696	2.245020
2680	2.235531
2664	2.222466
2648	2.215981
2632	2.216386
2616	2.218198
2600	2.224779
2584	2.239322
2568	2.264833
2552	2.281332
2536	2.304387
2520	2.318263
2504	2.325844
2488	2.328872
2472	2.319478
2456	2.304029
2440	2.286124
2424	2.263450
2408	2.258205
2392	2.248430
2376	2.242326
2360	2.236294
2344	2.264237
2328	2.284431
2312	2.321004
2296	2.343297
2280	2.365803
2264	2.376890
2248	2.377104
2232	2.377915
2216	2.371716
2200	2.362370
2184	2.347373
2168	2.338385
2152	2.332735
2136	2.333593
2120	2.336859
2104	2.339315
2088	2.339792
2072	2.361392
2056	2.394008
2040	2.425956
2024	2.443766
2008	2.455949
1992	2.458548
1976	2.445673
1960	2.437019
1944	2.419042
1928	2.405261
1912	2.387189
1896	2.371740
1880	2.375340
1864	2.385115
1848	2.395820
1832	2.406620
1816	2.426242
1800	2.432823
1784	2.432680
1768	2.414011
1752	2.387714
1736	2.329874
1720	2.311921
1704	2.274012
1688	2.252531
1672	2.227044
1656	2.181816
1640	2.156472
1624	2.106070
1608	1.975131
1592	2.019286
1576	1.982307
1560	1.933908
1544	1.958918
1528	2.110266
1512	2.093529
1496	1.701569
1480	1.959776
1464	1.936769
1448	1.787567
1432	1.871204
1416	1.843309
1400	1.730895
1384	1.783871
1368	1.816320
1352	1.814436
1336	1.827669
1320	1.852989
1304	1.854419
1288	1.853656
1272	1.805210
1256	1.755762
1240	1.833295
1224	1.813673
1208	1.746916
1192	1.738977
1176	1.698493
1160	1.626205
1144	1.592135
1128	1.539158
1112	1.457595
1096	1.427531
1080	1.423501
1064	1.435208
1048	1.307916
1032	1.379823
1016	1.369166
1000	1.396751
984	 1.381826
968	 1.344585
952	 1.286220
936	 1.252484
920	 1.213717
904	 1.161193
888	 1.120233
872	 1.038718
856	 1.091432
840	 1.059865
824	 0.844812
808	 0.946331
792	 0.961160
776	 0.977158
760	 0.962996
744	 0.938391
728	 0.903797
712	 0.854706
696	 0.786995
680	 0.736498
664	 0.708913
648	 0.666522
632	 0.624346
616	 0.574350
600	 0.524115
584	 0.510978
568	 0.494313
552	 0.465917
536	 0.437879
520	 0.401854
504	 0.359439
488	 0.305247
472	 0.253725
456	 0.196337
440	 0.150728
424	 0.097751
408	 0.053715
392	 0.020742
376	 0.008678
370	 0.007486