File: Bakgrunnsmateriale/MATLAB/FTIR/ftir_data/subBb/Mapping_121/C-4040-8_t41_cm-1.asc
PE IR       SPECTRUM    SPECTRUM    ASCII       PEDS        1.60
  -1
C-9BE4~1.ASC
17/03/27
17:48:30.00
17/03/27
17:48:30.00
tln
$C-4040-8_t0041$<tbV0>[-5.2,-5.2,8.0,0.0,27,1,0]
370
64

2002,4.07
MIRTGS : RIGHTBACK : INTERNAL 2
MIR : ON : INTERNAL 2
OPTKBR

0.200000
8
8.000000
FILLER
RATIO
SPECTRUM
UNLOCKED 256

DOUBLE
64
COMBINED
1
0
0

1.000000
RATIO

1
0
TRUE
51149
0
LEFT NOT FITTED RIGHT NOT FITTED 0
NONE
NONE
15600
12
4.427000
51148
TRUE
1 0 8 72 0 0 0 0

15798

#HDR
-1
-1
#GR
CM-1
%T
2.38419e-05
0.0
5000
-1.000000
4631
8
79.0084
16.2824
#DATA
5000	63.6328
4984	63.3846
4968	63.7909
4952	64.1668
4936	63.4201
4920	63.4906
4904	63.5592
4888	63.6544
4872	63.7099
4856	63.7778
4840	63.4151
4824	63.7295
4808	63.5083
4792	63.4938
4776	63.4046
4760	63.9882
4744	64.1734
4728	63.7114
4712	63.7347
4696	63.7447
4680	63.6475
4664	63.7254
4648	63.6602
4632	63.9901
4616	63.7306
4600	63.7417
4584	63.7371
4568	63.3613
4552	63.1368
4536	63.0807
4520	63.3197
4504	63.194
4488	62.8025
4472	62.6452
4456	62.9246
4440	62.7892
4424	62.3564
4408	62.2182
4392	62.9024
4376	63.1664
4360	67.9719
4344	64.5819
4328	62.8071
4312	62.767
4296	62.5498
4280	62.3116
4264	62.3236
4248	62.5216
4232	62.511
4216	62.6349
4200	62.8904
4184	62.4578
4168	62.8082
4152	62.5654
4136	62.9871
4120	62.9038
4104	62.7448
4088	62.681
4072	62.7349
4056	62.7333
4040	62.8031
4024	62.6334
4008	62.6762
3992	62.6885
3976	62.8009
3960	62.475
3944	62.4245
3928	62.3606
3912	62.307
3896	62.4958
3880	62.6196
3864	61.9372
3848	62.1431
3832	61.9781
3816	61.9772
3800	61.8816
3784	61.7203
3768	61.9837
3752	61.8538
3736	61.6717
3720	61.7964
3704	61.6956
3688	61.6309
3672	61.5991
3656	61.6613
3640	61.4016
3624	61.4769
3608	61.3648
3592	61.289
3576	61.3578
3560	61.2506
3544	61.07
3528	61.0812
3512	61.0301
3496	60.8653
3480	60.8762
3464	60.7684
3448	60.752
3432	60.5131
3416	60.3274
3400	60.2465
3384	60.0995
3368	60.295
3352	60.145
3336	60.0084
3320	60.0887
3304	59.838
3288	59.8669
3272	59.6345
3256	59.6034
3240	59.5644
3224	59.4597
3208	59.1979
3192	59.1793
3176	59.3988
3160	58.883
3144	58.7705
3128	58.6666
3112	59.0688
3096	58.7156
3080	58.6274
3064	58.4121
3048	58.3121
3032	58.3559
3016	58.0501
3000	57.9795
2984	57.7914
2968	57.6777
2952	57.4463
2936	57.3697
2920	57.0798
2904	57.2221
2888	57.0647
2872	57.0584
2856	56.6311
2840	56.8177
2824	56.6949
2808	56.5933
2792	56.4186
2776	56.2474
2760	56.2508
2744	56.1651
2728	55.8501
2712	55.8419
2696	55.7396
2680	55.5186
2664	55.3375
2648	55.2088
2632	55.1225
2616	55.0815
2600	54.7592
2584	54.6355
2568	54.5328
2552	54.3316
2536	54.2311
2520	54.0307
2504	53.8563
2488	53.7247
2472	53.5604
2456	53.4427
2440	53.2026
2424	53.024
2408	52.8769
2392	52.8232
2376	52.5789
2360	52.4556
2344	52.3577
2328	52.1602
2312	52.0293
2296	51.7897
2280	51.6363
2264	51.4729
2248	51.3636
2232	51.2156
2216	50.8973
2200	50.9107
2184	50.6628
2168	50.4651
2152	50.2512
2136	50.1378
2120	49.9369
2104	49.8524
2088	49.756
2072	49.5266
2056	49.4004
2040	49.0977
2024	48.9288
2008	48.7436
1992	48.6992
1976	48.3967
1960	48.2298
1944	48.042
1928	47.881
1912	47.5944
1896	47.3516
1880	47.3039
1864	47.0226
1848	46.8623
1832	46.6952
1816	46.6274
1800	46.3842
1784	46.2125
1768	45.9491
1752	45.7522
1736	45.3937
1720	45.2394
1704	45.3169
1688	45.0406
1672	44.8422
1656	44.5264
1640	44.3953
1624	44.2466
1608	44.1598
1592	43.88
1576	43.4861
1560	43.3575
1544	43.3424
1528	43.0241
1512	42.9287
1496	42.8091
1480	42.5835
1464	42.3155
1448	42.2604
1432	42.0063
1416	41.8184
1400	41.6206
1384	41.2858
1368	41.1136
1352	40.9469
1336	40.8218
1320	40.6105
1304	40.3176
1288	40.2034
1272	40.0351
1256	39.8342
1240	39.6302
1224	39.4365
1208	39.2316
1192	39.0995
1176	39.0707
1160	38.7738
1144	38.3105
1128	38.1198
1112	37.9682
1096	38.0691
1080	37.7038
1064	37.2747
1048	37.269
1032	37.106
1016	37.0366
1000	36.3075
984	 36.4706
968	 35.9448
952	 35.8187
936	 35.5478
920	 35.4376
904	 35.0755
888	 35.0971
872	 34.5496
856	 34.3284
840	 34.0355
824	 33.8114
808	 33.4333
792	 33.3015
776	 32.8434
760	 32.6067
744	 32.0086
728	 31.5146
712	 31.3839
696	 30.8428
680	 30.4394
664	 29.8672
648	 29.687
632	 28.984
616	 28.5002
600	 28.6077
584	 27.7322
568	 27.3825
552	 26.6839
536	 26.1188
520	 25.6875
504	 24.5091
488	 24.2656
472	 22.8624
456	 22.9093
440	 21.8961
424	 18.5693
408	 18.3655
392	 25.8173
376	 45.8916
370	 62.3085