File: Bakgrunnsmateriale/MATLAB/FTIR/ftir_data/subBb/Mapping_121/C-4040-8_t11.asc
PE IR       SPECTRUM    SPECTRUM    ASCII       PEDS        1.60
  -1
C-A92E~1.ASC
17/03/27
15:21:42.00
17/03/27
15:22:09.00
tln
$C-4040-8_t0011$<tbV0>[-13.0,-13.0,8.0,0.0,27,1,0]
27.028
64

2002,4.07
MIRTGS : RIGHTBACK : INTERNAL 2
MIR : ON : INTERNAL 2
OPTKBR

0.200000
8
8.000000
FILLER
RATIO
SPECTRUM
UNLOCKED 256

DOUBLE
64
COMBINED
1
0
0

0.002000
RATIO

1
0
TRUE
51149
0
LEFT NOT FITTED RIGHT NOT FITTED 0
NONE
NONE
15600
12
4.427000
51148
TRUE
1 0 8 72 0 0 0 0

15798

#HDR
-1
-1
#GR
µM
%T
2.38419e-05
0.0
2.000000
0.002000
12515
8
86.5067
40.4221
#DATA
2.000000	 64.5423
2.084000	 64.8924
2.168000	 65.2846
2.252000	 67.5837
2.336000	 64.7496
2.420000	 65.1062
2.504000	 65.1824
2.588000	 65.111
2.672000	 65.2084
2.756000	 65.2138
2.840000	 65.0435
2.924000	 64.7833
3.008000	 64.7692
3.092000	 64.6662
3.176000	 64.8823
3.260000	 64.7788
3.344000	 64.7058
3.428000	 64.4643
3.512000	 64.5801
3.596000	 64.693
3.680000	 64.6419
3.764000	 64.5399
3.848000	 64.4992
3.932000	 64.4928
4.016000	 64.4994
4.100000	 64.4531
4.184000	 64.5337
4.268000	 64.4151
4.352000	 64.4328
4.436000	 64.3526
4.520000	 64.3998
4.604000	 64.3683
4.688000	 64.2695
4.772000	 64.2654
4.856000	 64.2141
4.940000	 64.1036
5.024000	 64.1407
5.108000	 64.0143
5.192000	 64.121
5.276000	 64.1141
5.359999	 64.0779
5.444000	 63.9479
5.528000	 63.9418
5.612000	 64.0256
5.696000	 63.9223
5.780000	 63.8288
5.864000	 64.0159
5.948000	 64.079
6.032000	 64.1184
6.116000	 63.9921
6.200000	 63.6771
6.284000	 63.6777
6.368000	 63.784
6.452000	 63.7018
6.536000	 63.8159
6.620000	 63.9478
6.704000	 63.6922
6.788000	 63.7425
6.872000	 63.8661
6.956000	 63.7406
7.040000	 63.5737
7.124000	 63.5207
7.208000	 63.5109
7.292000	 63.4916
7.376000	 63.374
7.460000	 63.4078
7.544000	 63.2661
7.628000	 63.1707
7.712000	 63.1985
7.796000	 63.1059
7.880000	 63.104
7.964000	 63.0864
8.048000	 63.0429
8.132000	 63.131
8.216000	 63.0357
8.300000	 63.153
8.384000	 63.0967
8.468000	 63.0009
8.552000	 63.1618
8.635999	 63.0471
8.719999	 62.9916
8.804000	 62.8068
8.888000	 62.9902
8.972000	 62.9002
9.056000	 62.7591
9.140000	 62.8658
9.224000	 62.9177
9.308000	 62.8919
9.391999	 62.8911
9.475999	 62.847
9.560000	 62.8656
9.644000	 62.8166
9.728000	 62.8514
9.812000	 62.9186
9.896000	 62.8636
9.980000	 62.7524
10.064	62.7836
10.148	62.7522
10.232	62.5097
10.316	62.5991
10.4	62.5205
10.484	62.5837
10.568	62.5497
10.652	62.532
10.736	62.2371
10.82	62.1108
10.904	62.3681
10.988	62.576
11.072	62.6542
11.156	62.766
11.24	62.5576
11.324	62.0898
11.408	62.4743
11.492	62.2635
11.576	62.0903
11.66	62.2409
11.744	62.3245
11.828	62.2482
11.912	62.0616
11.996	61.9124
12.08	61.9631
12.164	61.9339
12.248	61.9343
12.332	61.957
12.416	61.9595
12.5	61.834
12.584	61.8309
12.668	61.8705
12.752	61.9091
12.836	61.9764
12.92	61.9473
13.004	61.7535
13.088	61.5242
13.172	61.8185
13.256	62.099
13.34	61.932
13.424	61.9229
13.508	61.716
13.592	61.4277
13.676	61.3696
13.76	61.1913
13.844	61.092
13.928	61.3491
14.012	61.3878
14.096	61.1519
14.18	61.1643
14.264	61.3147
14.348	61.349
14.432	61.1738
14.516	60.9467
14.6	60.9286
14.684	60.9546
14.768	60.9191
14.852	60.8997
14.936	60.8544
15.02	60.8432
15.104	60.9068
15.188	60.9784
15.272	60.9811
15.356	60.8956
15.44	60.8911
15.524	61.0102
15.608	61.0785
15.692	61.0788
15.776	61.0341
15.86	60.9371
15.944	60.8732
16.028	60.8119
16.112	60.7028
16.196	60.7229
16.28	60.9444
16.364	61.1242
16.448	61.066
16.532	60.8721
16.616	60.6853
16.7	60.5095
16.784	60.3879
16.868	60.4294
16.952	60.58
17.036	60.6772
17.12	60.7112
17.204	60.7765
17.288	60.8523
17.372	60.8518
17.456	60.7669
17.54	60.637
17.624	60.5378
17.708	60.563
17.792	60.6947
17.876	60.7762
17.96	60.6593
18.044	60.3488
18.128	60.0136
18.212	59.8335
18.296	59.8392
18.38	59.8967
18.464	59.8482
18.548	59.6647
18.632	59.4659
18.716	59.4212
18.8	59.6041
18.884	59.8877
18.968	60.0131
19.052	59.8071
19.136	59.365
19.22	58.9773
19.304	58.8732
19.388	59.0537
19.472	59.3489
19.556	59.5542
19.64	59.5408
19.724	59.3335
19.808	59.1277
19.892	59.1809
19.976	59.592
20.06	60.1683
20.144	60.5529
20.228	60.5161
20.312	60.1157
20.396	59.6113
20.48	59.2638
20.564	59.1985
20.648	59.3795
20.732	59.6698
20.816	59.9164
20.9	59.9981
20.984	59.8476
21.068	59.4633
21.152	58.9126
21.236	58.3228
21.32	57.8359
21.404	57.5336
21.488	57.4038
21.572	57.3576
21.656	57.3114
21.74	57.2492
21.824	57.2093
21.908	57.2226
21.992	57.2641
22.076	57.2705
22.16	57.207
22.244	57.1159
22.328	57.0944
22.412	57.2082
22.496	57.4159
22.58	57.5728
22.664	57.5075
22.748	57.129
22.832	56.4975
22.916	55.7905
23	55.2259
23.084	54.9579
23.168	55.0288
23.252	55.3705
23.336	55.8582
23.42	56.3887
23.504	56.9145
23.588	57.4335
23.672	57.9592
23.756	58.5019
23.84	59.0018
23.924	59.3691
24.008	59.4842
24.092	59.2074
24.176	58.4646
24.26	57.3226
24.344	55.9503
24.428	54.5615
24.512	53.4681
24.596	52.9334
24.68	53.0258
24.764	53.5434
24.848	54.1159
24.932	54.4381
25.016	54.5013
25.1	54.6705
25.184	55.3416
25.268	56.7145
25.352	58.7707
25.436	61.5964
25.52	65.4108
25.604	70.3765
25.688	76.1909
25.772	81.8128
25.856	85.6704
25.94	86.2518
26.024	82.6927
26.108	75.2994
26.192	65.5209
26.276	55.4333
26.36	47.1425
26.444	42.0025
26.528	40.4225
26.612	42.0094
26.696	46.2222
26.78	52.7658
26.864	61.7237
26.948	73.1039
27.028	85.3617