File: Bakgrunnsmateriale/MATLAB/FTIR/ftir_data/subBb/Mapping_121/C-4040-8_t50.asc
PE IR       SPECTRUM    SPECTRUM    ASCII       PEDS        1.60
  -1
C-A93A~1.ASC
17/03/27
18:36:59.00
17/03/27
18:37:25.00
tln
$C-4040-8_t0050$<tbV0>[0.0,-2.6,8.0,0.0,27,1,0]
27.028
64

2002,4.07
MIRTGS : RIGHTBACK : INTERNAL 2
MIR : ON : INTERNAL 2
OPTKBR

0.200000
8
8.000000
FILLER
RATIO
SPECTRUM
UNLOCKED 256

DOUBLE
64
COMBINED
1
0
0

0.002000
RATIO

1
0
TRUE
51149
0
LEFT NOT FITTED RIGHT NOT FITTED 0
NONE
NONE
15600
12
4.427000
51148
TRUE
1 0 8 72 0 0 0 0

15798

#HDR
-1
-1
#GR
µM
%T
2.38419e-05
0.0
2.000000
0.002000
12515
8
77.02
24.585
#DATA
2.000000	 63.8391
2.084000	 64.0724
2.168000	 63.8091
2.252000	 63.8137
2.336000	 63.9908
2.420000	 63.0387
2.504000	 63.0847
2.588000	 63.0655
2.672000	 62.7231
2.756000	 62.3307
2.840000	 62.1055
2.924000	 61.893
3.008000	 61.5718
3.092000	 61.165
3.176000	 60.7527
3.260000	 60.5101
3.344000	 60.1218
3.428000	 59.3324
3.512000	 59.1842
3.596000	 58.9844
3.680000	 58.635
3.764000	 58.3324
3.848000	 57.9804
3.932000	 57.5952
4.016000	 57.3721
4.100000	 56.7884
4.184000	 56.723
4.268000	 56.2828
4.352000	 56.0481
4.436000	 55.8241
4.520000	 55.4655
4.604000	 55.0332
4.688000	 54.8995
4.772000	 54.6896
4.856000	 54.292
4.940000	 54.1383
5.024000	 53.9473
5.108000	 53.609
5.192000	 53.4438
5.276000	 53.3237
5.359999	 52.8847
5.444000	 52.6743
5.528000	 52.5276
5.612000	 52.288
5.696000	 52.0715
5.780000	 51.7453
5.864000	 51.7038
5.948000	 51.6367
6.032000	 51.3296
6.116000	 51.1697
6.200000	 50.8762
6.284000	 50.7411
6.368000	 50.533
6.452000	 50.4661
6.536000	 50.2422
6.620000	 50.1434
6.704000	 50.1856
6.788000	 49.9539
6.872000	 49.431
6.956000	 49.6854
7.040000	 49.6359
7.124000	 49.3161
7.208000	 49.1674
7.292000	 49.3102
7.376000	 49.1387
7.460000	 48.8079
7.544000	 48.8324
7.628000	 48.6764
7.712000	 48.5006
7.796000	 48.4117
7.880000	 48.2286
7.964000	 48.2738
8.048000	 48.1917
8.132000	 47.9474
8.216000	 47.8431
8.300000	 47.7423
8.384000	 48.0197
8.468000	 47.6703
8.552000	 47.4474
8.635999	 48.1948
8.719999	 47.4741
8.804000	 47.172
8.888000	 47.0531
8.972000	 47.1673
9.056000	 47.3053
9.140000	 46.8831
9.224000	 46.9081
9.308000	 46.8081
9.391999	 46.6482
9.475999	 46.6926
9.560000	 46.2469
9.644000	 46.3916
9.728000	 46.1452
9.812000	 46.4536
9.896000	 46.4152
9.980000	 45.9758
10.064	45.8762
10.148	46.0135
10.232	45.8955
10.316	45.9
10.4	45.775
10.484	45.567
10.568	45.5953
10.652	45.5908
10.736	45.6051
10.82	45.4746
10.904	45.3931
10.988	45.2492
11.072	45.0996
11.156	44.895
11.24	44.797
11.324	44.816
11.408	44.9843
11.492	44.8547
11.576	44.7124
11.66	44.6782
11.744	44.6885
11.828	44.6955
11.912	44.4645
11.996	44.1366
12.08	44.3412
12.164	44.4126
12.248	44.184
12.332	44.2945
12.416	43.9949
12.5	43.9983
12.584	43.9879
12.668	43.9122
12.752	43.7495
12.836	43.8495
12.92	43.9623
13.004	43.6332
13.088	43.4217
13.172	43.4219
13.256	43.1685
13.34	43.1921
13.424	43.6147
13.508	43.4083
13.592	43.0155
13.676	42.9422
13.76	42.964
13.844	43.0461
13.928	43.047
14.012	42.8043
14.096	42.4687
14.18	42.262
14.264	42.2978
14.348	42.5509
14.432	42.5923
14.516	42.3199
14.6	42.1005
14.684	42.0321
14.768	41.9759
14.852	41.7429
14.936	41.494
15.02	41.514
15.104	41.6784
15.188	41.7731
15.272	41.7831
15.356	41.7204
15.44	41.4999
15.524	41.1567
15.608	40.8652
15.692	40.7125
15.776	40.7724
15.86	40.958
15.944	41.0152
16.028	40.9335
16.112	40.8557
16.196	40.8101
16.28	40.825
16.364	40.8583
16.448	40.7398
16.532	40.4522
16.616	40.2083
16.7	40.1247
16.784	40.0794
16.868	39.9414
16.952	39.7354
17.036	39.5328
17.12	39.3597
17.204	39.2536
17.288	39.2385
17.372	39.249
17.456	39.2247
17.54	39.2128
17.624	39.2434
17.708	39.2082
17.792	39.0063
17.876	38.6954
17.96	38.4028
18.044	38.2088
18.128	38.1782
18.212	38.3288
18.296	38.5084
18.38	38.4845
18.464	38.2281
18.548	37.9791
18.632	37.9426
18.716	38.0468
18.8	38.0791
18.884	37.9785
18.968	37.866
19.052	37.8341
19.136	37.8239
19.22	37.7252
19.304	37.5249
19.388	37.3381
19.472	37.3084
19.556	37.4684
19.64	37.7024
19.724	37.852
19.808	37.8531
19.892	37.7509
19.976	37.6114
20.06	37.4577
20.144	37.2952
20.228	37.1566
20.312	37.0832
20.396	37.0508
20.48	36.9686
20.564	36.7702
20.648	36.5078
20.732	36.32
20.816	36.285
20.9	36.3389
20.984	36.3727
21.068	36.3764
21.152	36.4645
21.236	36.7534
21.32	37.212
21.404	37.6285
21.488	37.7378
21.572	37.4075
21.656	36.733
21.74	35.9876
21.824	35.4685
21.908	35.3243
21.992	35.4824
22.076	35.7215
22.16	35.8323
22.244	35.7737
22.328	35.6656
22.412	35.6645
22.496	35.8092
22.58	35.9837
22.664	36.0225
22.748	35.834
22.832	35.4612
22.916	35.0497
23	34.7413
23.084	34.608
23.168	34.6467
23.252	34.8201
23.336	35.1013
23.42	35.4852
23.504	35.9263
23.588	36.311
23.672	36.4809
23.756	36.2852
23.84	35.7019
23.924	34.8901
24.008	34.1373
24.092	33.75
24.176	33.9175
24.26	34.6599
24.344	35.8739
24.428	37.3932
24.512	38.9761
24.596	40.4192
24.68	41.5677
24.764	42.2991
24.848	42.5462
24.932	42.1688
25.016	40.9843
25.1	38.9101
25.184	36.0552
25.268	32.8
25.352	29.7447
25.436	27.4697
25.52	26.229
25.604	25.8539
25.688	25.8813
25.772	25.8097
25.856	25.3927
25.94	24.8068
26.024	24.6001
26.108	25.4091
26.192	27.7077
26.276	31.5893
26.36	36.6643
26.444	42.1098
26.528	47.0045
26.612	50.6146
26.696	52.7982
26.78	54.1169
26.864	55.6652
26.948	58.5429
27.028	62.9719