File: Bakgrunnsmateriale/MATLAB/FTIR/ftir_data/subBb/Mapping_121/C-4040-8_t107_cm-1.asc
PE IR       SPECTRUM    SPECTRUM    ASCII       PEDS        1.60
  -1
C-4C8C~1.ASC
17/03/27
23:15:06.00
17/03/27
23:15:06.00
tln
$C-4040-8_t0107$<tbV0>[-5.2,10.4,8.0,0.0,27,1,0]
370
64

2002,4.07
MIRTGS : RIGHTBACK : INTERNAL 2
MIR : ON : INTERNAL 2
OPTKBR

0.200000
8
8.000000
FILLER
RATIO
SPECTRUM
UNLOCKED 256

DOUBLE
64
COMBINED
1
0
0

1.000000
RATIO

1
0
TRUE
51149
0
LEFT NOT FITTED RIGHT NOT FITTED 0
NONE
NONE
15600
12
4.427000
51148
TRUE
1 0 8 72 0 0 0 0

15798

#HDR
-1
-1
#GR
CM-1
%T
2.38419e-05
0.0
5000
-1.000000
4631
8
102.854
40.89
#DATA
5000	65.464
4984	65.15
4968	64.2078
4952	64.8254
4936	64.3596
4920	64.225
4904	64.5424
4888	65.1561
4872	65.0391
4856	64.697
4840	64.9189
4824	65.5684
4808	65.1571
4792	65.004
4776	65.3373
4760	65.3333
4744	64.9188
4728	64.932
4712	64.9122
4696	65.239
4680	64.9454
4664	65.3628
4648	65.5721
4632	65.6065
4616	65.2868
4600	64.8861
4584	65.3812
4568	64.6095
4552	65.1152
4536	63.4715
4520	64.7345
4504	64.1826
4488	63.9633
4472	64.448
4456	63.6857
4440	63.5328
4424	63.5313
4408	61.614
4392	87.1264
4376	64.4382
4360	64.6187
4344	63.7934
4328	64.1456
4312	64.2141
4296	64.2425
4280	64.0651
4264	65.0606
4248	64.6816
4232	64.4981
4216	64.8324
4200	64.9252
4184	65.811
4168	64.7424
4152	64.6504
4136	65.0187
4120	65.1596
4104	65.3975
4088	65.0539
4072	65.2134
4056	65.4071
4040	65.0887
4024	65.392
4008	65.2327
3992	65.3292
3976	65.0538
3960	65.1099
3944	64.9696
3928	64.8617
3912	65.1447
3896	64.919
3880	64.8454
3864	64.8523
3848	64.6338
3832	64.7559
3816	64.9932
3800	64.9515
3784	65.0761
3768	65.2058
3752	65.13
3736	65.136
3720	65.1986
3704	65.0414
3688	65.2741
3672	65.1371
3656	65.0385
3640	65.2605
3624	65.2457
3608	65.1309
3592	65.2999
3576	65.4316
3560	65.4384
3544	65.1402
3528	65.3315
3512	65.0645
3496	65.3652
3480	64.8594
3464	65.0952
3448	65.1295
3432	65.3625
3416	65.0164
3400	65.2237
3384	65.0981
3368	65.136
3352	65.0431
3336	65.013
3320	64.9736
3304	65.0418
3288	64.9513
3272	65.2553
3256	65.1612
3240	65.1179
3224	65.1956
3208	65.2421
3192	64.8884
3176	65.0895
3160	65.2053
3144	65.0789
3128	65.1443
3112	65.312
3096	65.2428
3080	65.1549
3064	65.0625
3048	64.9321
3032	65.2735
3016	65.1476
3000	65.0907
2984	65.1233
2968	65.092
2952	64.9489
2936	64.9369
2920	64.6802
2904	65.1031
2888	65.0579
2872	64.9149
2856	65.0092
2840	65.1321
2824	65.2026
2808	65.1742
2792	65.3916
2776	65.1691
2760	65.1612
2744	65.1825
2728	65.2385
2712	65.2194
2696	65.124
2680	65.1736
2664	65.3711
2648	65.1981
2632	65.1376
2616	65.2459
2600	65.1398
2584	65.2206
2568	65.2497
2552	65.2577
2536	65.2116
2520	65.0949
2504	65.0151
2488	65.0905
2472	65.3589
2456	65.1669
2440	65.324
2424	64.985
2408	65.349
2392	65.1413
2376	65.1916
2360	65.2154
2344	65.1676
2328	65.2113
2312	65.0693
2296	65.3021
2280	65.3577
2264	65.1747
2248	65.242
2232	65.207
2216	65.241
2200	65.086
2184	65.2222
2168	65.2292
2152	65.4771
2136	65.2835
2120	65.2101
2104	65.3924
2088	65.2702
2072	65.6552
2056	65.2912
2040	65.412
2024	65.1851
2008	65.2666
1992	65.2028
1976	65.2551
1960	65.1784
1944	65.2225
1928	65.4186
1912	65.1373
1896	65.1346
1880	65.2269
1864	65.143
1848	65.3353
1832	65.2401
1816	65.0747
1800	65.1731
1784	65.1236
1768	65.1609
1752	65.1016
1736	64.953
1720	65.2099
1704	65.2343
1688	65.1396
1672	65.2163
1656	65.2054
1640	65.2389
1624	65.0475
1608	65.2256
1592	65.0519
1576	65.1027
1560	64.9946
1544	65.291
1528	65.1798
1512	65.0387
1496	65.0953
1480	64.9302
1464	65.0047
1448	65.1271
1432	64.7146
1416	65.0855
1400	65.0219
1384	65.0157
1368	64.9871
1352	65.0142
1336	64.8811
1320	64.9493
1304	64.8172
1288	64.8969
1272	64.8053
1256	64.9186
1240	64.8906
1224	64.8406
1208	64.9385
1192	64.8526
1176	64.9722
1160	64.8322
1144	64.8365
1128	64.5416
1112	65.0131
1096	64.4453
1080	64.4672
1064	64.5167
1048	64.9278
1032	64.4606
1016	64.4336
1000	64.5522
984	 64.4146
968	 64.491
952	 64.5908
936	 64.2565
920	 64.876
904	 63.9843
888	 64.3482
872	 63.7519
856	 64.4302
840	 64.3196
824	 63.6836
808	 64.2541
792	 63.9158
776	 63.647
760	 63.7801
744	 63.3997
728	 63.2813
712	 63.1341
696	 63.0528
680	 63.0359
664	 62.3862
648	 62.8086
632	 62.5267
616	 62.3819
600	 62.7438
584	 61.445
568	 61.4909
552	 62.5794
536	 60.8229
520	 60.6053
504	 60.733
488	 60.1882
472	 59.6807
456	 58.573
440	 58.3117
424	 54.8853
408	 53.9764
392	 40.89
376	 89.9355
370	 99.0229