File: Bakgrunnsmateriale/MATLAB/FTIR/ftir_data/subBb/Mapping_121/C-4040-8_t96_cm-1.asc
PE IR       SPECTRUM    SPECTRUM    ASCII       PEDS        1.60
  -1
C-1E6E~1.ASC
17/03/27
22:23:43.00
17/03/27
22:23:43.00
tln
$C-4040-8_t0096$<tbV0>[-5.2,7.8,8.0,0.0,27,1,0]
370
64

2002,4.07
MIRTGS : RIGHTBACK : INTERNAL 2
MIR : ON : INTERNAL 2
OPTKBR

0.200000
8
8.000000
FILLER
RATIO
SPECTRUM
UNLOCKED 256

DOUBLE
64
COMBINED
1
0
0

1.000000
RATIO

1
0
TRUE
51149
0
LEFT NOT FITTED RIGHT NOT FITTED 0
NONE
NONE
15600
12
4.427000
51148
TRUE
1 0 8 72 0 0 0 0

15798

#HDR
-1
-1
#GR
CM-1
%T
2.38419e-05
0.0
5000
-1.000000
4631
8
115.332
48.9146
#DATA
5000	65.5339
4984	65.5027
4968	64.4291
4952	65.5128
4936	64.9559
4920	64.7352
4904	65.115
4888	65.2318
4872	64.8547
4856	64.762
4840	64.9708
4824	64.9248
4808	65.4572
4792	64.8814
4776	64.8303
4760	65.0138
4744	64.971
4728	64.74
4712	65.0771
4696	65.0989
4680	65.1847
4664	65.3003
4648	65.4343
4632	65.2073
4616	65.1817
4600	64.9705
4584	65.3917
4568	65.1803
4552	65.6894
4536	64.5395
4520	64.9181
4504	64.7302
4488	65.004
4472	65.1504
4456	64.8371
4440	64.18
4424	64.2191
4408	65.5349
4392	70.3134
4376	59.443
4360	65.6115
4344	64.9315
4328	64.8978
4312	64.6093
4296	64.7114
4280	65.0958
4264	65.3816
4248	64.7754
4232	65.1734
4216	64.7117
4200	64.9262
4184	64.483
4168	64.4959
4152	65.0032
4136	65.0761
4120	65.2355
4104	65.2644
4088	65.04
4072	64.8736
4056	65.0275
4040	65.445
4024	65.5055
4008	65.1831
3992	65.2431
3976	65.2727
3960	65.2849
3944	64.8923
3928	64.8335
3912	65.2453
3896	65.1064
3880	64.9862
3864	65.0329
3848	65.0578
3832	64.891
3816	65.0729
3800	64.9287
3784	65.4278
3768	65.3904
3752	65.2194
3736	65.2944
3720	65.286
3704	65.3131
3688	65.1546
3672	65.1834
3656	65.1087
3640	65.185
3624	65.3799
3608	65.1924
3592	65.2482
3576	65.4882
3560	65.2056
3544	64.7807
3528	65.0338
3512	65.3455
3496	64.9075
3480	64.9474
3464	65.2878
3448	65.1201
3432	65.5039
3416	65.0842
3400	65.2179
3384	65.3609
3368	65.068
3352	65.3715
3336	65.1294
3320	65.0126
3304	65.2391
3288	64.8492
3272	65.2776
3256	65.355
3240	65.0107
3224	65.2566
3208	65.2961
3192	64.8556
3176	65.2622
3160	65.3777
3144	65.1083
3128	65.4712
3112	65.1907
3096	65.342
3080	65.2396
3064	65.2335
3048	65.2288
3032	65.1234
3016	65.41
3000	65.225
2984	65.1096
2968	65.235
2952	65.1469
2936	65.127
2920	64.868
2904	65.0641
2888	65.1753
2872	65.1004
2856	65.0641
2840	65.2264
2824	65.1018
2808	65.1202
2792	65.4061
2776	65.3581
2760	65.2143
2744	65.2133
2728	65.2997
2712	65.3167
2696	65.2689
2680	65.3202
2664	65.309
2648	65.3711
2632	65.2204
2616	65.2733
2600	65.2445
2584	65.1723
2568	65.1718
2552	65.3489
2536	65.2807
2520	65.1953
2504	65.2805
2488	65.4286
2472	65.2331
2456	65.2831
2440	65.3641
2424	64.9842
2408	65.2491
2392	65.3071
2376	65.19
2360	65.3024
2344	65.263
2328	65.2433
2312	65.448
2296	65.2685
2280	65.3724
2264	65.2125
2248	65.279
2232	65.2072
2216	65.2988
2200	65.2426
2184	65.2872
2168	65.3669
2152	65.4129
2136	65.5026
2120	65.302
2104	65.3895
2088	65.1847
2072	65.3925
2056	65.019
2040	65.2596
2024	65.2143
2008	65.3401
1992	65.3472
1976	65.2305
1960	65.2896
1944	65.3741
1928	65.4248
1912	65.2453
1896	65.3574
1880	65.3886
1864	65.3197
1848	65.3539
1832	65.4526
1816	65.3396
1800	65.2662
1784	65.2845
1768	65.3446
1752	65.1424
1736	65.0478
1720	64.9547
1704	65.3559
1688	65.2794
1672	65.3171
1656	65.1931
1640	65.3465
1624	65.1628
1608	65.0584
1592	65.1393
1576	65.1434
1560	64.9456
1544	65.0812
1528	65.14
1512	65.2347
1496	65.2128
1480	65.0308
1464	65.2209
1448	65.1277
1432	65.2335
1416	65.0247
1400	65.1967
1384	65.0623
1368	64.9161
1352	65.2322
1336	64.8946
1320	65.059
1304	65.0641
1288	65.0339
1272	65.0267
1256	65.0172
1240	64.9556
1224	65.0128
1208	65.0607
1192	64.9509
1176	64.8525
1160	64.7405
1144	64.7351
1128	64.7084
1112	64.783
1096	64.2582
1080	64.6065
1064	64.7848
1048	64.9888
1032	64.924
1016	64.3738
1000	64.517
984	 64.7422
968	 64.5287
952	 64.5295
936	 63.8348
920	 64.9977
904	 64.4903
888	 64.8316
872	 64.7366
856	 64.6106
840	 64.0141
824	 63.8684
808	 64.0163
792	 64.173
776	 64.0636
760	 63.8868
744	 64.341
728	 63.6194
712	 63.129
696	 62.903
680	 63.5193
664	 62.8031
648	 63.0354
632	 62.8656
616	 62.5937
600	 62.6791
584	 62.2024
568	 62.4831
552	 62.2704
536	 61.629
520	 60.7291
504	 61.9016
488	 61.2062
472	 60.2233
456	 58.5353
440	 57.8607
424	 61.4165
408	 50.1142
392	 63.1756
376	 110.611
370	 89.869