File: Bakgrunnsmateriale/MATLAB/FTIR/ftir_data/subBb/Mapping_121/C-4040-8_t108.asc
PE IR       SPECTRUM    SPECTRUM    ASCII       PEDS        1.60
  -1
C-8CD6~1.ASC
17/03/27
23:19:42.00
17/03/27
23:20:09.00
tln
$C-4040-8_t0108$<tbV0>[-7.8,10.4,8.0,0.0,27,1,0]
27.028
64

2002,4.07
MIRTGS : RIGHTBACK : INTERNAL 2
MIR : ON : INTERNAL 2
OPTKBR

0.200000
8
8.000000
FILLER
RATIO
SPECTRUM
UNLOCKED 256

DOUBLE
64
COMBINED
1
0
0

0.002000
RATIO

1
0
TRUE
51149
0
LEFT NOT FITTED RIGHT NOT FITTED 0
NONE
NONE
15600
12
4.427000
51148
TRUE
1 0 8 72 0 0 0 0

15798

#HDR
-1
-1
#GR
µM
%T
2.38419e-05
0.0
2.000000
0.002000
12515
8
124.189
16.8927
#DATA
2.000000	 65.1404
2.084000	 65.0644
2.168000	 65.1468
2.252000	 64.1306
2.336000	 64.4184
2.420000	 65.0549
2.504000	 65.0424
2.588000	 65.2224
2.672000	 65.1965
2.756000	 65.0922
2.840000	 65.3241
2.924000	 65.0926
3.008000	 65.1126
3.092000	 65.1472
3.176000	 65.0126
3.260000	 65.15
3.344000	 65.1718
3.428000	 64.7477
3.512000	 64.8519
3.596000	 65.2161
3.680000	 65.3414
3.764000	 65.2098
3.848000	 65.1905
3.932000	 65.3857
4.016000	 65.4186
4.100000	 65.0014
4.184000	 65.2673
4.268000	 65.1759
4.352000	 65.2825
4.436000	 65.3004
4.520000	 65.0882
4.604000	 65.2246
4.688000	 65.2709
4.772000	 65.1793
4.856000	 65.2059
4.940000	 65.226
5.024000	 65.2541
5.108000	 65.2073
5.192000	 65.2536
5.276000	 65.3264
5.359999	 65.1249
5.444000	 65.2742
5.528000	 65.1247
5.612000	 65.182
5.696000	 65.1395
5.780000	 64.9959
5.864000	 65.0966
5.948000	 65.1932
6.032000	 65.1672
6.116000	 65.1409
6.200000	 65.0753
6.284000	 64.9219
6.368000	 64.9065
6.452000	 65.1871
6.536000	 65.0221
6.620000	 65.1837
6.704000	 65.1001
6.788000	 64.9741
6.872000	 65.185
6.956000	 64.9076
7.040000	 65.0163
7.124000	 65.1269
7.208000	 64.8224
7.292000	 64.9248
7.376000	 64.9243
7.460000	 65.0126
7.544000	 64.9831
7.628000	 64.6956
7.712000	 64.9261
7.796000	 64.9886
7.880000	 64.7793
7.964000	 64.9018
8.048000	 64.817
8.132000	 64.7985
8.216000	 64.6615
8.300000	 64.9036
8.384000	 64.7004
8.468000	 64.5747
8.552000	 64.7167
8.635999	 64.6177
8.719999	 64.5549
8.804000	 64.6089
8.888000	 64.5965
8.972000	 64.594
9.056000	 64.3996
9.140000	 64.6937
9.224000	 64.4646
9.308000	 64.4534
9.391999	 64.494
9.475999	 64.5545
9.560000	 64.7624
9.644000	 64.3923
9.728000	 64.2686
9.812000	 64.4009
9.896000	 64.2609
9.980000	 64.3607
10.064	64.3155
10.148	64.5218
10.232	64.3328
10.316	64.3734
10.4	64.4167
10.484	64.4382
10.568	64.3501
10.652	64.1748
10.736	64.4072
10.82	65.0082
10.904	64.7724
10.988	64.178
11.072	64.2986
11.156	64.5974
11.24	64.6348
11.324	64.2918
11.408	64.167
11.492	64.3923
11.576	64.2659
11.66	64.3389
11.744	64.1606
11.828	64.2489
11.912	64.399
11.996	64.1448
12.08	64.5752
12.164	64.0731
12.248	63.4598
12.332	63.5895
12.416	63.4826
12.5	63.3959
12.584	63.5896
12.668	63.5973
12.752	63.7078
12.836	63.7726
12.92	63.5761
13.004	63.5105
13.088	63.5419
13.172	63.399
13.256	63.2647
13.34	63.0225
13.424	62.8932
13.508	62.5937
13.592	62.476
13.676	62.8453
13.76	63.1883
13.844	63.3361
13.928	63.2163
14.012	63.0615
14.096	63.083
14.18	63.1244
14.264	63.0131
14.348	62.8062
14.432	62.8024
14.516	63.018
14.6	63.0882
14.684	62.9062
14.768	62.7786
14.852	62.7303
14.936	62.543
15.02	62.3283
15.104	62.2198
15.188	62.2464
15.272	62.3729
15.356	62.4485
15.44	62.518
15.524	62.6305
15.608	62.6122
15.692	62.4003
15.776	62.1433
15.86	61.994
15.944	62.0123
16.028	62.1609
16.112	62.272
16.196	62.2155
16.28	62.1231
16.364	62.1095
16.448	61.99
16.532	61.6919
16.616	61.4468
16.7	61.3744
16.784	61.3954
16.868	61.4529
16.952	61.4651
17.036	61.3696
17.12	61.3312
17.204	61.5325
17.288	61.848
17.372	62.045
17.456	62.0954
17.54	62.072
17.624	61.9529
17.708	61.7147
17.792	61.4669
17.876	61.3901
17.96	61.546
18.044	61.7951
18.128	61.8884
18.212	61.6716
18.296	61.2102
18.38	60.7392
18.464	60.4784
18.548	60.4735
18.632	60.5881
18.716	60.6775
18.8	60.7272
18.884	60.7878
18.968	60.8253
19.052	60.726
19.136	60.448
19.22	60.1183
19.304	59.9573
19.388	60.0964
19.472	60.4709
19.556	60.8608
19.64	61.0388
19.724	60.9169
19.808	60.5803
19.892	60.219
19.976	60.025
20.06	60.1134
20.144	60.4663
20.228	60.9317
20.312	61.309
20.396	61.4743
20.48	61.4466
20.564	61.3352
20.648	61.207
20.732	61.0448
20.816	60.8081
20.9	60.5105
20.984	60.216
21.068	59.9563
21.152	59.6965
21.236	59.369
21.32	58.9454
21.404	58.4555
21.488	57.9669
21.572	57.5444
21.656	57.2721
21.74	57.2563
21.824	57.5837
21.908	58.2296
21.992	59.0006
22.076	59.5943
22.16	59.7368
22.244	59.3294
22.328	58.499
22.412	57.4985
22.496	56.571
22.58	55.828
22.664	55.2541
22.748	54.763
22.832	54.286
22.916	53.7944
23	53.3448
23.084	52.982
23.168	52.7377
23.252	52.6225
23.336	52.6127
23.42	52.7461
23.504	53.0858
23.588	53.6666
23.672	54.437
23.756	55.2244
23.84	55.7998
23.924	55.9875
24.008	55.7273
24.092	55.0807
24.176	54.2204
24.26	53.2172
24.344	51.9895
24.428	50.3274
24.512	47.8817
24.596	44.4596
24.68	40.0737
24.764	34.9447
24.848	29.5036
24.932	24.3897
25.016	20.2733
25.1	17.7203
25.184	16.8943
25.268	17.4904
25.352	18.977
25.436	20.8638
25.52	22.978
25.604	25.504
25.688	28.7513
25.772	32.9249
25.856	38.0067
25.94	43.8305
26.024	50.1454
26.108	56.6785
26.192	63.5242
26.276	70.9656
26.36	79.2635
26.444	88.102
26.528	96.6251
26.612	103.553
26.696	108.16
26.78	110.866
26.864	113.319
26.948	117.554
27.028	124.189