File: Bakgrunnsmateriale/MATLAB/FTIR/ftir_data/subBb/Mapping_121/C-4040-8_t92_cm-1.asc
PE IR       SPECTRUM    SPECTRUM    ASCII       PEDS        1.60
  -1
C-1E64~1.ASC
17/03/27
22:05:15.00
17/03/27
22:05:15.00
tln
$C-4040-8_t0092$<tbV0>[5.2,7.8,8.0,0.0,27,1,0]
370
64

2002,4.07
MIRTGS : RIGHTBACK : INTERNAL 2
MIR : ON : INTERNAL 2
OPTKBR

0.200000
8
8.000000
FILLER
RATIO
SPECTRUM
UNLOCKED 256

DOUBLE
64
COMBINED
1
0
0

1.000000
RATIO

1
0
TRUE
51149
0
LEFT NOT FITTED RIGHT NOT FITTED 0
NONE
NONE
15600
12
4.427000
51148
TRUE
1 0 8 72 0 0 0 0

15798

#HDR
-1
-1
#GR
CM-1
%T
2.38419e-05
0.0
5000
-1.000000
4631
8
84.2395
10.7249
#DATA
5000	65.2253
4984	65.4788
4968	64.2209
4952	64.9192
4936	64.6485
4920	64.8346
4904	64.6175
4888	64.9584
4872	65.2208
4856	64.8487
4840	65.0599
4824	65.0954
4808	65.5187
4792	65.0864
4776	64.9968
4760	65.2668
4744	65.0258
4728	65.5219
4712	65.5133
4696	65.2935
4680	65.1862
4664	65.2503
4648	65.5423
4632	65.1085
4616	65.6242
4600	65.0422
4584	65.4442
4568	65.3812
4552	65.4755
4536	63.7313
4520	65.6553
4504	64.4906
4488	64.5778
4472	64.563
4456	63.9092
4440	64.2474
4424	64.392
4408	66.5873
4392	66.6442
4376	65.6558
4360	64.0566
4344	65.0152
4328	64.838
4312	64.7137
4296	64.3022
4280	64.4675
4264	64.9713
4248	64.3231
4232	64.422
4216	64.8911
4200	64.5818
4184	63.9056
4168	64.4957
4152	65.0383
4136	65.1386
4120	65.293
4104	65.1329
4088	65.0632
4072	65.0707
4056	65.1309
4040	65.1762
4024	65.766
4008	65.411
3992	65.1804
3976	65.0713
3960	65.0848
3944	65.2606
3928	65.321
3912	65.3174
3896	65.0649
3880	65.0715
3864	64.9729
3848	65.0343
3832	65.0079
3816	64.9816
3800	65.1593
3784	65.2005
3768	65.4151
3752	65.4412
3736	65.2289
3720	65.2657
3704	65.2107
3688	65.2242
3672	65.3914
3656	65.288
3640	65.4686
3624	65.2562
3608	65.2195
3592	65.3844
3576	65.4111
3560	65.5249
3544	65.1605
3528	65.3166
3512	65.154
3496	65.1679
3480	65.0573
3464	65.484
3448	65.0028
3432	65.1018
3416	65.1243
3400	65.1277
3384	65.1311
3368	65.0811
3352	65.206
3336	65.2747
3320	65.0593
3304	65.103
3288	64.9694
3272	65.2283
3256	65.258
3240	65.2875
3224	65.2359
3208	65.1217
3192	65.0318
3176	65.1665
3160	65.3378
3144	65.3042
3128	65.683
3112	65.309
3096	65.3018
3080	65.2093
3064	65.2483
3048	65.3853
3032	65.3355
3016	65.2333
3000	65.168
2984	65.265
2968	65.1261
2952	65.3057
2936	65.2005
2920	64.8354
2904	65.1981
2888	65.1019
2872	65.3297
2856	65.1206
2840	65.169
2824	65.1991
2808	65.2867
2792	65.3862
2776	65.3162
2760	65.2438
2744	65.2552
2728	65.3811
2712	65.3419
2696	65.2881
2680	65.3214
2664	65.5117
2648	65.2247
2632	65.2475
2616	65.3455
2600	65.14
2584	65.2429
2568	65.2571
2552	65.3205
2536	65.267
2520	65.2423
2504	65.3667
2488	65.4848
2472	65.4413
2456	65.2763
2440	65.1675
2424	64.9545
2408	65.1451
2392	65.3566
2376	65.29
2360	65.3529
2344	65.3707
2328	65.3704
2312	65.3451
2296	65.2737
2280	65.4405
2264	65.3901
2248	65.5631
2232	65.3457
2216	65.2399
2200	65.1552
2184	65.3294
2168	65.3422
2152	65.5683
2136	65.2329
2120	65.3657
2104	65.2947
2088	65.2647
2072	65.803
2056	65.0568
2040	65.4672
2024	65.3178
2008	65.3781
1992	65.3057
1976	65.3713
1960	65.408
1944	65.3752
1928	65.3376
1912	65.2386
1896	65.34
1880	65.2941
1864	65.3162
1848	65.4156
1832	65.4299
1816	65.3816
1800	65.3365
1784	65.2972
1768	65.444
1752	65.1986
1736	65.1647
1720	65.2309
1704	65.1976
1688	65.1461
1672	65.1819
1656	65.1988
1640	65.2698
1624	65.1213
1608	65.1618
1592	65.0918
1576	65.1499
1560	64.9874
1544	65.2236
1528	65.0928
1512	65.0722
1496	65.1422
1480	65.1746
1464	65.1512
1448	65.4114
1432	65.0179
1416	65.2452
1400	65.0565
1384	65.0793
1368	65.0989
1352	65.1517
1336	64.9993
1320	65.11
1304	64.9482
1288	64.8813
1272	65.065
1256	65.0548
1240	65.1115
1224	64.9807
1208	65.0674
1192	65.0673
1176	64.9842
1160	64.9998
1144	64.8715
1128	64.9545
1112	65.0588
1096	64.3971
1080	64.9801
1064	64.7769
1048	65.0751
1032	64.7952
1016	64.5949
1000	64.5481
984	 64.7015
968	 64.5962
952	 64.709
936	 64.4526
920	 65.2376
904	 64.2139
888	 64.4364
872	 64.2011
856	 64.3568
840	 64.4433
824	 64.3923
808	 64.353
792	 64.0062
776	 63.9967
760	 63.9505
744	 63.7582
728	 63.8922
712	 63.5986
696	 63.6835
680	 63.3322
664	 63.4916
648	 63.1277
632	 62.918
616	 62.5869
600	 62.4095
584	 62.1304
568	 62.7852
552	 61.8867
536	 61.3102
520	 61.0393
504	 61.7808
488	 61.0488
472	 60.3498
456	 58.5545
440	 59.2199
424	 59.4129
408	 55.6652
392	 38.5299
376	 70.1908
370	 10.7249