File: Bakgrunnsmateriale/MATLAB/FTIR/ftir_data/subBb/Mapping_121/C-4040-8_t94.asc
PE IR       SPECTRUM    SPECTRUM    ASCII       PEDS        1.60
  -1
C-B94A~1.ASC
17/03/27
22:14:29.00
17/03/27
22:14:55.00
tln
$C-4040-8_t0094$<tbV0>[0.0,7.8,8.0,0.0,27,1,0]
27.028
64

2002,4.07
MIRTGS : RIGHTBACK : INTERNAL 2
MIR : ON : INTERNAL 2
OPTKBR

0.200000
8
8.000000
FILLER
RATIO
SPECTRUM
UNLOCKED 256

DOUBLE
64
COMBINED
1
0
0

0.002000
RATIO

1
0
TRUE
51149
0
LEFT NOT FITTED RIGHT NOT FITTED 0
NONE
NONE
15600
12
4.427000
51148
TRUE
1 0 8 72 0 0 0 0

15798

#HDR
-1
-1
#GR
µM
%T
2.38419e-05
0.0
2.000000
0.002000
12515
8
201.465
27.3086
#DATA
2.000000	 65.3836
2.084000	 65.0229
2.168000	 65.0476
2.252000	 65.7322
2.336000	 65.3169
2.420000	 64.7548
2.504000	 65.0336
2.588000	 65.31
2.672000	 65.4206
2.756000	 65.0792
2.840000	 65.3137
2.924000	 65.2325
3.008000	 65.2912
3.092000	 65.0418
3.176000	 65.1983
3.260000	 65.3237
3.344000	 65.3227
3.428000	 64.8405
3.512000	 65.0989
3.596000	 65.3538
3.680000	 65.3905
3.764000	 65.2383
3.848000	 65.2639
3.932000	 65.4652
4.016000	 65.5018
4.100000	 65.319
4.184000	 65.2648
4.268000	 65.3346
4.352000	 65.2995
4.436000	 65.3003
4.520000	 65.3418
4.604000	 65.3844
4.688000	 65.5094
4.772000	 65.1579
4.856000	 65.3145
4.940000	 65.3025
5.024000	 65.3488
5.108000	 65.3478
5.192000	 65.2769
5.276000	 65.4231
5.359999	 65.3448
5.444000	 65.3651
5.528000	 65.3846
5.612000	 65.3859
5.696000	 65.1458
5.780000	 65.0826
5.864000	 65.3712
5.948000	 65.1486
6.032000	 65.2289
6.116000	 65.3715
6.200000	 65.1122
6.284000	 65.1514
6.368000	 64.966
6.452000	 65.2702
6.536000	 65.127
6.620000	 65.2455
6.704000	 65.3072
6.788000	 65.1122
6.872000	 65.1992
6.956000	 65.3949
7.040000	 65.1108
7.124000	 65.2685
7.208000	 65.0549
7.292000	 65.0298
7.376000	 65.265
7.460000	 65.2052
7.544000	 65.1609
7.628000	 64.8796
7.712000	 65.2208
7.796000	 65.0508
7.880000	 64.9944
7.964000	 65.1586
8.048000	 65.0238
8.132000	 65.0474
8.216000	 64.9448
8.300000	 65.0523
8.384000	 65.0597
8.468000	 64.942
8.552000	 65.0485
8.635999	 64.9893
8.719999	 64.8793
8.804000	 64.9246
8.888000	 64.9272
8.972000	 64.9322
9.056000	 64.7797
9.140000	 64.7149
9.224000	 64.8859
9.308000	 64.7922
9.391999	 64.8743
9.475999	 64.6
9.560000	 64.7491
9.644000	 64.5022
9.728000	 64.8755
9.812000	 64.8536
9.896000	 64.5988
9.980000	 64.6827
10.064	64.7921
10.148	64.7654
10.232	64.5587
10.316	64.7416
10.4	64.7345
10.484	64.6508
10.568	64.6991
10.652	64.2889
10.736	64.3394
10.82	65.1177
10.904	64.9279
10.988	64.852
11.072	64.7256
11.156	64.6286
11.24	64.7899
11.324	64.6042
11.408	64.7091
11.492	64.5583
11.576	64.4403
11.66	64.6973
11.744	64.719
11.828	64.6311
11.912	64.6019
11.996	64.5797
12.08	64.5659
12.164	64.2708
12.248	64.2932
12.332	64.2759
12.416	64.0829
12.5	63.9975
12.584	64.2573
12.668	64.1476
12.752	63.84
12.836	63.9215
12.92	64.1112
13.004	64.1263
13.088	63.9171
13.172	63.8923
13.256	64.0259
13.34	64.1663
13.424	64.1549
13.508	63.7348
13.592	63.5996
13.676	63.7648
13.76	63.6633
13.844	63.578
13.928	63.5804
14.012	63.4691
14.096	63.3721
14.18	63.3793
14.264	63.4306
14.348	63.3862
14.432	63.4696
14.516	63.683
14.6	63.6795
14.684	63.4788
14.768	63.3452
14.852	63.2592
14.936	63.0541
15.02	62.9152
15.104	62.9632
15.188	63.0448
15.272	63.1501
15.356	63.2427
15.44	63.2252
15.524	63.1503
15.608	63.0497
15.692	62.8899
15.776	62.7279
15.86	62.6742
15.944	62.8218
16.028	63.0697
16.112	63.114
16.196	62.9119
16.28	62.7377
16.364	62.6771
16.448	62.633
16.532	62.6027
16.616	62.6278
16.7	62.716
16.784	62.8312
16.868	62.8534
16.952	62.7271
17.036	62.5895
17.12	62.5778
17.204	62.6468
17.288	62.6947
17.372	62.7115
17.456	62.7205
17.54	62.6979
17.624	62.614
17.708	62.497
17.792	62.434
17.876	62.5126
17.96	62.6952
18.044	62.807
18.128	62.7177
18.212	62.4736
18.296	62.1958
18.38	61.9359
18.464	61.6978
18.548	61.5169
18.632	61.4451
18.716	61.5031
18.8	61.6559
18.884	61.7819
18.968	61.7217
19.052	61.4361
19.136	61.0926
19.22	60.9292
19.304	61.0371
19.388	61.304
19.472	61.5589
19.556	61.7093
19.64	61.7436
19.724	61.6826
19.808	61.5787
19.892	61.5367
19.976	61.6556
20.06	61.9146
20.144	62.1472
20.228	62.1663
20.312	61.9271
20.396	61.5584
20.48	61.2312
20.564	61.0108
20.648	60.8278
20.732	60.5834
20.816	60.2652
20.9	59.9592
20.984	59.7795
21.068	59.7742
21.152	59.8917
21.236	60.025
21.32	60.0801
21.404	60.0115
21.488	59.8318
21.572	59.5881
21.656	59.3618
21.74	59.254
21.824	59.3381
21.908	59.6029
21.992	59.9357
22.076	60.1705
22.16	60.1897
22.244	60.0212
22.328	59.8146
22.412	59.737
22.496	59.847
22.58	60.0331
22.664	60.091
22.748	59.8402
22.832	59.2324
22.916	58.3772
23	57.5172
23.084	56.897
23.168	56.6666
23.252	56.8151
23.336	57.2071
23.42	57.6402
23.504	57.9274
23.588	57.9555
23.672	57.6945
23.756	57.1938
23.84	56.5843
23.924	56.0731
24.008	55.911
24.092	56.3099
24.176	57.2871
24.26	58.6207
24.344	59.9163
24.428	60.7844
24.512	60.8506
24.596	60.1316
24.68	59.0144
24.764	58.0389
24.848	57.9153
24.932	58.9832
25.016	60.8785
25.1	62.6188
25.184	63.4161
25.268	63.2347
25.352	62.7615
25.436	62.5409
25.52	62.2771
25.604	60.8543
25.688	57.5733
25.772	52.8841
25.856	48.2965
25.94	45.087
26.024	43.7665
26.108	43.9544
26.192	46.2809
26.276	52.825
26.36	67.1334
26.444	91.21
26.528	123.715
26.612	159.145
26.696	189.927
26.78	200.99
26.864	200
26.948	200.291
27.028	191.82