File: Bakgrunnsmateriale/MATLAB/FTIR/ftir_data/subBb/Mapping_121/C-4040-8_t53_cm-1.asc
PE IR       SPECTRUM    SPECTRUM    ASCII       PEDS        1.60
  -1
C-1CE1~1.ASC
17/03/27
18:50:50.00
17/03/27
18:50:50.00
tln
$C-4040-8_t0053$<tbV0>[-7.8,-2.6,8.0,0.0,27,1,0]
370
64

2002,4.07
MIRTGS : RIGHTBACK : INTERNAL 2
MIR : ON : INTERNAL 2
OPTKBR

0.200000
8
8.000000
FILLER
RATIO
SPECTRUM
UNLOCKED 256

DOUBLE
64
COMBINED
1
0
0

1.000000
RATIO

1
0
TRUE
51149
0
LEFT NOT FITTED RIGHT NOT FITTED 0
NONE
NONE
15600
12
4.427000
51148
TRUE
1 0 8 72 0 0 0 0

15798

#HDR
-1
-1
#GR
CM-1
%T
2.38419e-05
0.0
5000
-1.000000
4631
8
70.8936
19.9691
#DATA
5000	64.8052
4984	65.679
4968	65.2951
4952	65.3661
4936	64.9214
4920	65.4641
4904	65.2845
4888	65.2956
4872	64.4024
4856	64.507
4840	65.0211
4824	65.1375
4808	65.0547
4792	64.8049
4776	64.9836
4760	64.636
4744	64.7842
4728	64.6208
4712	64.9345
4696	64.5762
4680	64.7656
4664	64.3076
4648	64.51
4632	65.0466
4616	64.3037
4600	64.6667
4584	65.2852
4568	64.9885
4552	64.6194
4536	64.6245
4520	64.7887
4504	65.0272
4488	65.5126
4472	65.5596
4456	65.4964
4440	65.6289
4424	66.3087
4408	66.484
4392	66.0423
4376	65.982
4360	57.2312
4344	50.1839
4328	67.1548
4312	66.3616
4296	65.7262
4280	66.038
4264	66.3211
4248	65.4226
4232	65.4713
4216	65.3895
4200	65.4553
4184	64.6825
4168	65.473
4152	65.0025
4136	65.0675
4120	65.0149
4104	65.2297
4088	65.2158
4072	65.1567
4056	64.7783
4040	64.9456
4024	65.2174
4008	64.9979
3992	65.033
3976	64.7722
3960	64.7742
3944	65.2707
3928	64.9564
3912	65.1892
3896	65.2285
3880	65.193
3864	65.1134
3848	65.2431
3832	65.3159
3816	65.3212
3800	65.3398
3784	65.2973
3768	65.3127
3752	65.2083
3736	65.0637
3720	65.3876
3704	65.1734
3688	65.3288
3672	65.2361
3656	65.1898
3640	65.2428
3624	64.911
3608	65.0848
3592	65.1237
3576	65.146
3560	64.9077
3544	64.8812
3528	64.9728
3512	65.1839
3496	65.2997
3480	65.406
3464	65.3355
3448	65.1139
3432	65.2634
3416	65.3347
3400	65.2841
3384	65.409
3368	65.3838
3352	65.187
3336	65.2427
3320	65.4512
3304	65.2158
3288	65.3574
3272	65.2004
3256	65.5182
3240	65.0078
3224	65.1692
3208	65.1855
3192	65.2997
3176	65.0592
3160	64.9351
3144	65.2072
3128	65.2392
3112	65.0771
3096	65.3058
3080	65.1766
3064	65.0789
3048	65.3369
3032	65.2461
3016	65.4132
3000	65.185
2984	65.1256
2968	65.3797
2952	65.3222
2936	65.1583
2920	64.9279
2904	65.0563
2888	65.2299
2872	65.2959
2856	65.066
2840	65.2297
2824	65.261
2808	65.3275
2792	65.2934
2776	65.222
2760	65.2575
2744	65.2946
2728	65.3213
2712	65.305
2696	65.264
2680	65.3218
2664	65.2331
2648	65.233
2632	65.348
2616	65.4496
2600	65.4631
2584	65.2327
2568	65.3527
2552	65.4389
2536	65.379
2520	65.2094
2504	65.0019
2488	65.2253
2472	65.3493
2456	65.5491
2440	65.6116
2424	65.8566
2408	65.6764
2392	65.4208
2376	65.2838
2360	65.3255
2344	65.3713
2328	65.392
2312	65.3877
2296	65.47
2280	65.353
2264	65.3999
2248	65.4835
2232	65.4817
2216	65.35
2200	65.2736
2184	65.3262
2168	65.467
2152	65.8384
2136	65.4354
2120	65.3739
2104	65.3389
2088	65.2104
2072	65.0772
2056	65.166
2040	65.2859
2024	65.421
2008	65.4226
1992	65.2887
1976	65.2232
1960	65.1332
1944	65.3836
1928	65.3945
1912	65.3053
1896	65.3683
1880	65.375
1864	65.2857
1848	65.2638
1832	65.4908
1816	65.2558
1800	65.2808
1784	65.2183
1768	65.3294
1752	65.2892
1736	65.1514
1720	65.1081
1704	65.3192
1688	65.2048
1672	65.2726
1656	65.1515
1640	65.1833
1624	65.1617
1608	65.1002
1592	65.1907
1576	65.4571
1560	65.2077
1544	65.3019
1528	65.1775
1512	65.0825
1496	65.2831
1480	65.3029
1464	65.1043
1448	64.9138
1432	65.2639
1416	65.1407
1400	65.2536
1384	65.03
1368	65.0605
1352	65.1687
1336	65.1973
1320	65.0007
1304	65.003
1288	65.0269
1272	65.0827
1256	64.9787
1240	64.9715
1224	65.0138
1208	65.3649
1192	65.1238
1176	64.9929
1160	64.6721
1144	65.2063
1128	65.1292
1112	64.5688
1096	64.8144
1080	64.9152
1064	64.9392
1048	64.7202
1032	64.8496
1016	64.9486
1000	64.6521
984	 64.9817
968	 64.435
952	 64.7382
936	 64.7279
920	 64.5476
904	 64.5708
888	 64.6227
872	 64.5388
856	 64.4748
840	 64.5191
824	 64.386
808	 64.5696
792	 64.1619
776	 64.1325
760	 64.2443
744	 64.2205
728	 63.694
712	 63.8356
696	 63.9839
680	 63.3203
664	 62.5679
648	 62.9929
632	 62.821
616	 63.1555
600	 62.8953
584	 62.5255
568	 62.3894
552	 62.2978
536	 62.3383
520	 60.061
504	 61.5477
488	 60.9107
472	 60.5261
456	 59.766
440	 58.4524
424	 58.9654
408	 61.9817
392	 70.0264
376	 43.4431
370	 30.8473