File: Bakgrunnsmateriale/MATLAB/FTIR/ftir_data/subBb/Mapping_121/C-4040-8_t60.asc
PE IR       SPECTRUM    SPECTRUM    ASCII       PEDS        1.60
  -1
C-AD3A~1.ASC
17/03/27
19:23:46.00
17/03/27
19:24:12.00
tln
$C-4040-8_t0060$<tbV0>[2.6,0.0,8.0,0.0,27,1,0]
27.028
64

2002,4.07
MIRTGS : RIGHTBACK : INTERNAL 2
MIR : ON : INTERNAL 2
OPTKBR

0.200000
8
8.000000
FILLER
RATIO
SPECTRUM
UNLOCKED 256

DOUBLE
64
COMBINED
1
0
0

0.002000
RATIO

1
0
TRUE
51149
0
LEFT NOT FITTED RIGHT NOT FITTED 0
NONE
NONE
15600
12
4.427000
51148
TRUE
1 0 8 72 0 0 0 0

15798

#HDR
-1
-1
#GR
µM
%T
2.38419e-05
0.0
2.000000
0.002000
12515
8
93.5537
41.2796
#DATA
2.000000	 65.136
2.084000	 64.9074
2.168000	 64.678
2.252000	 65.6695
2.336000	 65.9756
2.420000	 64.7949
2.504000	 64.9144
2.588000	 65.117
2.672000	 65.3066
2.756000	 64.9699
2.840000	 65.0972
2.924000	 65.2831
3.008000	 65.3505
3.092000	 65.2565
3.176000	 65.1582
3.260000	 65.2452
3.344000	 65.2042
3.428000	 64.9259
3.512000	 64.842
3.596000	 65.1445
3.680000	 65.1556
3.764000	 65.3202
3.848000	 65.2995
3.932000	 65.2354
4.016000	 65.0793
4.100000	 65.2326
4.184000	 65.2678
4.268000	 65.117
4.352000	 65.3275
4.436000	 65.3076
4.520000	 65.2669
4.604000	 65.4564
4.688000	 65.4995
4.772000	 65.1819
4.856000	 64.9512
4.940000	 65.4116
5.024000	 65.2181
5.108000	 65.1715
5.192000	 65.3073
5.276000	 65.202
5.359999	 65.1493
5.444000	 65.2819
5.528000	 65.3537
5.612000	 65.2541
5.696000	 65.0826
5.780000	 65.0653
5.864000	 65.1529
5.948000	 65.268
6.032000	 65.1496
6.116000	 65.1403
6.200000	 64.9873
6.284000	 64.9589
6.368000	 65.102
6.452000	 65.1247
6.536000	 64.9677
6.620000	 65.0257
6.704000	 65.0097
6.788000	 65.1137
6.872000	 64.6492
6.956000	 64.9736
7.040000	 65.1278
7.124000	 65.0607
7.208000	 64.9367
7.292000	 64.7958
7.376000	 64.9937
7.460000	 65.0203
7.544000	 65.0467
7.628000	 64.9853
7.712000	 65.0127
7.796000	 64.9983
7.880000	 64.9571
7.964000	 64.828
8.048000	 64.999
8.132000	 64.8377
8.216000	 64.8494
8.300000	 64.7749
8.384000	 64.854
8.468000	 64.7569
8.552000	 64.8209
8.635999	 64.8874
8.719999	 65.0333
8.804000	 64.6167
8.888000	 64.9834
8.972000	 64.8729
9.056000	 64.9218
9.140000	 64.8356
9.224000	 64.9723
9.308000	 64.8467
9.391999	 64.636
9.475999	 64.6852
9.560000	 64.5961
9.644000	 64.4778
9.728000	 64.6042
9.812000	 64.5995
9.896000	 64.7973
9.980000	 64.5707
10.064	64.6517
10.148	64.6938
10.232	64.6076
10.316	64.5408
10.4	64.542
10.484	64.3085
10.568	64.2955
10.652	64.1619
10.736	64.1757
10.82	64.4578
10.904	64.5142
10.988	64.3792
11.072	64.459
11.156	64.2435
11.24	64.1484
11.324	64.3554
11.408	64.2365
11.492	63.8447
11.576	63.9122
11.66	63.9728
11.744	64.1081
11.828	64.2272
11.912	64.1508
11.996	64.0801
12.08	64.0126
12.164	64.0825
12.248	64.0216
12.332	63.9448
12.416	63.9052
12.5	64.0211
12.584	64.1043
12.668	63.8159
12.752	63.6762
12.836	63.7485
12.92	63.7874
13.004	63.8552
13.088	63.848
13.172	63.8764
13.256	63.7504
13.34	63.9806
13.424	63.8182
13.508	63.5914
13.592	63.826
13.676	63.7809
13.76	63.3963
13.844	63.1163
13.928	63.1513
14.012	63.2874
14.096	63.4347
14.18	63.6684
14.264	63.8448
14.348	63.8265
14.432	63.5011
14.516	62.9766
14.6	62.693
14.684	62.7296
14.768	62.8862
14.852	62.9423
14.936	62.8507
15.02	62.8734
15.104	63.1031
15.188	63.3253
15.272	63.3349
15.356	63.1034
15.44	62.7475
15.524	62.4454
15.608	62.2444
15.692	62.0663
15.776	62.1136
15.86	62.538
15.944	62.924
16.028	62.9075
16.112	62.7299
16.196	62.7176
16.28	62.7988
16.364	62.7781
16.448	62.7083
16.532	62.6495
16.616	62.4473
16.7	62.087
16.784	61.8675
16.868	61.9331
16.952	62.0407
17.036	61.9936
17.12	61.872
17.204	61.6899
17.288	61.3103
17.372	60.8398
17.456	60.6764
17.54	61.0129
17.624	61.5678
17.708	61.9296
17.792	61.9682
17.876	61.865
17.96	61.817
18.044	61.8395
18.128	61.8488
18.212	61.8332
18.296	61.8596
18.38	61.9743
18.464	62.1225
18.548	62.1739
18.632	62.0219
18.716	61.7079
18.8	61.4404
18.884	61.4223
18.968	61.6261
19.052	61.766
19.136	61.5711
19.22	61.0625
19.304	60.5388
19.388	60.2681
19.472	60.2512
19.556	60.2803
19.64	60.1927
19.724	60.0281
19.808	59.929
19.892	59.9356
19.976	59.9404
20.06	59.8301
20.144	59.613
20.228	59.3869
20.312	59.2434
20.396	59.2063
20.48	59.2462
20.564	59.3328
20.648	59.4614
20.732	59.6508
20.816	59.8974
20.9	60.1436
20.984	60.3073
21.068	60.3463
21.152	60.3024
21.236	60.2736
21.32	60.3123
21.404	60.3511
21.488	60.2459
21.572	59.9086
21.656	59.4298
21.74	59.0529
21.824	59.0162
21.908	59.357
21.992	59.866
22.076	60.2266
22.16	60.2115
22.244	59.841
22.328	59.3427
22.412	58.9981
22.496	58.9641
22.58	59.1853
22.664	59.4606
22.748	59.5494
22.832	59.302
22.916	58.6993
23	57.8702
23.084	56.9894
23.168	56.2084
23.252	55.6032
23.336	55.1981
23.42	54.9611
23.504	54.92
23.588	55.089
23.672	55.4118
23.756	55.7904
23.84	56.1127
23.924	56.234
24.008	56.113
24.092	55.9054
24.176	55.8425
24.26	56.0068
24.344	56.1901
24.428	56.0136
24.512	55.2015
24.596	53.8019
24.68	52.1537
24.764	50.7603
24.848	50.0755
24.932	50.8307
25.016	53.9015
25.1	60.0984
25.184	69.2026
25.268	79.5528
25.352	88.4991
25.436	93.2429
25.52	92.2237
25.604	85.7236
25.688	75.5141
25.772	64.1247
25.856	53.8138
25.94	46.2225
26.024	42.1249
26.108	41.3532
26.192	43.032
26.276	45.8643
26.36	48.325
26.444	49.2558
26.528	48.348
26.612	46.0567
26.696	43.8095
26.78	43.5668
26.864	47.2201
26.948	55.7521
27.028	67.7962