File: Bakgrunnsmateriale/MATLAB/FTIR/ftir_data/subBb/Mapping_121/C-4040-8_t21_cm-1.asc
PE IR       SPECTRUM    SPECTRUM    ASCII       PEDS        1.60
  -1
C-9AE4~1.ASC
17/03/27
16:08:27.00
17/03/27
16:08:27.00
tln
$C-4040-8_t0021$<tbV0>[-10.4,-10.4,8.0,0.0,27,1,0]
370
64

2002,4.07
MIRTGS : RIGHTBACK : INTERNAL 2
MIR : ON : INTERNAL 2
OPTKBR

0.200000
8
8.000000
FILLER
RATIO
SPECTRUM
UNLOCKED 256

DOUBLE
64
COMBINED
1
0
0

1.000000
RATIO

1
0
TRUE
51149
0
LEFT NOT FITTED RIGHT NOT FITTED 0
NONE
NONE
15600
12
4.427000
51148
TRUE
1 0 8 72 0 0 0 0

15798

#HDR
-1
-1
#GR
CM-1
%T
2.38419e-05
0.0
5000
-1.000000
4631
8
75.7084
20.6542
#DATA
5000	63.9439
4984	64.0758
4968	64.0833
4952	63.0115
4936	63.1857
4920	63.6359
4904	64.6801
4888	63.9355
4872	64.158
4856	64.0906
4840	64.2605
4824	63.8967
4808	63.5306
4792	64.074
4776	64.0856
4760	63.8287
4744	64.3768
4728	63.5849
4712	64.3764
4696	64.0055
4680	64.1047
4664	63.9959
4648	63.7422
4632	64.2672
4616	64.2375
4600	63.8948
4584	63.78
4568	63.5245
4552	63.5963
4536	63.5224
4520	63.4423
4504	63.7388
4488	62.6403
4472	63.2741
4456	64.9477
4440	66.7485
4424	61.3716
4408	62.7874
4392	62.6688
4376	68.7808
4360	66.9559
4344	64.0633
4328	62.6696
4312	62.557
4296	63.0543
4280	63.0579
4264	63.1266
4248	62.8396
4232	62.6694
4216	63.033
4200	62.9318
4184	62.0248
4168	63.2014
4152	63.3165
4136	63.4826
4120	63.2478
4104	62.8786
4088	63.53
4072	63.5653
4056	63.2421
4040	63.3884
4024	63.3889
4008	63.4791
3992	63.069
3976	63.0398
3960	63.1714
3944	63.1747
3928	63.0623
3912	63.0432
3896	62.9566
3880	62.6704
3864	62.7975
3848	62.9879
3832	62.5952
3816	62.5493
3800	63.0424
3784	62.7354
3768	62.634
3752	63.0008
3736	62.8838
3720	62.7049
3704	62.4264
3688	62.4036
3672	62.5878
3656	62.2996
3640	62.3853
3624	62.19
3608	61.8927
3592	62.1776
3576	62.0042
3560	62.0101
3544	61.6644
3528	61.7122
3512	61.6167
3496	61.6882
3480	61.566
3464	61.4483
3448	61.3822
3432	61.2431
3416	61.0726
3400	61.1534
3384	61.0725
3368	61.0225
3352	60.8269
3336	60.8224
3320	60.7529
3304	60.7591
3288	60.5399
3272	60.7235
3256	60.4161
3240	60.428
3224	60.3674
3208	60.377
3192	60.1618
3176	60.0417
3160	60.1364
3144	59.9839
3128	59.7518
3112	59.9302
3096	59.5245
3080	59.5461
3064	59.6447
3048	59.4851
3032	59.3163
3016	59.2846
3000	58.8876
2984	58.9933
2968	58.8317
2952	58.5852
2936	58.713
2920	58.3351
2904	58.3292
2888	58.2654
2872	58.2101
2856	57.9311
2840	58.1632
2824	58.0271
2808	57.9429
2792	57.7385
2776	57.6127
2760	57.6391
2744	57.5874
2728	57.4215
2712	57.2135
2696	57.2249
2680	57.1092
2664	56.7995
2648	56.7448
2632	56.613
2616	56.4725
2600	56.3183
2584	56.1018
2568	56.1165
2552	55.9448
2536	55.7776
2520	55.731
2504	55.7064
2488	55.36
2472	55.3848
2456	55.2679
2440	55.1128
2424	54.8103
2408	54.7509
2392	54.6835
2376	54.4597
2360	54.4577
2344	54.1919
2328	54.159
2312	53.7455
2296	53.8195
2280	53.5614
2264	53.5041
2248	53.2955
2232	53.1223
2216	52.9985
2200	52.9167
2184	52.7256
2168	52.4765
2152	52.4696
2136	52.1718
2120	52.0921
2104	51.8949
2088	51.9083
2072	51.5104
2056	51.4069
2040	51.3729
2024	51.1222
2008	51.0503
1992	50.941
1976	50.6736
1960	50.5844
1944	50.4073
1928	50.238
1912	50.087
1896	49.9287
1880	49.8969
1864	49.5368
1848	49.4009
1832	49.2659
1816	49.1191
1800	49.0266
1784	48.9087
1768	48.717
1752	48.5027
1736	48.4344
1720	48.3107
1704	48.2246
1688	47.8644
1672	47.6983
1656	47.8173
1640	47.5295
1624	47.1637
1608	46.7516
1592	46.6902
1576	46.7181
1560	46.7159
1544	46.4134
1528	46.0114
1512	46.111
1496	45.7607
1480	45.4893
1464	45.4497
1448	45.2326
1432	45.0447
1416	44.8204
1400	44.585
1384	44.4755
1368	44.2466
1352	44.191
1336	43.7813
1320	43.8273
1304	43.4639
1288	43.369
1272	43.1235
1256	43.0617
1240	42.7935
1224	42.509
1208	42.3749
1192	42.2984
1176	41.972
1160	41.8885
1144	41.6864
1128	41.534
1112	41.4763
1096	41.1318
1080	40.7156
1064	40.6719
1048	40.3476
1032	40.3585
1016	40.4896
1000	40.0194
984	 39.6559
968	 39.7906
952	 39.223
936	 39.0599
920	 38.9165
904	 38.3349
888	 38.404
872	 38.1372
856	 37.7788
840	 37.4438
824	 37.3684
808	 37.1607
792	 36.5703
776	 36.3955
760	 36.2708
744	 36.1149
728	 35.3733
712	 34.8436
696	 34.4666
680	 33.9458
664	 34.1607
648	 33.8274
632	 33.1039
616	 32.2031
600	 32.5208
584	 31.9093
568	 30.7973
552	 30.7144
536	 30.0956
520	 29.6309
504	 29.2128
488	 28.0306
472	 28.1775
456	 26.2398
440	 25.64
424	 27.1817
408	 25.2208
392	 38.6848
376	 43.6108
370	 31.8628