File: Bakgrunnsmateriale/MATLAB/FTIR/ftir_data/subBb/Mapping_121/C-4040-8_t46_cm-1.asc
PE IR       SPECTRUM    SPECTRUM    ASCII       PEDS        1.60
  -1
C-9B6E~1.ASC
17/03/27
18:18:32.00
17/03/27
18:18:32.00
tln
$C-4040-8_t0046$<tbV0>[10.4,-2.6,8.0,0.0,27,1,0]
370
64

2002,4.07
MIRTGS : RIGHTBACK : INTERNAL 2
MIR : ON : INTERNAL 2
OPTKBR

0.200000
8
8.000000
FILLER
RATIO
SPECTRUM
UNLOCKED 256

DOUBLE
64
COMBINED
1
0
0

1.000000
RATIO

1
0
TRUE
51149
0
LEFT NOT FITTED RIGHT NOT FITTED 0
NONE
NONE
15600
12
4.427000
51148
TRUE
1 0 8 72 0 0 0 0

15798

#HDR
-1
-1
#GR
CM-1
%T
2.38419e-05
0.0
5000
-1.000000
4631
8
125.006
44.5901
#DATA
5000	64.9106
4984	65.3723
4968	64.9232
4952	64.2493
4936	64.979
4920	65.0082
4904	65.0166
4888	65.0769
4872	64.9283
4856	64.9354
4840	64.696
4824	64.9814
4808	64.8217
4792	64.7654
4776	64.9588
4760	64.1891
4744	64.4356
4728	64.6644
4712	65.0266
4696	64.8383
4680	64.9209
4664	64.2023
4648	64.6707
4632	64.732
4616	64.1746
4600	64.4969
4584	64.7254
4568	64.9585
4552	64.7553
4536	65.0693
4520	65.3707
4504	65.6776
4488	65.8968
4472	65.1927
4456	65.8974
4440	65.631
4424	66.3829
4408	66.1857
4392	66.1615
4376	65.6838
4360	49.0429
4344	67.5174
4328	66.1435
4312	65.9926
4296	66.1214
4280	66.3268
4264	65.4873
4248	64.7525
4232	65.2699
4216	65.3299
4200	64.9312
4184	64.5165
4168	65.1042
4152	65.3989
4136	65.1493
4120	64.7278
4104	65.012
4088	65.0886
4072	64.9641
4056	64.7982
4040	64.8061
4024	65.1127
4008	65.2576
3992	64.93
3976	65.0704
3960	65.0912
3944	65.1932
3928	65.0622
3912	65.1451
3896	65.2739
3880	65.025
3864	65.111
3848	65.3975
3832	65.0072
3816	64.7917
3800	65.374
3784	65.6179
3768	65.2163
3752	65.3053
3736	65.2788
3720	65.1577
3704	65.2033
3688	65.2466
3672	65.114
3656	65.2708
3640	65.1858
3624	64.9502
3608	65.387
3592	64.9297
3576	65.2714
3560	65.3423
3544	65.2509
3528	65.3623
3512	65.1927
3496	64.9142
3480	65.391
3464	65.4834
3448	65.1562
3432	65.2699
3416	65.2971
3400	65.2283
3384	65.2752
3368	65.4416
3352	65.3018
3336	65.2432
3320	65.4102
3304	65.064
3288	65.238
3272	65.2923
3256	65.3621
3240	65.0286
3224	64.9595
3208	64.9649
3192	65.0445
3176	65.274
3160	65.2916
3144	65.0165
3128	65.3839
3112	64.9675
3096	65.3554
3080	65.2476
3064	65.3072
3048	65.3416
3032	65.1012
3016	65.2818
3000	65.2389
2984	65.2449
2968	65.1466
2952	65.1678
2936	65.2494
2920	64.9848
2904	65.0809
2888	65.1977
2872	65.2863
2856	64.8429
2840	65.2119
2824	65.2601
2808	65.4056
2792	65.2464
2776	65.2482
2760	65.3647
2744	65.2149
2728	65.2823
2712	65.1998
2696	65.2584
2680	65.2179
2664	65.3762
2648	65.3214
2632	65.2417
2616	65.2624
2600	65.365
2584	65.2941
2568	65.3989
2552	65.4264
2536	65.3214
2520	65.5264
2504	65.4976
2488	65.1893
2472	65.2329
2456	65.2398
2440	65.4658
2424	65.6211
2408	65.0708
2392	65.3103
2376	65.264
2360	65.379
2344	65.2807
2328	65.4257
2312	65.296
2296	65.3366
2280	65.2313
2264	65.3394
2248	65.4302
2232	65.516
2216	65.4347
2200	65.2827
2184	65.4121
2168	65.3282
2152	65.3047
2136	65.4974
2120	65.4209
2104	65.2997
2088	65.4185
2072	65.4091
2056	65.4892
2040	65.1878
2024	65.3798
2008	65.3566
1992	65.399
1976	65.3737
1960	65.1407
1944	65.4075
1928	65.3429
1912	65.3168
1896	65.429
1880	65.3794
1864	65.3039
1848	65.258
1832	65.5273
1816	65.3769
1800	65.2987
1784	65.2643
1768	65.1444
1752	65.2115
1736	64.8937
1720	65.1942
1704	65.3828
1688	65.2622
1672	65.3034
1656	65.3482
1640	65.2557
1624	65.1877
1608	65.2502
1592	65.1507
1576	65.1664
1560	65.1677
1544	65.1595
1528	65.2503
1512	65.1971
1496	65.1261
1480	65.3138
1464	65.1959
1448	65.2813
1432	65.0346
1416	65.1176
1400	65.0315
1384	65.175
1368	65.0828
1352	65.1952
1336	65.0568
1320	65.0851
1304	65.0897
1288	65.0431
1272	65.0313
1256	64.9621
1240	65.0876
1224	64.9252
1208	65.1764
1192	64.9499
1176	64.8235
1160	64.9621
1144	65.3035
1128	65.0245
1112	64.6818
1096	65.0601
1080	65.0305
1064	65.0316
1048	64.8759
1032	64.4502
1016	64.6834
1000	64.7663
984	 64.8431
968	 64.2918
952	 64.6613
936	 64.439
920	 64.5304
904	 64.6044
888	 64.4499
872	 64.4315
856	 64.4441
840	 64.4602
824	 64.4045
808	 64.5611
792	 64.2413
776	 64.175
760	 64.024
744	 63.8709
728	 63.5541
712	 63.6742
696	 63.889
680	 63.287
664	 63.2827
648	 62.7264
632	 63.4706
616	 63.181
600	 62.8661
584	 61.848
568	 62.4636
552	 62.3782
536	 61.6126
520	 61.0178
504	 60.5611
488	 60.6531
472	 59.4124
456	 60.5935
440	 60.0544
424	 61.9241
408	 63.0854
392	 119.37
376	 80.7909
370	 45.8837