File: Bakgrunnsmateriale/MATLAB/FTIR/ftir_data/subBb/Mapping_121/C-4040-8_e124.asc
PE IR       SPECTRUM    SPECTRUM    ASCII       PEDS        1.60
  -1
C-7CC3~1.ASC
17/03/27
18:08:11.00
17/03/27
18:08:37.00
tln
$C-4040-8_e0124$<ebV0>[-23.3,12.1,10.0,0.0,27,1,0]
27.028
64

2002,4.07
MIRTGS : RIGHTBACK : INTERNAL 2
MIR : ON : INTERNAL 2
OPTKBR

0.200000
8
8.000000
FILLER
SINGLE
SPECTRUM
UNLOCKED 256

DOUBLE

COMBINED
1
0
0

0.002000
BACKG

1
0
TRUE
51149
0
LEFT NOT FITTED RIGHT NOT FITTED 0
NONE
NONE
15600
12
4.427000
51148
TRUE
1 0 8 72 0 0 0 0

15798

#HDR
-1
-1
#GR
µM
EGY
2.38419e-05
0.0
2.000000
0.002000
12515
8
2.460766
0.007486
#DATA
2.000000	 0.766897
2.084000	 0.864567
2.168000	 0.930978
2.252000	 1.004886
2.336000	 1.129352
2.420000	 1.231769
2.504000	 1.391045
2.588000	 1.446079
2.672000	 1.549245
2.756000	 1.575586
2.840000	 1.627344
2.924000	 1.584233
3.008000	 1.684304
3.092000	 1.781765
3.176000	 1.813105
3.260000	 1.931514
3.344000	 2.029412
3.428000	 1.837425
3.512000	 2.011016
3.596000	 2.218056
3.680000	 2.256423
3.764000	 2.217467
3.848000	 2.225122
3.932000	 2.293842
4.016000	 2.330107
4.100000	 2.285333
4.184000	 2.248569
4.268000	 2.264587
4.352000	 2.340358
4.436000	 2.377729
4.520000	 2.369430
4.604000	 2.340231
4.688000	 2.333390
4.772000	 2.338563
4.856000	 2.388337
4.940000	 2.443379
5.024000	 2.457036
5.108000	 2.434581
5.192000	 2.403538
5.276000	 2.371127
5.359999	 2.383208
5.444000	 2.406676
5.528000	 2.431140
5.612000	 2.431773
5.696000	 2.400765
5.780000	 2.325639
5.864000	 2.281447
5.948000	 2.238256
6.032000	 2.192264
6.116000	 2.142069
6.200000	 2.008368
6.284000	 2.019651
6.368000	 1.978281
6.452000	 1.957819
6.536000	 2.100854
6.620000	 2.086193
6.704000	 1.690344
6.788000	 1.976449
6.872000	 1.800684
6.956000	 1.864144
7.040000	 1.856463
7.124000	 1.726063
7.208000	 1.786204
7.292000	 1.814365
7.376000	 1.815639
7.460000	 1.816565
7.544000	 1.847789
7.628000	 1.854103
7.712000	 1.854359
7.796000	 1.849511
7.880000	 1.774199
7.964000	 1.759764
8.048000	 1.831807
8.132000	 1.827731
8.216000	 1.785692
8.300000	 1.743387
8.384000	 1.740211
8.468000	 1.713455
8.552000	 1.673316
8.635999	 1.618709
8.719999	 1.596860
8.804000	 1.576852
8.888000	 1.524792
8.972000	 1.468074
9.056000	 1.436480
9.140000	 1.429399
9.224000	 1.423607
9.308000	 1.429747
9.391999	 1.436526
9.475999	 1.358069
9.560000	 1.328218
9.644000	 1.385803
9.728000	 1.371319
9.812000	 1.364130
9.896000	 1.379751
9.980000	 1.396845
10.064	1.394936
10.148	1.384221
10.232	1.368681
10.316	1.348802
10.4	1.320090
10.484	1.292131
10.568	1.271592
10.652	1.258653
10.736	1.240736
10.82	1.223652
10.904	1.204928
10.988	1.178786
11.072	1.159760
11.156	1.151890
11.24	1.130846
11.324	1.077450
11.408	1.033343
11.492	1.048070
11.576	1.081934
11.66	1.092060
11.744	1.085587
11.828	1.075526
11.912	1.057054
11.996	0.992351
12.08	0.881554
12.164	0.850571
12.248	0.914328
12.332	0.944910
12.416	0.945595
12.5	0.944876
12.584	0.953047
12.668	0.969551
12.752	0.979629
12.836	0.979792
12.92	0.974886
13.004	0.969523
13.088	0.965475
13.172	0.962759
13.256	0.959541
13.34	0.947784
13.424	0.939278
13.508	0.933681
13.592	0.923112
13.676	0.911824
13.76	0.900594
13.844	0.888768
13.928	0.874297
14.012	0.859614
14.096	0.847452
14.18	0.832789
14.264	0.814413
14.348	0.793010
14.432	0.764846
14.516	0.738735
14.6	0.731426
14.684	0.735891
14.768	0.734966
14.852	0.727892
14.936	0.720279
15.02	0.712953
15.104	0.703837
15.188	0.692509
15.272	0.681516
15.356	0.672894
15.44	0.665879
15.524	0.658293
15.608	0.649043
15.692	0.639221
15.776	0.629713
15.86	0.620047
15.944	0.610382
16.028	0.601102
16.112	0.591541
16.196	0.580278
16.28	0.566292
16.364	0.550203
16.448	0.535200
16.532	0.525760
16.616	0.523411
16.7	0.524681
16.784	0.524737
16.868	0.521854
16.952	0.517809
17.036	0.514307
17.12	0.511105
17.204	0.507904
17.288	0.505147
17.372	0.503045
17.456	0.500842
17.54	0.497636
17.624	0.493276
17.708	0.488403
17.792	0.483600
17.876	0.479014
17.96	0.474368
18.044	0.469730
18.128	0.465301
18.212	0.461058
18.296	0.456910
18.38	0.453053
18.464	0.449276
18.548	0.444886
18.632	0.439587
18.716	0.433724
18.8	0.428022
18.884	0.422372
18.968	0.416570
19.052	0.411048
19.136	0.406316
19.22	0.402353
19.304	0.398144
19.388	0.392937
19.472	0.386807
19.556	0.380342
19.64	0.374132
19.724	0.368132
19.808	0.361990
19.892	0.355443
19.976	0.348601
20.06	0.341692
20.144	0.334832
20.228	0.327922
20.312	0.320807
20.396	0.313507
20.48	0.306246
20.564	0.299318
20.648	0.292826
20.732	0.286643
20.816	0.280506
20.9	0.274331
20.984	0.268190
21.068	0.262112
21.152	0.256164
21.236	0.250201
21.32	0.244070
21.404	0.237827
21.488	0.231555
21.572	0.225346
21.656	0.219118
21.74	0.212575
21.824	0.205554
21.908	0.198208
21.992	0.191254
22.076	0.185310
22.16	0.180636
22.244	0.176857
22.328	0.173276
22.412	0.169267
22.496	0.164673
22.58	0.159599
22.664	0.154510
22.748	0.149508
22.832	0.144665
22.916	0.139886
23	0.135034
23.084	0.130056
23.168	0.124911
23.252	0.119619
23.336	0.114192
23.42	0.108689
23.504	0.103084
23.588	0.097550
23.672	0.092231
23.756	0.087332
23.84	0.082994
23.924	0.079203
24.008	0.075895
24.092	0.072718
24.176	0.069433
24.26	0.065752
24.344	0.061778
24.428	0.057637
24.512	0.053615
24.596	0.050009
24.68	0.046979
24.764	0.044416
24.848	0.042042
24.932	0.039565
25.016	0.036716
25.1	0.033519
25.184	0.030118
25.268	0.026869
25.352	0.024071
25.436	0.021977
25.52	0.020621
25.604	0.019897
25.688	0.019503
25.772	0.019150
25.856	0.018639
25.94	0.017782
26.024	0.016574
26.108	0.015098
26.192	0.013513
26.276	0.011935
26.36	0.010588
26.444	0.009593
26.528	0.008948
26.612	0.008630
26.696	0.008469
26.78	0.008336
26.864	0.008154
26.948	0.007869
27.028	0.007486