File: Bakgrunnsmateriale/MATLAB/FTIR/ftir_data/subBb/Mapping_121/C-4040-8_t95_cm-1.asc
PE IR       SPECTRUM    SPECTRUM    ASCII       PEDS        1.60
  -1
C-1EEE~1.ASC
17/03/27
22:19:06.00
17/03/27
22:19:06.00
tln
$C-4040-8_t0095$<tbV0>[-2.6,7.8,8.0,0.0,27,1,0]
370
64

2002,4.07
MIRTGS : RIGHTBACK : INTERNAL 2
MIR : ON : INTERNAL 2
OPTKBR

0.200000
8
8.000000
FILLER
RATIO
SPECTRUM
UNLOCKED 256

DOUBLE
64
COMBINED
1
0
0

1.000000
RATIO

1
0
TRUE
51149
0
LEFT NOT FITTED RIGHT NOT FITTED 0
NONE
NONE
15600
12
4.427000
51148
TRUE
1 0 8 72 0 0 0 0

15798

#HDR
-1
-1
#GR
CM-1
%T
2.38419e-05
0.0
5000
-1.000000
4631
8
101.721
-17.1446
#DATA
5000	65.4427
4984	65.0223
4968	64.6605
4952	65.185
4936	64.9284
4920	64.9397
4904	65.0454
4888	66.1722
4872	65.0824
4856	65.0938
4840	64.9769
4824	65.2193
4808	65.1747
4792	65.2332
4776	65.088
4760	65.0858
4744	64.871
4728	64.5879
4712	65.0157
4696	65.2551
4680	64.9395
4664	65.3121
4648	65.4556
4632	65.1495
4616	65.5923
4600	65.3905
4584	65.1974
4568	65.1445
4552	65.6205
4536	65.0149
4520	65.1679
4504	64.9445
4488	65.4586
4472	65.1222
4456	64.974
4440	65.115
4424	65.1935
4408	65.9582
4392	63.7776
4376	60.8167
4360	65.836
4344	65.4187
4328	65.2989
4312	65.0029
4296	65.1981
4280	64.9395
4264	65.532
4248	64.6197
4232	65.0423
4216	64.8018
4200	64.3503
4184	64.9587
4168	64.3304
4152	65.5346
4136	65.1914
4120	65.2688
4104	65.2698
4088	64.8687
4072	64.8741
4056	65.0296
4040	65.0994
4024	65.2033
4008	65.2822
3992	65.2533
3976	65.1661
3960	65.0766
3944	65.2183
3928	64.9362
3912	65.5531
3896	64.9559
3880	65.0897
3864	65.1925
3848	64.9986
3832	65.2257
3816	65.6457
3800	65.2361
3784	65.2042
3768	65.5162
3752	65.3884
3736	65.3088
3720	65.1316
3704	65.2197
3688	65.3474
3672	65.073
3656	65.3862
3640	65.3841
3624	65.4351
3608	65.022
3592	65.3696
3576	65.2359
3560	65.4646
3544	65.0037
3528	65.3988
3512	65.3042
3496	65.3007
3480	65.0587
3464	65.4576
3448	65.2465
3432	65.5757
3416	65.2616
3400	65.4361
3384	65.035
3368	65.1335
3352	65.3686
3336	65.1312
3320	65.2177
3304	65.2107
3288	65.1963
3272	65.4148
3256	65.1683
3240	65.2039
3224	65.3013
3208	65.1497
3192	64.836
3176	65.3102
3160	65.3546
3144	65.1034
3128	65.5329
3112	65.261
3096	65.1995
3080	65.2001
3064	65.219
3048	65.3697
3032	65.3278
3016	65.3421
3000	65.4274
2984	65.3672
2968	65.3781
2952	65.1887
2936	65.1449
2920	64.9359
2904	65.185
2888	65.1864
2872	65.2488
2856	65.2409
2840	65.1884
2824	65.2797
2808	65.3062
2792	65.4028
2776	65.292
2760	65.3176
2744	65.1481
2728	65.2611
2712	65.2285
2696	65.2008
2680	65.2444
2664	65.3896
2648	65.2527
2632	65.3113
2616	65.2884
2600	65.2201
2584	65.3765
2568	65.3954
2552	65.4068
2536	65.3747
2520	65.2357
2504	65.1804
2488	65.484
2472	65.4331
2456	65.2486
2440	65.4596
2424	65.4314
2408	65.1416
2392	65.1761
2376	65.1036
2360	65.3135
2344	65.3322
2328	65.3128
2312	65.3868
2296	65.3859
2280	65.3412
2264	65.3323
2248	65.2885
2232	65.291
2216	65.3545
2200	65.245
2184	65.4206
2168	65.4491
2152	65.3193
2136	65.5166
2120	65.3176
2104	65.4933
2088	65.51
2072	66.0731
2056	65.5276
2040	65.4818
2024	65.366
2008	65.3349
1992	65.352
1976	65.3006
1960	65.5047
1944	65.4861
1928	65.2952
1912	65.2367
1896	65.3727
1880	65.4478
1864	65.2979
1848	65.2946
1832	65.5249
1816	65.3461
1800	65.4107
1784	65.3607
1768	65.38
1752	65.2013
1736	64.9843
1720	65.0281
1704	65.4239
1688	65.276
1672	65.3416
1656	65.2993
1640	65.3252
1624	65.2085
1608	65.2436
1592	65.1391
1576	65.1733
1560	65.1671
1544	65.2047
1528	65.1588
1512	65.2531
1496	65.272
1480	65.0297
1464	65.3581
1448	65.3109
1432	65.0623
1416	65.1588
1400	65.3241
1384	65.225
1368	64.8807
1352	65.1085
1336	65.0959
1320	65.1557
1304	64.9974
1288	65.1817
1272	65.1296
1256	65.031
1240	64.9388
1224	64.9321
1208	64.8949
1192	65.0324
1176	64.8448
1160	64.9408
1144	64.9695
1128	64.8613
1112	64.8945
1096	64.4332
1080	64.9487
1064	64.6331
1048	64.9243
1032	64.6717
1016	64.7959
1000	64.5838
984	 64.733
968	 64.6086
952	 64.4574
936	 65.0369
920	 64.2854
904	 64.8836
888	 64.5927
872	 64.1298
856	 64.5973
840	 64.225
824	 64.2753
808	 64.0216
792	 64.1666
776	 64.1419
760	 63.7564
744	 64.445
728	 63.7003
712	 63.4909
696	 63.2607
680	 63.6581
664	 63.0072
648	 63.0304
632	 62.9517
616	 63.1104
600	 62.593
584	 62.5574
568	 62.5118
552	 62.134
536	 61.584
520	 61.8599
504	 62.1499
488	 59.8336
472	 60.2453
456	 61.417
440	 57.5161
424	 52.3239
408	 59.0353
392	 86.8019
376	 50.0922
370	 -6.242990