File: Bakgrunnsmateriale/MATLAB/FTIR/ftir_data/subBb/Mapping_121/C-4040-8_t34_cm-1.asc
PE IR       SPECTRUM    SPECTRUM    ASCII       PEDS        1.60
  -1
C-1B6F~1.ASC
17/03/27
17:16:13.00
17/03/27
17:16:13.00
tln
$C-4040-8_t0034$<tbV0>[13.0,-5.2,8.0,0.0,27,1,0]
370
64

2002,4.07
MIRTGS : RIGHTBACK : INTERNAL 2
MIR : ON : INTERNAL 2
OPTKBR

0.200000
8
8.000000
FILLER
RATIO
SPECTRUM
UNLOCKED 256

DOUBLE
64
COMBINED
1
0
0

1.000000
RATIO

1
0
TRUE
51149
0
LEFT NOT FITTED RIGHT NOT FITTED 0
NONE
NONE
15600
12
4.427000
51148
TRUE
1 0 8 72 0 0 0 0

15798

#HDR
-1
-1
#GR
CM-1
%T
2.38419e-05
0.0
5000
-1.000000
4631
8
93.9141
47.9278
#DATA
5000	64.4539
4984	64.6493
4968	64.6539
4952	64.4966
4936	64.9088
4920	64.5947
4904	64.8402
4888	64.3012
4872	64.8401
4856	64.3343
4840	64.5163
4824	65.1287
4808	64.8312
4792	64.9847
4776	64.57
4760	65.0321
4744	65.1583
4728	64.9565
4712	64.8565
4696	65.1504
4680	65.26
4664	65.1783
4648	64.9239
4632	65.1194
4616	65.1923
4600	64.9241
4584	64.5492
4568	64.7861
4552	64.8525
4536	64.9261
4520	65.2507
4504	64.508
4488	64.6932
4472	64.1742
4456	64.3972
4440	64.0934
4424	64.1663
4408	63.6119
4392	64.1409
4376	64.4146
4360	75.7351
4344	65.7176
4328	64.4563
4312	64.5294
4296	64.4264
4280	64.4328
4264	64.2572
4248	64.6545
4232	64.6574
4216	64.6662
4200	65.0535
4184	64.5948
4168	64.1941
4152	64.7964
4136	64.9392
4120	65.0212
4104	64.9026
4088	65.0218
4072	65.0141
4056	64.9288
4040	65.1055
4024	65.0841
4008	64.9015
3992	64.9804
3976	65.0169
3960	65.0182
3944	65.1919
3928	64.8078
3912	64.8013
3896	65.0073
3880	65.1142
3864	64.815
3848	64.8971
3832	64.7784
3816	65.0529
3800	64.8115
3784	64.9738
3768	65.008
3752	65.2661
3736	64.9353
3720	64.9906
3704	65.0002
3688	65.1079
3672	65.0673
3656	64.9639
3640	64.9823
3624	65.1171
3608	65.1524
3592	64.9869
3576	65.0406
3560	64.9881
3544	65.0453
3528	65.1624
3512	65.2328
3496	65.2225
3480	65.3134
3464	65.3002
3448	65.209
3432	65.0625
3416	64.8844
3400	65.1443
3384	64.9653
3368	65.0534
3352	64.9978
3336	65.0701
3320	65.023
3304	65.2004
3288	65.1487
3272	64.9421
3256	65.1244
3240	65.1412
3224	64.981
3208	64.9702
3192	65.1491
3176	65.3323
3160	65.0251
3144	65.1469
3128	64.8507
3112	65.3971
3096	65.2465
3080	65.0892
3064	65.1102
3048	65.071
3032	65.2788
3016	65.1227
3000	65.0177
2984	65.1163
2968	65.1361
2952	64.9896
2936	65.0904
2920	64.8115
2904	64.905
2888	65.0701
2872	65.0427
2856	64.9027
2840	65.2603
2824	65.2129
2808	65.3114
2792	65.2313
2776	65.2422
2760	65.2888
2744	65.1685
2728	65.2432
2712	65.208
2696	65.3191
2680	65.2604
2664	65.3072
2648	65.1527
2632	65.3071
2616	65.1883
2600	65.2722
2584	65.1069
2568	65.2306
2552	65.2729
2536	65.3005
2520	65.2313
2504	65.1993
2488	65.1832
2472	65.161
2456	65.285
2440	65.1923
2424	65.3284
2408	65.0385
2392	65.3797
2376	65.3621
2360	65.2498
2344	65.4161
2328	65.3311
2312	65.309
2296	65.2695
2280	65.2448
2264	65.2702
2248	65.2728
2232	65.3603
2216	65.188
2200	65.2941
2184	65.3588
2168	65.3132
2152	65.204
2136	65.2915
2120	65.2669
2104	65.3129
2088	65.3969
2072	65.2813
2056	65.4211
2040	65.2903
2024	65.22
2008	65.3454
1992	65.3335
1976	65.3377
1960	65.4069
1944	65.2835
1928	65.4771
1912	65.2993
1896	65.379
1880	65.2756
1864	65.3062
1848	65.2857
1832	65.1635
1816	65.3267
1800	65.2247
1784	65.191
1768	65.2511
1752	65.2855
1736	65.0011
1720	65.1304
1704	65.3522
1688	65.3164
1672	65.0726
1656	65.1543
1640	65.1713
1624	65.1532
1608	65.1714
1592	65.1923
1576	65.0579
1560	65.01
1544	64.9579
1528	64.9568
1512	65.2199
1496	65.2229
1480	65.098
1464	64.9825
1448	65.1468
1432	65.0072
1416	65.0427
1400	65.1172
1384	64.9277
1368	65.0343
1352	65.1297
1336	65.0893
1320	65.142
1304	65.0048
1288	64.9061
1272	65.0516
1256	64.9639
1240	64.9579
1224	64.882
1208	64.8094
1192	64.8932
1176	64.997
1160	64.5166
1144	64.724
1128	64.7151
1112	64.7123
1096	64.5328
1080	64.896
1064	64.4618
1048	65.0576
1032	64.7709
1016	64.8933
1000	64.715
984	 64.9511
968	 64.6392
952	 64.5502
936	 64.5305
920	 64.5025
904	 64.4861
888	 64.3301
872	 64.3007
856	 64.4599
840	 64.1894
824	 64.1949
808	 64.1158
792	 64.269
776	 63.9578
760	 63.6029
744	 64.0995
728	 63.5151
712	 63.3317
696	 63.2654
680	 62.951
664	 63.1052
648	 62.7521
632	 62.384
616	 62.4676
600	 62.5804
584	 61.7205
568	 61.6297
552	 61.4847
536	 61.4534
520	 61.1765
504	 60.7426
488	 60.7995
472	 59.1309
456	 58.8333
440	 57.932
424	 57.7135
408	 55.0592
392	 86.7357
376	 73.1343
370	 47.9278