File: Bakgrunnsmateriale/MATLAB/FTIR/ftir_data/subBb/Mapping_121/C-4040-8_t99_cm-1.asc
PE IR       SPECTRUM    SPECTRUM    ASCII       PEDS        1.60
  -1
C-1EE0~1.ASC
17/03/27
22:37:33.00
17/03/27
22:37:33.00
tln
$C-4040-8_t0099$<tbV0>[-13.0,7.8,8.0,0.0,27,1,0]
370
64

2002,4.07
MIRTGS : RIGHTBACK : INTERNAL 2
MIR : ON : INTERNAL 2
OPTKBR

0.200000
8
8.000000
FILLER
RATIO
SPECTRUM
UNLOCKED 256

DOUBLE
64
COMBINED
1
0
0

1.000000
RATIO

1
0
TRUE
51149
0
LEFT NOT FITTED RIGHT NOT FITTED 0
NONE
NONE
15600
12
4.427000
51148
TRUE
1 0 8 72 0 0 0 0

15798

#HDR
-1
-1
#GR
CM-1
%T
2.38419e-05
0.0
5000
-1.000000
4631
8
174.468
49.0629
#DATA
5000	65.202
4984	64.5615
4968	64.4348
4952	64.8788
4936	63.9565
4920	65.0232
4904	64.2493
4888	65.6089
4872	65.0512
4856	64.6256
4840	64.6611
4824	64.6757
4808	64.8762
4792	65.2611
4776	64.9791
4760	65.0417
4744	64.93
4728	65.3291
4712	65.2966
4696	64.9455
4680	65.1449
4664	65.1257
4648	65.1558
4632	65.4964
4616	64.7113
4600	64.7897
4584	64.8316
4568	64.5744
4552	64.6113
4536	63.3732
4520	64.525
4504	63.53
4488	63.5787
4472	63.4686
4456	63.479
4440	63.172
4424	62.7208
4408	63.2025
4392	75.8104
4376	66.5928
4360	64.0072
4344	63.8708
4328	63.9077
4312	63.3356
4296	63.7121
4280	63.8572
4264	64.4453
4248	63.7774
4232	64.5848
4216	64.5199
4200	64.2775
4184	64.4879
4168	64.3443
4152	64.9404
4136	64.9954
4120	65.0675
4104	65.2797
4088	64.8135
4072	65.2159
4056	65.1835
4040	65.1583
4024	65.3831
4008	65.239
3992	64.9657
3976	65.0347
3960	64.9176
3944	64.9359
3928	64.8276
3912	64.7809
3896	64.8877
3880	64.7419
3864	64.8248
3848	64.9369
3832	64.4986
3816	64.711
3800	64.7397
3784	65.055
3768	65.1295
3752	65.0615
3736	65.0344
3720	65.1058
3704	65.1225
3688	65.257
3672	65.3033
3656	65.241
3640	65.1538
3624	65.1762
3608	65.2426
3592	65.3342
3576	65.1166
3560	65.326
3544	65.1244
3528	65.0796
3512	64.965
3496	64.8696
3480	64.7786
3464	64.8844
3448	64.8061
3432	65.126
3416	64.8798
3400	65.0047
3384	64.768
3368	64.9726
3352	65.0377
3336	64.9873
3320	64.8043
3304	65.0765
3288	65.1172
3272	65.1786
3256	65.0781
3240	65.159
3224	64.962
3208	65.1445
3192	65.088
3176	65.1433
3160	65.3054
3144	65.113
3128	65.1253
3112	65.0445
3096	65.2853
3080	65.0908
3064	64.9308
3048	65.1778
3032	65.2035
3016	65.0386
3000	65.2049
2984	65.0142
2968	64.898
2952	64.883
2936	65.0323
2920	64.625
2904	64.9279
2888	64.9281
2872	64.8373
2856	64.8771
2840	65.038
2824	65.0552
2808	65.144
2792	65.1509
2776	65.0692
2760	65.2144
2744	65.1287
2728	64.9482
2712	65.1625
2696	65.0643
2680	65.1099
2664	65.2051
2648	65.0622
2632	65.0708
2616	65.2564
2600	64.9616
2584	65.1803
2568	65.0305
2552	64.9419
2536	65.1348
2520	65.1084
2504	65.1295
2488	65.2138
2472	65.2205
2456	65.2053
2440	65.1873
2424	65.0135
2408	65.1961
2392	65.1347
2376	65.0951
2360	65.1895
2344	65.2181
2328	65.1942
2312	65.3493
2296	65.2613
2280	65.283
2264	65.2257
2248	65.2278
2232	65.158
2216	65.1383
2200	65.0879
2184	65.2094
2168	65.2992
2152	65.3869
2136	65.1642
2120	65.1567
2104	65.1855
2088	64.8437
2072	65.4481
2056	65.2136
2040	65.2043
2024	65.1426
2008	65.2031
1992	65.1357
1976	65.2995
1960	65.3007
1944	65.2289
1928	65.2835
1912	65.1079
1896	65.1137
1880	65.0946
1864	65.2204
1848	65.2096
1832	65.2678
1816	65.1327
1800	65.306
1784	65.2212
1768	65.2515
1752	65.1722
1736	65.015
1720	64.9252
1704	65.2308
1688	65.2213
1672	65.2419
1656	65.0971
1640	65.1842
1624	65.0855
1608	64.9733
1592	64.9621
1576	64.9814
1560	64.8517
1544	65.0995
1528	64.9798
1512	65.0311
1496	65.1401
1480	65.1003
1464	65.0877
1448	64.9923
1432	64.9474
1416	64.8866
1400	65.1678
1384	64.905
1368	64.897
1352	65.0023
1336	64.8107
1320	65.0246
1304	64.9248
1288	64.8648
1272	64.8053
1256	64.9409
1240	64.9401
1224	64.8732
1208	64.8319
1192	64.9121
1176	64.9082
1160	64.8028
1144	64.6884
1128	64.59
1112	64.6877
1096	64.6017
1080	64.3599
1064	64.628
1048	64.881
1032	64.4525
1016	64.5854
1000	64.6142
984	 64.5776
968	 64.4197
952	 64.3364
936	 64.2949
920	 64.9285
904	 64.2242
888	 64.5909
872	 64.5198
856	 64.429
840	 64.08
824	 64.3233
808	 64.2126
792	 63.948
776	 63.6532
760	 64.2423
744	 63.663
728	 63.7993
712	 63.4767
696	 63.2696
680	 63.2774
664	 62.9437
648	 62.5669
632	 62.635
616	 62.5379
600	 62.086
584	 62.3177
568	 62.5299
552	 62.8521
536	 62.0805
520	 61.1555
504	 61.6447
488	 61.0046
472	 60.3297
456	 60.4126
440	 58.4097
424	 54.8695
408	 55.1115
392	 49.3768
376	 131.71
370	 129.203