File: Bakgrunnsmateriale/MATLAB/FTIR/ftir_data/subBb/Mapping_121/C-4040-8_t24.asc
PE IR       SPECTRUM    SPECTRUM    ASCII       PEDS        1.60
  -1
C-BD2A~1.ASC
17/03/27
16:29:26.00
17/03/27
16:29:52.00
tln
$C-4040-8_t0024$<tbV0>[10.4,-7.8,8.0,0.0,27,1,0]
27.028
64

2002,4.07
MIRTGS : RIGHTBACK : INTERNAL 2
MIR : ON : INTERNAL 2
OPTKBR

0.200000
8
8.000000
FILLER
RATIO
SPECTRUM
UNLOCKED 256

DOUBLE
64
COMBINED
1
0
0

0.002000
RATIO

1
0
TRUE
51149
0
LEFT NOT FITTED RIGHT NOT FITTED 0
NONE
NONE
15600
12
4.427000
51148
TRUE
1 0 8 72 0 0 0 0

15798

#HDR
-1
-1
#GR
µM
%T
2.38419e-05
0.0
2.000000
0.002000
12515
8
104.478
50.4745
#DATA
2.000000	 65.1317
2.084000	 65.1415
2.168000	 64.9861
2.252000	 65.8597
2.336000	 65.3205
2.420000	 65.1457
2.504000	 64.9548
2.588000	 65.2251
2.672000	 65.1733
2.756000	 65.093
2.840000	 65.2255
2.924000	 64.9902
3.008000	 65.2045
3.092000	 65.2537
3.176000	 65.0846
3.260000	 65.2434
3.344000	 65.3508
3.428000	 64.823
3.512000	 64.8686
3.596000	 65.3989
3.680000	 65.3434
3.764000	 65.4007
3.848000	 65.2942
3.932000	 65.4837
4.016000	 65.104
4.100000	 65.3509
4.184000	 65.3644
4.268000	 65.3846
4.352000	 65.3239
4.436000	 65.2467
4.520000	 65.3457
4.604000	 65.3501
4.688000	 65.4783
4.772000	 65.3568
4.856000	 65.4292
4.940000	 65.4259
5.024000	 65.4503
5.108000	 65.4557
5.192000	 65.3839
5.276000	 65.3393
5.359999	 65.3534
5.444000	 65.4775
5.528000	 65.3382
5.612000	 65.4081
5.696000	 65.3246
5.780000	 65.131
5.864000	 65.3562
5.948000	 65.3445
6.032000	 65.368
6.116000	 65.4146
6.200000	 65.3278
6.284000	 65.3881
6.368000	 65.171
6.452000	 65.202
6.536000	 65.2332
6.620000	 65.2
6.704000	 65.2065
6.788000	 65.196
6.872000	 65.3982
6.956000	 65.4546
7.040000	 65.3538
7.124000	 65.1646
7.208000	 65.143
7.292000	 65.0921
7.376000	 65.3573
7.460000	 65.1399
7.544000	 65.1406
7.628000	 65.1221
7.712000	 65.228
7.796000	 65.1849
7.880000	 65.2292
7.964000	 65.4294
8.048000	 65.1893
8.132000	 65.255
8.216000	 65.1789
8.300000	 65.173
8.384000	 65.1401
8.468000	 65.2063
8.552000	 65.0204
8.635999	 65.1854
8.719999	 65.1899
8.804000	 65.3016
8.888000	 65.2528
8.972000	 65.1506
9.056000	 65.2837
9.140000	 65.4737
9.224000	 65.4917
9.308000	 65.0211
9.391999	 64.9781
9.475999	 65.1543
9.560000	 65.1071
9.644000	 65.0539
9.728000	 65.3374
9.812000	 65.5561
9.896000	 65.0943
9.980000	 64.7921
10.064	65.0538
10.148	64.9399
10.232	65.1871
10.316	64.951
10.4	64.8011
10.484	65.3727
10.568	65.3618
10.652	65.0751
10.736	64.9623
10.82	65.1136
10.904	65.2147
10.988	65.1888
11.072	65.3015
11.156	65.2883
11.24	65.2552
11.324	65.2102
11.408	64.9198
11.492	64.8974
11.576	65.0644
11.66	65.0074
11.744	65.0806
11.828	65.2361
11.912	65.1795
11.996	65.2015
12.08	65.0596
12.164	64.8146
12.248	64.7887
12.332	64.8321
12.416	65.0127
12.5	65.2183
12.584	65.2967
12.668	65.2131
12.752	65.113
12.836	64.8552
12.92	64.7933
13.004	64.6749
13.088	64.6496
13.172	64.8797
13.256	64.9082
13.34	64.7649
13.424	64.684
13.508	64.8608
13.592	64.8926
13.676	64.8507
13.76	64.8641
13.844	64.8571
13.928	64.9564
14.012	65.0878
14.096	65.0876
14.18	64.9384
14.264	64.8248
14.348	64.6791
14.432	64.4186
14.516	64.3765
14.6	64.4774
14.684	64.3478
14.768	64.1865
14.852	64.4008
14.936	64.774
15.02	64.7246
15.104	64.366
15.188	64.2709
15.272	64.3814
15.356	64.3751
15.44	64.3054
15.524	64.2019
15.608	64.0876
15.692	64.1617
15.776	64.358
15.86	64.5123
15.944	64.6912
16.028	64.845
16.112	64.7965
16.196	64.5864
16.28	64.4349
16.364	64.4954
16.448	64.6433
16.532	64.5982
16.616	64.3852
16.7	64.3151
16.784	64.4376
16.868	64.5174
16.952	64.4802
17.036	64.4666
17.12	64.5297
17.204	64.5765
17.288	64.5669
17.372	64.5701
17.456	64.6122
17.54	64.5981
17.624	64.4576
17.708	64.2877
17.792	64.223
17.876	64.2263
17.96	64.1763
18.044	64.0979
18.128	64.1188
18.212	64.2642
18.296	64.42
18.38	64.4636
18.464	64.3607
18.548	64.1663
18.632	63.9804
18.716	63.8881
18.8	63.909
18.884	63.9934
18.968	64.0489
19.052	63.9868
19.136	63.8094
19.22	63.6437
19.304	63.6414
19.388	63.8378
19.472	64.1264
19.556	64.3542
19.64	64.4311
19.724	64.3504
19.808	64.1535
19.892	63.8862
19.976	63.5864
20.06	63.2821
20.144	63.0066
20.228	62.8102
20.312	62.7442
20.396	62.8221
20.48	62.9981
20.564	63.1906
20.648	63.3487
20.732	63.4778
20.816	63.6167
20.9	63.7768
20.984	63.931
21.068	64.0406
21.152	64.0955
21.236	64.1273
21.32	64.1887
21.404	64.3163
21.488	64.5014
21.572	64.6883
21.656	64.7929
21.74	64.7383
21.824	64.4944
21.908	64.0908
21.992	63.5992
22.076	63.1057
22.16	62.6748
22.244	62.3333
22.328	62.083
22.412	61.9176
22.496	61.8256
22.58	61.7758
22.664	61.7157
22.748	61.6051
22.832	61.4602
22.916	61.3455
23	61.2985
23.084	61.2738
23.168	61.1525
23.252	60.8289
23.336	60.2767
23.42	59.594
23.504	58.989
23.588	58.6521
23.672	58.6771
23.756	59.07
23.84	59.6826
23.924	60.3155
24.008	60.8103
24.092	61.078
24.176	61.0923
24.26	60.9556
24.344	60.8976
24.428	61.1152
24.512	61.5912
24.596	62.0395
24.68	62.0923
24.764	61.5697
24.848	60.6081
24.932	59.6195
25.016	59.1533
25.1	59.6728
25.184	61.8357
25.268	66.301
25.352	73.457
25.436	82.766
25.52	92.5235
25.604	100.385
25.688	104.25
25.772	103.34
25.856	98.5264
25.94	91.7478
26.024	85.2789
26.108	80.7735
26.192	79.0014
26.276	79.7922
26.36	82.3997
26.444	85.5494
26.528	87.8687
26.612	88.1858
26.696	85.9065
26.78	81.1803
26.864	74.9143
26.948	68.4998
27.028	63.7244