File: Bakgrunnsmateriale/MATLAB/FTIR/ftir_data/subBb/Mapping_121/C-4040-8_t80.asc
PE IR       SPECTRUM    SPECTRUM    ASCII       PEDS        1.60
  -1
C-A54A~1.ASC
17/03/27
21:03:25.00
17/03/27
21:03:51.00
tln
$C-4040-8_t0080$<tbV0>[7.8,5.2,8.0,0.0,27,1,0]
27.028
64

2002,4.07
MIRTGS : RIGHTBACK : INTERNAL 2
MIR : ON : INTERNAL 2
OPTKBR

0.200000
8
8.000000
FILLER
RATIO
SPECTRUM
UNLOCKED 256

DOUBLE
64
COMBINED
1
0
0

0.002000
RATIO

1
0
TRUE
51149
0
LEFT NOT FITTED RIGHT NOT FITTED 0
NONE
NONE
15600
12
4.427000
51148
TRUE
1 0 8 72 0 0 0 0

15798

#HDR
-1
-1
#GR
µM
%T
2.38419e-05
0.0
2.000000
0.002000
12515
8
109.902
40.2511
#DATA
2.000000	 64.8612
2.084000	 65.0036
2.168000	 64.9199
2.252000	 65.0946
2.336000	 64.9795
2.420000	 64.9127
2.504000	 65.1352
2.588000	 65.1669
2.672000	 65.2182
2.756000	 65.15
2.840000	 65.2785
2.924000	 65.1183
3.008000	 65.2146
3.092000	 65.3011
3.176000	 65.1904
3.260000	 65.206
3.344000	 65.1126
3.428000	 64.8582
3.512000	 65.066
3.596000	 65.2349
3.680000	 65.292
3.764000	 65.2807
3.848000	 65.3001
3.932000	 65.317
4.016000	 65.1585
4.100000	 65.5689
4.184000	 65.3199
4.268000	 65.367
4.352000	 65.1952
4.436000	 65.3565
4.520000	 65.3452
4.604000	 65.3199
4.688000	 65.3881
4.772000	 65.4088
4.856000	 65.0587
4.940000	 65.4601
5.024000	 65.2367
5.108000	 65.405
5.192000	 65.3206
5.276000	 65.3269
5.359999	 65.2806
5.444000	 65.2655
5.528000	 65.3692
5.612000	 65.2356
5.696000	 65.3824
5.780000	 65.0234
5.864000	 65.0808
5.948000	 65.2574
6.032000	 65.3192
6.116000	 65.0327
6.200000	 65.0119
6.284000	 65.1492
6.368000	 64.99
6.452000	 64.9593
6.536000	 65.083
6.620000	 65.126
6.704000	 64.9417
6.788000	 65.0491
6.872000	 65.3443
6.956000	 65.2915
7.040000	 65.051
7.124000	 64.9932
7.208000	 65.1088
7.292000	 65.2863
7.376000	 65.1776
7.460000	 65.0347
7.544000	 65.1859
7.628000	 64.9414
7.712000	 65.021
7.796000	 65.212
7.880000	 65.0771
7.964000	 65.0267
8.048000	 64.9093
8.132000	 64.9172
8.216000	 64.9647
8.300000	 65.0159
8.384000	 64.9056
8.468000	 64.9982
8.552000	 64.8623
8.635999	 64.8782
8.719999	 64.7246
8.804000	 64.8864
8.888000	 64.9728
8.972000	 64.7392
9.056000	 64.7924
9.140000	 64.8172
9.224000	 64.5744
9.308000	 64.8877
9.391999	 64.8506
9.475999	 64.79
9.560000	 64.7758
9.644000	 64.697
9.728000	 64.6462
9.812000	 64.5706
9.896000	 64.7708
9.980000	 64.9213
10.064	64.7795
10.148	64.6449
10.232	64.6873
10.316	64.8178
10.4	64.8368
10.484	65.0479
10.568	64.5023
10.652	64.5741
10.736	64.5951
10.82	64.7542
10.904	64.5405
10.988	64.3546
11.072	64.4552
11.156	64.5494
11.24	64.681
11.324	64.851
11.408	64.5326
11.492	64.4687
11.576	64.3173
11.66	64.2036
11.744	64.1487
11.828	64.592
11.912	64.7883
11.996	64.5056
12.08	64.4157
12.164	64.4087
12.248	64.6164
12.332	64.5731
12.416	64.2933
12.5	64.1325
12.584	64.0281
12.668	64.0667
12.752	64.0599
12.836	64.1615
12.92	64.3087
13.004	63.9544
13.088	63.71
13.172	63.7734
13.256	63.506
13.34	63.4885
13.424	63.5922
13.508	63.4946
13.592	63.5141
13.676	63.697
13.76	63.9155
13.844	63.9594
13.928	63.832
14.012	63.593
14.096	63.2862
14.18	63.347
14.264	63.7847
14.348	63.898
14.432	63.7399
14.516	63.5824
14.6	63.3048
14.684	63.1987
14.768	63.2542
14.852	63.2779
14.936	63.1901
15.02	62.8727
15.104	62.6831
15.188	62.7995
15.272	62.9179
15.356	62.9814
15.44	63.0093
15.524	62.8701
15.608	62.5589
15.692	62.3043
15.776	62.3323
15.86	62.49
15.944	62.4764
16.028	62.3632
16.112	62.371
16.196	62.4787
16.28	62.5669
16.364	62.6112
16.448	62.696
16.532	62.8934
16.616	63.0857
16.7	63.0418
16.784	62.7501
16.868	62.4982
16.952	62.5284
17.036	62.7375
17.12	62.8132
17.204	62.6098
17.288	62.282
17.372	62.1023
17.456	62.1757
17.54	62.332
17.624	62.3428
17.708	62.1636
17.792	61.9043
17.876	61.6821
17.96	61.5725
18.044	61.5851
18.128	61.6268
18.212	61.598
18.296	61.5226
18.38	61.485
18.464	61.4948
18.548	61.4978
18.632	61.4764
18.716	61.4499
18.8	61.4028
18.884	61.2921
18.968	61.1131
19.052	60.9155
19.136	60.7835
19.22	60.7972
19.304	60.9716
19.388	61.2286
19.472	61.4606
19.556	61.6159
19.64	61.7179
19.724	61.7853
19.808	61.7774
19.892	61.6342
19.976	61.3593
20.06	61.04
20.144	60.7848
20.228	60.6472
20.312	60.5969
20.396	60.5623
20.48	60.496
20.564	60.4201
20.648	60.4135
20.732	60.5359
20.816	60.7579
20.9	60.9562
20.984	60.9932
21.068	60.8139
21.152	60.472
21.236	60.0794
21.32	59.7427
21.404	59.5321
21.488	59.4994
21.572	59.6787
21.656	60.0554
21.74	60.5302
21.824	60.9321
21.908	61.0984
21.992	60.9842
22.076	60.6975
22.16	60.429
22.244	60.3174
22.328	60.3699
22.412	60.4762
22.496	60.4877
22.58	60.3148
22.664	59.9385
22.748	59.4138
22.832	58.8527
22.916	58.3776
23	58.0753
23.084	57.9666
23.168	57.9621
23.252	57.8991
23.336	57.6264
23.42	57.1243
23.504	56.502
23.588	56.0145
23.672	55.9477
23.756	56.4452
23.84	57.3948
23.924	58.4318
24.008	59.0876
24.092	58.9625
24.176	57.8988
24.26	56.0057
24.344	53.6631
24.428	51.4201
24.512	49.9291
24.596	49.7472
24.68	51.094
24.764	53.6396
24.848	56.6194
24.932	58.8904
25.016	59.4025
25.1	57.6683
25.184	53.9213
25.268	49.095
25.352	44.4711
25.436	41.2855
25.52	40.2547
25.604	41.4533
25.688	44.392
25.772	48.2308
25.856	52.1458
25.94	55.649
26.024	58.6189
26.108	61.1937
26.192	63.5556
26.276	65.8836
26.36	68.3179
26.444	71.0188
26.528	74.1924
26.612	78.1894
26.696	83.2776
26.78	89.4508
26.864	96.3788
26.948	103.499
27.028	109.902