File: Bakgrunnsmateriale/MATLAB/FTIR/ftir_data/subBb/Mapping_121/C-4040-8_t113.asc
PE IR       SPECTRUM    SPECTRUM    ASCII       PEDS        1.60
  -1
C-88C8~1.ASC
17/03/27
23:49:01.00
17/03/27
23:49:27.00
tln
$C-4040-8_t0113$<tbV0>[7.8,13.0,8.0,0.0,27,1,0]
27.028
64

2002,4.07
MIRTGS : RIGHTBACK : INTERNAL 2
MIR : ON : INTERNAL 2
OPTKBR

0.200000
8
8.000000
FILLER
RATIO
SPECTRUM
UNLOCKED 256

DOUBLE
64
COMBINED
1
0
0

0.002000
RATIO

1
0
TRUE
51149
0
LEFT NOT FITTED RIGHT NOT FITTED 0
NONE
NONE
15600
12
4.427000
51148
TRUE
1 0 8 72 0 0 0 0

15798

#HDR
-1
-1
#GR
µM
%T
2.38419e-05
0.0
2.000000
0.002000
12515
8
67.9397
11.1832
#DATA
2.000000	 64.2686
2.084000	 64.7954
2.168000	 64.4385
2.252000	 66.2948
2.336000	 65.6285
2.420000	 64.863
2.504000	 64.8658
2.588000	 65.1138
2.672000	 65.2479
2.756000	 65.2525
2.840000	 65.4357
2.924000	 65.2366
3.008000	 65.1218
3.092000	 65.0488
3.176000	 65.0895
3.260000	 65.2378
3.344000	 65.3455
3.428000	 64.9989
3.512000	 65.1478
3.596000	 65.1678
3.680000	 65.2521
3.764000	 65.2774
3.848000	 65.3181
3.932000	 65.3415
4.016000	 64.9875
4.100000	 65.5715
4.184000	 65.5722
4.268000	 65.334
4.352000	 65.355
4.436000	 65.2997
4.520000	 65.3522
4.604000	 65.3028
4.688000	 65.3285
4.772000	 65.429
4.856000	 65.4958
4.940000	 65.5049
5.024000	 65.2314
5.108000	 65.2675
5.192000	 65.2861
5.276000	 65.3611
5.359999	 65.2011
5.444000	 65.1441
5.528000	 65.1101
5.612000	 65.2369
5.696000	 65.0027
5.780000	 65.079
5.864000	 65.3247
5.948000	 65.176
6.032000	 65.1447
6.116000	 65.2569
6.200000	 65.2061
6.284000	 64.9775
6.368000	 65.1059
6.452000	 65.241
6.536000	 65.1632
6.620000	 65.1657
6.704000	 65.0113
6.788000	 65.0689
6.872000	 65.2036
6.956000	 65.0528
7.040000	 65.1598
7.124000	 64.9932
7.208000	 65.2122
7.292000	 65.0868
7.376000	 65.1192
7.460000	 64.9522
7.544000	 64.9709
7.628000	 65.0431
7.712000	 64.9199
7.796000	 64.9433
7.880000	 65.0068
7.964000	 64.9336
8.048000	 64.8981
8.132000	 64.9308
8.216000	 65.1957
8.300000	 65.0278
8.384000	 65.0338
8.468000	 65.0159
8.552000	 64.9031
8.635999	 64.7695
8.719999	 64.9235
8.804000	 64.9978
8.888000	 64.9109
8.972000	 65.0145
9.056000	 65.2787
9.140000	 64.8694
9.224000	 64.941
9.308000	 64.8866
9.391999	 64.8624
9.475999	 64.574
9.560000	 64.7966
9.644000	 64.9719
9.728000	 64.7261
9.812000	 64.9383
9.896000	 64.8519
9.980000	 64.8918
10.064	64.865
10.148	64.9116
10.232	64.7057
10.316	64.6364
10.4	64.7319
10.484	64.6524
10.568	64.7429
10.652	64.5778
10.736	64.6595
10.82	64.804
10.904	64.639
10.988	64.8781
11.072	65.0198
11.156	64.8373
11.24	64.4409
11.324	64.2067
11.408	64.5211
11.492	64.6332
11.576	64.7355
11.66	64.183
11.744	64.4673
11.828	64.4513
11.912	64.1796
11.996	64.0949
12.08	64.7692
12.164	64.8237
12.248	64.3116
12.332	64.3283
12.416	64.2127
12.5	64.1661
12.584	64.3848
12.668	64.2221
12.752	63.9935
12.836	63.9102
12.92	63.8944
13.004	64.0971
13.088	63.9195
13.172	63.9236
13.256	64.3254
13.34	64.5467
13.424	64.4073
13.508	64.3668
13.592	64.3722
13.676	63.8802
13.76	63.5587
13.844	63.7908
13.928	63.9383
14.012	63.8601
14.096	63.6567
14.18	63.5788
14.264	63.7555
14.348	63.8509
14.432	63.5876
14.516	63.3968
14.6	63.403
14.684	63.328
14.768	63.291
14.852	63.3201
14.936	63.3725
15.02	63.3883
15.104	63.3287
15.188	63.362
15.272	63.5038
15.356	63.6336
15.44	63.7272
15.524	63.6694
15.608	63.3947
15.692	63.1491
15.776	63.1493
15.86	63.2956
15.944	63.3543
16.028	63.3178
16.112	63.3655
16.196	63.408
16.28	63.1908
16.364	62.8696
16.448	62.789
16.532	62.866
16.616	62.8312
16.7	62.7626
16.784	62.8455
16.868	62.9343
16.952	62.7929
17.036	62.4948
17.12	62.3149
17.204	62.3732
17.288	62.5388
17.372	62.6831
17.456	62.8364
17.54	62.9952
17.624	62.9891
17.708	62.7596
17.792	62.5252
17.876	62.4639
17.96	62.4888
18.044	62.4882
18.128	62.5073
18.212	62.6397
18.296	62.8872
18.38	63.1621
18.464	63.3339
18.548	63.2799
18.632	62.9879
18.716	62.5951
18.8	62.2916
18.884	62.1761
18.968	62.2036
19.052	62.2403
19.136	62.1919
19.22	62.0709
19.304	61.9374
19.388	61.793
19.472	61.5789
19.556	61.2964
19.64	61.0691
19.724	61.0222
19.808	61.1306
19.892	61.239
19.976	61.2317
20.06	61.1402
20.144	61.0887
20.228	61.1505
20.312	61.2696
20.396	61.3182
20.48	61.2176
20.564	60.9956
20.648	60.7546
20.732	60.5944
20.816	60.5632
20.9	60.6548
20.984	60.8275
21.068	61.0213
21.152	61.1781
21.236	61.2698
21.32	61.3142
21.404	61.3621
21.488	61.4357
21.572	61.4938
21.656	61.4524
21.74	61.2496
21.824	60.9128
21.908	60.5543
21.992	60.287
22.076	60.1524
22.16	60.101
22.244	60.0483
22.328	59.9668
22.412	59.9045
22.496	59.9603
22.58	60.1995
22.664	60.6145
22.748	61.1129
22.832	61.5593
22.916	61.8275
23	61.8384
23.084	61.5674
23.168	61.0454
23.252	60.3489
23.336	59.5963
23.42	58.9386
23.504	58.5362
23.588	58.504
23.672	58.873
23.756	59.5799
23.84	60.5017
23.924	61.4825
24.008	62.4194
24.092	63.2957
24.176	64.1039
24.26	64.8744
24.344	65.5913
24.428	66.153
24.512	66.437
24.596	66.331
24.68	65.7753
24.764	64.8157
24.848	63.5683
24.932	62.2507
25.016	61.1505
25.1	60.6044
25.184	60.7944
25.268	61.6489
25.352	62.9207
25.436	64.1894
25.52	64.9565
25.604	64.7433
25.688	63.0844
25.772	59.6096
25.856	54.157
25.94	46.9951
26.024	38.8833
26.108	30.9173
26.192	24.0827
26.276	18.9662
26.36	15.6034
26.444	13.5493
26.528	12.2589
26.612	11.4136
26.696	11.2131
26.78	12.2666
26.864	15.4615
26.948	21.5249
27.028	30.0553