File: Bakgrunnsmateriale/MATLAB/FTIR/ftir_data/subBb/Mapping_121/C-4040-8_t16.asc
PE IR       SPECTRUM    SPECTRUM    ASCII       PEDS        1.60
  -1
C-B922~1.ASC
17/03/27
15:45:23.00
17/03/27
15:45:49.00
tln
$C-4040-8_t0016$<tbV0>[2.6,-10.4,8.0,0.0,27,1,0]
27.028
64

2002,4.07
MIRTGS : RIGHTBACK : INTERNAL 2
MIR : ON : INTERNAL 2
OPTKBR

0.200000
8
8.000000
FILLER
RATIO
SPECTRUM
UNLOCKED 256

DOUBLE
64
COMBINED
1
0
0

0.002000
RATIO

1
0
TRUE
51149
0
LEFT NOT FITTED RIGHT NOT FITTED 0
NONE
NONE
15600
12
4.427000
51148
TRUE
1 0 8 72 0 0 0 0

15798

#HDR
-1
-1
#GR
µM
%T
2.38419e-05
0.0
2.000000
0.002000
12515
8
70.0241
6.322476
#DATA
2.000000	 63.7287
2.084000	 63.6263
2.168000	 63.5031
2.252000	 67.3258
2.336000	 63.5015
2.420000	 63.1907
2.504000	 63.1659
2.588000	 62.9181
2.672000	 62.9416
2.756000	 62.4481
2.840000	 61.8661
2.924000	 61.6114
3.008000	 61.2774
3.092000	 60.786
3.176000	 60.609
3.260000	 60.2483
3.344000	 59.7674
3.428000	 59.2787
3.512000	 59.1515
3.596000	 58.7929
3.680000	 58.425
3.764000	 57.9865
3.848000	 57.722
3.932000	 57.236
4.016000	 57.0225
4.100000	 56.6793
4.184000	 56.2734
4.268000	 55.7991
4.352000	 55.5713
4.436000	 55.2866
4.520000	 54.9787
4.604000	 54.7867
4.688000	 54.3391
4.772000	 54.0657
4.856000	 53.7832
4.940000	 53.499
5.024000	 53.3417
5.108000	 52.9246
5.192000	 52.7665
5.276000	 52.5139
5.359999	 52.2282
5.444000	 51.9676
5.528000	 51.76
5.612000	 51.6958
5.696000	 51.4655
5.780000	 51.1917
5.864000	 51.0528
5.948000	 50.9036
6.032000	 50.5689
6.116000	 50.3928
6.200000	 50.0488
6.284000	 49.8352
6.368000	 49.6463
6.452000	 49.5154
6.536000	 49.4278
6.620000	 49.3926
6.704000	 48.9118
6.788000	 48.9793
6.872000	 48.646
6.956000	 48.5289
7.040000	 48.3997
7.124000	 47.9022
7.208000	 47.965
7.292000	 47.7572
7.376000	 47.6695
7.460000	 47.4738
7.544000	 47.4602
7.628000	 47.3274
7.712000	 47.0835
7.796000	 47.0634
7.880000	 46.8314
7.964000	 46.7411
8.048000	 46.5128
8.132000	 46.5147
8.216000	 46.4411
8.300000	 46.2717
8.384000	 46.1639
8.468000	 46.0516
8.552000	 45.9754
8.635999	 45.7344
8.719999	 45.6793
8.804000	 45.4654
8.888000	 45.4528
8.972000	 45.3467
9.056000	 44.9654
9.140000	 44.9929
9.224000	 44.8647
9.308000	 44.8966
9.391999	 44.8029
9.475999	 44.7221
9.560000	 44.6756
9.644000	 44.5347
9.728000	 44.3256
9.812000	 44.162
9.896000	 44.1486
9.980000	 44.1822
10.064	43.9693
10.148	43.8744
10.232	43.9202
10.316	43.652
10.4	43.6844
10.484	43.6302
10.568	43.6081
10.652	43.5557
10.736	43.4099
10.82	42.9902
10.904	42.5198
10.988	42.9247
11.072	42.5266
11.156	42.1598
11.24	42.2363
11.324	42.2853
11.408	42.2119
11.492	42.1549
11.576	41.9663
11.66	42.1229
11.744	42.2911
11.828	42.39
11.912	42.0704
11.996	41.7438
12.08	41.8143
12.164	41.8441
12.248	41.6725
12.332	41.4658
12.416	41.3853
12.5	41.1865
12.584	41.0413
12.668	41.0539
12.752	41.1001
12.836	41.1615
12.92	41.232
13.004	41.1665
13.088	40.9079
13.172	40.715
13.256	40.4737
13.34	40.2663
13.424	40.2963
13.508	40.3685
13.592	40.2848
13.676	40.0487
13.76	39.9292
13.844	39.9161
13.928	39.7784
14.012	39.5562
14.096	39.3706
14.18	39.3955
14.264	39.5515
14.348	39.5183
14.432	39.3647
14.516	39.2918
14.6	39.1598
14.684	38.9486
14.768	38.836
14.852	38.8465
14.936	38.952
15.02	39.1134
15.104	39.0382
15.188	38.6723
15.272	38.399
15.356	38.3863
15.44	38.5209
15.524	38.6065
15.608	38.5224
15.692	38.3772
15.776	38.2453
15.86	38.0661
15.944	37.876
16.028	37.7695
16.112	37.7237
16.196	37.6679
16.28	37.63
16.364	37.7053
16.448	37.8649
16.532	37.8844
16.616	37.6255
16.7	37.2507
16.784	37.0011
16.868	36.9277
16.952	36.9155
17.036	36.8721
17.12	36.8369
17.204	36.8826
17.288	36.9205
17.372	36.7682
17.456	36.4151
17.54	36.0602
17.624	35.8824
17.708	35.8961
17.792	36.0119
17.876	36.1205
17.96	36.118
18.044	35.9533
18.128	35.6805
18.212	35.4059
18.296	35.2052
18.38	35.1131
18.464	35.1172
18.548	35.1388
18.632	35.0855
18.716	34.9542
18.8	34.8287
18.884	34.7603
18.968	34.7127
19.052	34.6233
19.136	34.4667
19.22	34.2423
19.304	33.9754
19.388	33.728
19.472	33.567
19.556	33.4961
19.64	33.4512
19.724	33.396
19.808	33.3941
19.892	33.5465
19.976	33.8508
20.06	34.1485
20.144	34.2235
20.228	33.9734
20.312	33.5016
20.396	33.0547
20.48	32.8579
20.564	32.9823
20.648	33.3301
20.732	33.7223
20.816	34.012
20.9	34.125
20.984	34.0328
21.068	33.732
21.152	33.2547
21.236	32.6928
21.32	32.177
21.404	31.8112
21.488	31.6333
21.572	31.6136
21.656	31.6857
21.74	31.776
21.824	31.8063
21.908	31.7054
21.992	31.448
22.076	31.0886
22.16	30.7659
22.244	30.641
22.328	30.791
22.412	31.1573
22.496	31.5434
22.58	31.7297
22.664	31.5808
22.748	31.1216
22.832	30.5163
22.916	29.9951
23	29.7306
23.084	29.7828
23.168	30.0876
23.252	30.5096
23.336	30.9091
23.42	31.2173
23.504	31.427
23.588	31.566
23.672	31.6443
23.756	31.6188
23.84	31.4362
23.924	31.0408
24.008	30.4329
24.092	29.7147
24.176	29.0594
24.26	28.6548
24.344	28.65
24.428	29.0989
24.512	29.986
24.596	31.1996
24.68	32.5105
24.764	33.6028
24.848	34.2206
24.932	34.2134
25.016	33.5931
25.1	32.5147
25.184	31.1629
25.268	29.6388
25.352	27.9305
25.436	25.8408
25.52	23.1494
25.604	19.8258
25.688	16.2343
25.772	13.0928
25.856	11.1413
25.94	10.6149
26.024	11.0841
26.108	11.6309
26.192	11.3942
26.276	10.0558
26.36	8.139849
26.444	6.623258
26.528	6.432807
26.612	7.851453
26.696	10.6124
26.78	14.0365
26.864	17.4473
26.948	20.4338
27.028	22.7838