File: Bakgrunnsmateriale/MATLAB/FTIR/ftir_data/subBb/Mapping_121/C-4040-8_t51.asc
PE IR       SPECTRUM    SPECTRUM    ASCII       PEDS        1.60
  -1
C-A93E~1.ASC
17/03/27
18:41:36.00
17/03/27
18:42:02.00
tln
$C-4040-8_t0051$<tbV0>[-2.6,-2.6,8.0,0.0,27,1,0]
27.028
64

2002,4.07
MIRTGS : RIGHTBACK : INTERNAL 2
MIR : ON : INTERNAL 2
OPTKBR

0.200000
8
8.000000
FILLER
RATIO
SPECTRUM
UNLOCKED 256

DOUBLE
64
COMBINED
1
0
0

0.002000
RATIO

1
0
TRUE
51149
0
LEFT NOT FITTED RIGHT NOT FITTED 0
NONE
NONE
15600
12
4.427000
51148
TRUE
1 0 8 72 0 0 0 0

15798

#HDR
-1
-1
#GR
µM
%T
2.38419e-05
0.0
2.000000
0.002000
12515
8
118.245
32.8821
#DATA
2.000000	 64.7694
2.084000	 64.7822
2.168000	 64.6138
2.252000	 65.1661
2.336000	 66.0825
2.420000	 64.4269
2.504000	 64.4915
2.588000	 64.5904
2.672000	 64.3485
2.756000	 64.2283
2.840000	 63.9058
2.924000	 64.0665
3.008000	 64.0542
3.092000	 63.7363
3.176000	 63.4655
3.260000	 63.5855
3.344000	 63.4627
3.428000	 63.0534
3.512000	 63.062
3.596000	 62.9128
3.680000	 62.6859
3.764000	 62.7689
3.848000	 62.5404
3.932000	 62.5706
4.016000	 62.3118
4.100000	 62.2051
4.184000	 62.2036
4.268000	 62.0795
4.352000	 61.8301
4.436000	 61.7844
4.520000	 61.6953
4.604000	 61.588
4.688000	 61.4586
4.772000	 61.3228
4.856000	 61.2783
4.940000	 61.0777
5.024000	 61.0152
5.108000	 60.9121
5.192000	 60.732
5.276000	 60.7956
5.359999	 60.5387
5.444000	 60.5157
5.528000	 60.4506
5.612000	 60.3799
5.696000	 60.3058
5.780000	 60.1331
5.864000	 60.1214
5.948000	 60.0622
6.032000	 60.151
6.116000	 59.8479
6.200000	 59.8626
6.284000	 59.6371
6.368000	 59.7223
6.452000	 59.7033
6.536000	 59.5234
6.620000	 59.3268
6.704000	 59.3635
6.788000	 59.2816
6.872000	 59.1429
6.956000	 59.2913
7.040000	 59.1975
7.124000	 59.0839
7.208000	 59.0922
7.292000	 59.0061
7.376000	 59.0173
7.460000	 58.9424
7.544000	 58.8499
7.628000	 58.7797
7.712000	 58.7868
7.796000	 58.7479
7.880000	 58.6085
7.964000	 58.5253
8.048000	 58.6319
8.132000	 58.646
8.216000	 58.4078
8.300000	 58.4652
8.384000	 58.4608
8.468000	 58.8027
8.552000	 58.3277
8.635999	 58.1728
8.719999	 58.4404
8.804000	 58.0331
8.888000	 58.145
8.972000	 58.0718
9.056000	 58.0498
9.140000	 57.5495
9.224000	 58.3004
9.308000	 57.8279
9.391999	 57.9396
9.475999	 57.9435
9.560000	 57.6532
9.644000	 57.6972
9.728000	 57.6848
9.812000	 57.3899
9.896000	 57.6663
9.980000	 57.7323
10.064	57.721
10.148	57.5418
10.232	57.5131
10.316	57.347
10.4	57.2394
10.484	57.1329
10.568	57.1104
10.652	57.2269
10.736	57.1364
10.82	57.111
10.904	57.0707
10.988	57.0531
11.072	57.0419
11.156	56.903
11.24	56.9213
11.324	56.8398
11.408	56.3869
11.492	56.5626
11.576	56.8546
11.66	56.6798
11.744	56.6606
11.828	56.6514
11.912	56.6039
11.996	56.5804
12.08	56.6111
12.164	56.5095
12.248	56.2945
12.332	56.3098
12.416	56.2356
12.5	56.3694
12.584	56.5729
12.668	56.3336
12.752	56.3258
12.836	56.384
12.92	56.1686
13.004	55.9578
13.088	55.8037
13.172	55.4474
13.256	55.1196
13.34	56.0204
13.424	56.3629
13.508	55.8303
13.592	55.5355
13.676	55.5712
13.76	55.5623
13.844	55.4862
13.928	55.5514
14.012	55.4612
14.096	55.3595
14.18	55.4085
14.264	55.343
14.348	55.3662
14.432	55.468
14.516	55.3231
14.6	55.0758
14.684	54.9719
14.768	55.0522
14.852	55.0249
14.936	54.847
15.02	54.9569
15.104	55.2678
15.188	55.336
15.272	55.1653
15.356	54.9717
15.44	54.8262
15.524	54.7557
15.608	54.7716
15.692	54.7452
15.776	54.5837
15.86	54.4147
15.944	54.3906
16.028	54.4861
16.112	54.5873
16.196	54.6302
16.28	54.5836
16.364	54.4815
16.448	54.4924
16.532	54.645
16.616	54.6704
16.7	54.4661
16.784	54.2867
16.868	54.2003
16.952	53.9761
17.036	53.6085
17.12	53.3668
17.204	53.3518
17.288	53.4408
17.372	53.5166
17.456	53.5265
17.54	53.4792
17.624	53.4451
17.708	53.4715
17.792	53.5289
17.876	53.5648
17.96	53.5414
18.044	53.4466
18.128	53.342
18.212	53.3157
18.296	53.3447
18.38	53.3066
18.464	53.1401
18.548	52.9207
18.632	52.7532
18.716	52.6723
18.8	52.6605
18.884	52.6844
18.968	52.6752
19.052	52.5466
19.136	52.2846
19.22	51.9995
19.304	51.8441
19.388	51.8844
19.472	52.0684
19.556	52.2926
19.64	52.4693
19.724	52.5425
19.808	52.4827
19.892	52.2931
19.976	52.0331
20.06	51.8056
20.144	51.6876
20.228	51.6727
20.312	51.6914
20.396	51.6747
20.48	51.5949
20.564	51.4598
20.648	51.2918
20.732	51.127
20.816	51.0092
20.9	50.9565
20.984	50.9446
21.068	50.9232
21.152	50.8772
21.236	50.8547
21.32	50.9214
21.404	51.0695
21.488	51.1815
21.572	51.115
21.656	50.8434
21.74	50.5087
21.824	50.326
21.908	50.4018
21.992	50.6331
22.076	50.7819
22.16	50.6462
22.244	50.2109
22.328	49.649
22.412	49.1769
22.496	48.9176
22.58	48.8451
22.664	48.8526
22.748	48.8283
22.832	48.7075
22.916	48.4857
23	48.2188
23.084	47.9757
23.168	47.8263
23.252	47.8133
23.336	47.9403
23.42	48.1942
23.504	48.5817
23.588	49.1431
23.672	49.9131
23.756	50.8609
23.84	51.8935
23.924	52.8406
24.008	53.5494
24.092	54.003
24.176	54.3676
24.26	54.7855
24.344	55.3035
24.428	55.8125
24.512	55.9534
24.596	55.4007
24.68	54.0291
24.764	52.0212
24.848	49.6773
24.932	47.5641
25.016	46.3314
25.1	46.4481
25.184	47.7073
25.268	49.1721
25.352	49.5892
25.436	48.0826
25.52	44.7965
25.604	40.8585
25.688	37.6404
25.772	36.206
25.856	37.1323
25.94	41.0392
26.024	48.7031
26.108	60.7073
26.192	76.5069
26.276	93.8994
26.36	108.935
26.444	117.425
26.528	116.568
26.612	106.174
26.696	88.6628
26.78	68.4622
26.864	50.3012
26.948	37.8235
27.028	32.8821