File: Bakgrunnsmateriale/MATLAB/FTIR/ftir_data/subBb/Mapping_121/C-4040-8_t70.asc
PE IR       SPECTRUM    SPECTRUM    ASCII       PEDS        1.60
  -1
C-A14A~1.ASC
17/03/27
20:16:39.00
17/03/27
20:17:05.00
tln
$C-4040-8_t0070$<tbV0>[5.2,2.6,8.0,0.0,27,1,0]
27.028
64

2002,4.07
MIRTGS : RIGHTBACK : INTERNAL 2
MIR : ON : INTERNAL 2
OPTKBR

0.200000
8
8.000000
FILLER
RATIO
SPECTRUM
UNLOCKED 256

DOUBLE
64
COMBINED
1
0
0

0.002000
RATIO

1
0
TRUE
51149
0
LEFT NOT FITTED RIGHT NOT FITTED 0
NONE
NONE
15600
12
4.427000
51148
TRUE
1 0 8 72 0 0 0 0

15798

#HDR
-1
-1
#GR
µM
%T
2.38419e-05
0.0
2.000000
0.002000
12515
8
87.3601
28.6632
#DATA
2.000000	 65.1682
2.084000	 65.0033
2.168000	 65.0603
2.252000	 64.3503
2.336000	 64.6437
2.420000	 64.9889
2.504000	 65.42
2.588000	 65.2977
2.672000	 65.1952
2.756000	 65.1873
2.840000	 65.3242
2.924000	 65.0977
3.008000	 65.1944
3.092000	 65.1687
3.176000	 65.3447
3.260000	 65.3133
3.344000	 65.2238
3.428000	 64.9887
3.512000	 65.2552
3.596000	 65.3621
3.680000	 65.4665
3.764000	 65.3673
3.848000	 65.3577
3.932000	 65.2882
4.016000	 65.3808
4.100000	 65.2152
4.184000	 65.2905
4.268000	 65.4316
4.352000	 65.458
4.436000	 65.4022
4.520000	 65.3877
4.604000	 65.3327
4.688000	 65.4267
4.772000	 65.4762
4.856000	 65.2425
4.940000	 65.5385
5.024000	 65.3487
5.108000	 65.5055
5.192000	 65.5775
5.276000	 65.3695
5.359999	 65.4686
5.444000	 65.4207
5.528000	 65.3965
5.612000	 65.4103
5.696000	 65.3994
5.780000	 65.1854
5.864000	 65.3046
5.948000	 65.331
6.032000	 65.4297
6.116000	 65.2845
6.200000	 65.1055
6.284000	 65.1369
6.368000	 65.0625
6.452000	 65.056
6.536000	 65.143
6.620000	 65.1304
6.704000	 65.3322
6.788000	 65.2154
6.872000	 65.3149
6.956000	 65.0249
7.040000	 65.1907
7.124000	 65.2139
7.208000	 65.1344
7.292000	 65.1498
7.376000	 65.0844
7.460000	 65.1113
7.544000	 65.0695
7.628000	 65.0422
7.712000	 65.1469
7.796000	 65.1823
7.880000	 65.1247
7.964000	 64.9314
8.048000	 64.9382
8.132000	 64.8731
8.216000	 64.9568
8.300000	 64.9856
8.384000	 65.0079
8.468000	 64.9758
8.552000	 64.8907
8.635999	 64.8688
8.719999	 64.7761
8.804000	 64.8751
8.888000	 64.6837
8.972000	 64.9399
9.056000	 65.2049
9.140000	 64.2852
9.224000	 64.5011
9.308000	 64.7239
9.391999	 64.7129
9.475999	 64.8126
9.560000	 64.8604
9.644000	 64.7207
9.728000	 64.517
9.812000	 64.4002
9.896000	 64.5607
9.980000	 64.892
10.064	64.757
10.148	64.2654
10.232	63.9393
10.316	64.2514
10.4	64.6809
10.484	64.6952
10.568	64.7193
10.652	64.5142
10.736	64.4441
10.82	64.5558
10.904	64.4899
10.988	64.6864
11.072	64.7651
11.156	64.8512
11.24	64.6973
11.324	64.5517
11.408	64.4223
11.492	64.3654
11.576	64.496
11.66	64.4248
11.744	64.3622
11.828	64.3036
11.912	64.3563
11.996	64.2758
12.08	64.2663
12.164	64.3176
12.248	64.487
12.332	64.4809
12.416	64.3153
12.5	63.9673
12.584	63.8962
12.668	64.0004
12.752	64.1797
12.836	64.1885
12.92	63.9173
13.004	63.8504
13.088	64.0628
13.172	63.9315
13.256	63.7689
13.34	63.8321
13.424	63.9627
13.508	63.7936
13.592	63.3507
13.676	63.2351
13.76	63.2059
13.844	63.5027
13.928	63.8439
14.012	63.5917
14.096	63.1638
14.18	62.9884
14.264	63.1674
14.348	63.3767
14.432	63.2987
14.516	63.0356
14.6	62.8972
14.684	63.053
14.768	63.1782
14.852	63.0133
14.936	62.7319
15.02	62.6193
15.104	62.7446
15.188	62.8502
15.272	62.8054
15.356	62.7126
15.44	62.5761
15.524	62.4729
15.608	62.5419
15.692	62.7358
15.776	62.9265
15.86	62.9791
15.944	62.8267
16.028	62.5527
16.112	62.3047
16.196	62.2075
16.28	62.2493
16.364	62.2918
16.448	62.3443
16.532	62.5275
16.616	62.7487
16.7	62.7761
16.784	62.5954
16.868	62.408
16.952	62.3608
17.036	62.4434
17.12	62.5993
17.204	62.7704
17.288	62.8052
17.372	62.5767
17.456	62.2132
17.54	61.9798
17.624	61.9604
17.708	62.0386
17.792	62.1071
17.876	62.1146
17.96	62.0178
18.044	61.8419
18.128	61.7085
18.212	61.6883
18.296	61.7164
18.38	61.7062
18.464	61.6537
18.548	61.5704
18.632	61.4182
18.716	61.1932
18.8	60.9829
18.884	60.8506
18.968	60.7354
19.052	60.5776
19.136	60.4913
19.22	60.684
19.304	61.1672
19.388	61.6595
19.472	61.8348
19.556	61.6312
19.64	61.2709
19.724	61.0064
19.808	60.8934
19.892	60.8062
19.976	60.6233
20.06	60.364
20.144	60.1565
20.228	60.1205
20.312	60.2988
20.396	60.6583
20.48	61.1006
20.564	61.4758
20.648	61.6219
20.732	61.4494
20.816	61.0061
20.9	60.4559
20.984	59.9802
21.068	59.6876
21.152	59.5893
21.236	59.6386
21.32	59.7821
21.404	59.9676
21.488	60.1492
21.572	60.2926
21.656	60.4259
21.74	60.6281
21.824	60.9554
21.908	61.357
21.992	61.6786
22.076	61.7615
22.16	61.5516
22.244	61.1434
22.328	60.7143
22.412	60.4092
22.496	60.2677
22.58	60.215
22.664	60.1203
22.748	59.8415
22.832	59.2667
22.916	58.3642
23	57.2345
23.084	56.0856
23.168	55.1867
23.252	54.724
23.336	54.7348
23.42	55.1202
23.504	55.7004
23.588	56.3296
23.672	56.9373
23.756	57.4783
23.84	57.9543
23.924	58.3635
24.008	58.7129
24.092	59.0663
24.176	59.5611
24.26	60.302
24.344	61.3157
24.428	62.4974
24.512	63.548
24.596	64.1105
24.68	63.9216
24.764	62.9486
24.848	61.4142
24.932	59.6093
25.016	57.6871
25.1	55.5865
25.184	53.06
25.268	49.8723
25.352	46.0124
25.436	41.6001
25.52	36.9843
25.604	32.7631
25.688	29.7248
25.772	28.669
25.856	30.1571
25.94	34.3586
26.024	40.8239
26.108	48.4421
26.192	55.7721
26.276	61.4734
26.36	64.6683
26.444	65.192
26.528	63.5426
26.612	60.7017
26.696	57.6866
26.78	55.1776
26.864	53.4389
26.948	52.5647
27.028	52.7415