File: Bakgrunnsmateriale/MATLAB/FTIR/ftir_data/subBb/Mapping_121/C-4040-8_t51_cm-1.asc
PE IR       SPECTRUM    SPECTRUM    ASCII       PEDS        1.60
  -1
C-1CE4~1.ASC
17/03/27
18:41:36.00
17/03/27
18:41:36.00
tln
$C-4040-8_t0051$<tbV0>[-2.6,-2.6,8.0,0.0,27,1,0]
370
64

2002,4.07
MIRTGS : RIGHTBACK : INTERNAL 2
MIR : ON : INTERNAL 2
OPTKBR

0.200000
8
8.000000
FILLER
RATIO
SPECTRUM
UNLOCKED 256

DOUBLE
64
COMBINED
1
0
0

1.000000
RATIO

1
0
TRUE
51149
0
LEFT NOT FITTED RIGHT NOT FITTED 0
NONE
NONE
15600
12
4.427000
51148
TRUE
1 0 8 72 0 0 0 0

15798

#HDR
-1
-1
#GR
CM-1
%T
2.38419e-05
0.0
5000
-1.000000
4631
8
117.872
32.8821
#DATA
5000	64.7694
4984	64.9608
4968	64.9341
4952	64.9688
4936	65.1536
4920	64.7775
4904	64.9608
4888	64.9254
4872	64.723
4856	64.5606
4840	64.2353
4824	64.5295
4808	64.3853
4792	64.9248
4776	64.6588
4760	64.4454
4744	64.4382
4728	64.011
4712	64.4367
4696	64.3079
4680	64.7463
4664	64.1206
4648	64.6462
4632	64.273
4616	64.7391
4600	64.5161
4584	64.3587
4568	64.3057
4552	64.1809
4536	64.6627
4520	64.8923
4504	65.0521
4488	64.826
4472	65.2495
4456	65.3976
4440	65.1478
4424	65.76
4408	66.3762
4392	65.1103
4376	65.0391
4360	56.124
4344	46.5415
4328	67.0374
4312	65.7241
4296	65.5292
4280	66.0649
4264	65.5425
4248	65.1973
4232	65.1028
4216	65.0324
4200	64.7907
4184	64.7645
4168	64.822
4152	64.8965
4136	64.6165
4120	64.502
4104	64.0083
4088	64.284
4072	64.394
4056	64.3403
4040	64.3632
4024	64.0731
4008	64.2321
3992	64.4388
3976	64.361
3960	64.297
3944	64.546
3928	64.4477
3912	64.3422
3896	64.5725
3880	64.3906
3864	64.5902
3848	64.5858
3832	64.2305
3816	64.3453
3800	64.5107
3784	64.6982
3768	64.4996
3752	64.2214
3736	64.3129
3720	64.4511
3704	64.2648
3688	64.3516
3672	64.3298
3656	64.4154
3640	64.2452
3624	64.2522
3608	64.1715
3592	64.1289
3576	64.1451
3560	63.9941
3544	64.1418
3528	64.0214
3512	64.0412
3496	64.0476
3480	64.1466
3464	63.9874
3448	63.9922
3432	64.2393
3416	63.8792
3400	64.0697
3384	64.0347
3368	63.9529
3352	63.8437
3336	64.1087
3320	64.0266
3304	63.7997
3288	63.6738
3272	63.813
3256	64.0897
3240	63.6876
3224	63.5149
3208	63.7388
3192	63.76
3176	63.7325
3160	63.6925
3144	63.3502
3128	63.5379
3112	63.3851
3096	63.5167
3080	63.3488
3064	63.6067
3048	63.7537
3032	63.4056
3016	63.4256
3000	63.4115
2984	63.4545
2968	63.2257
2952	63.2851
2936	63.2869
2920	63.0974
2904	63.1204
2888	63.1483
2872	62.9808
2856	62.874
2840	63.1908
2824	63.0644
2808	63.0909
2792	63.0298
2776	62.9227
2760	62.9574
2744	62.8476
2728	62.862
2712	62.7083
2696	62.7618
2680	62.6964
2664	62.7264
2648	62.7088
2632	62.6168
2616	62.7025
2600	62.5417
2584	62.5334
2568	62.5832
2552	62.6767
2536	62.43
2520	62.3113
2504	62.3559
2488	62.2862
2472	62.2407
2456	62.4282
2440	62.222
2424	62.4975
2408	62.2714
2392	62.2556
2376	62.018
2360	62.0934
2344	62.077
2328	61.9687
2312	61.86
2296	61.8071
2280	61.833
2264	61.8145
2248	61.7462
2232	61.8098
2216	61.6958
2200	61.5879
2184	61.6181
2168	61.5937
2152	61.5914
2136	61.4653
2120	61.3891
2104	61.3995
2088	61.303
2072	61.5057
2056	61.333
2040	61.1348
2024	61.0707
2008	60.9897
1992	60.9891
1976	60.9888
1960	60.8743
1944	60.9422
1928	60.7712
1912	60.882
1896	60.7833
1880	60.7101
1864	60.5401
1848	60.5789
1832	60.5893
1816	60.5752
1800	60.4933
1784	60.3946
1768	60.3707
1752	60.3031
1736	60.178
1720	59.9658
1704	60.14
1688	60.1144
1672	59.996
1656	60.1148
1640	59.8957
1624	59.8967
1608	59.7565
1592	59.65
1576	59.7204
1560	59.5484
1544	59.6008
1528	59.4916
1512	59.3713
1496	59.4869
1480	59.3767
1464	59.3969
1448	58.912
1432	59.1813
1416	59.1932
1400	59.0422
1384	59.0628
1368	58.9401
1352	59.0328
1336	58.8653
1320	58.7735
1304	58.6837
1288	58.7785
1272	58.6257
1256	58.5169
1240	58.5845
1224	58.5592
1208	58.4466
1192	58.4805
1176	58.4662
1160	58.2328
1144	58.483
1128	58.1433
1112	58.155
1096	57.6428
1080	58.1831
1064	57.9659
1048	57.7296
1032	57.6585
1016	57.2966
1000	57.7797
984	 57.5409
968	 57.3364
952	 57.115
936	 57.2038
920	 57.0624
904	 57.0412
888	 56.936
872	 56.4345
856	 56.6414
840	 56.6013
824	 56.5922
808	 56.2716
792	 56.4869
776	 56.2544
760	 55.549
744	 56.2804
728	 55.5848
712	 55.3969
696	 55.3987
680	 54.9813
664	 55.1131
648	 54.8374
632	 54.4772
616	 54.6216
600	 54.561
584	 53.3623
568	 53.4478
552	 53.3535
536	 52.7207
520	 51.9698
504	 52.4211
488	 51.5788
472	 50.8606
456	 50.4551
440	 48.8419
424	 49.1187
408	 55.9579
392	 45.2311
376	 108.832
370	 32.8821