File: Bakgrunnsmateriale/MATLAB/FTIR/ftir_data/subBb/Mapping_121/C-4040-8_t03.asc
PE IR       SPECTRUM    SPECTRUM    ASCII       PEDS        1.60
  -1
C-A526~1.ASC
17/03/27
14:44:48.00
17/03/27
14:45:14.00
tln
$C-4040-8_t0003$<tbV0>[7.8,-13.0,8.0,0.0,27,1,0]
27.028
64

2002,4.07
MIRTGS : RIGHTBACK : INTERNAL 2
MIR : ON : INTERNAL 2
OPTKBR

0.200000
8
8.000000
FILLER
RATIO
SPECTRUM
UNLOCKED 256

DOUBLE
64
COMBINED
1
0
0

0.002000
RATIO

1
0
TRUE
51149
0
LEFT NOT FITTED RIGHT NOT FITTED 0
NONE
NONE
15600
12
4.427000
51148
TRUE
1 0 8 72 0 0 0 0

15798

#HDR
-1
-1
#GR
µM
%T
2.38419e-05
0.0
2.000000
0.002000
12515
8
67.5978
12.5334
#DATA
2.000000	 62.3075
2.084000	 62.5837
2.168000	 62.6529
2.252000	 64.0177
2.336000	 62.2604
2.420000	 61.8705
2.504000	 61.7369
2.588000	 61.0283
2.672000	 60.6902
2.756000	 60.1213
2.840000	 59.3657
2.924000	 58.6412
3.008000	 58.0484
3.092000	 57.3774
3.176000	 56.8752
3.260000	 55.9374
3.344000	 55.4181
3.428000	 54.5619
3.512000	 54.0386
3.596000	 53.4381
3.680000	 52.6724
3.764000	 52.0575
3.848000	 51.3679
3.932000	 50.9061
4.016000	 50.1732
4.100000	 49.8478
4.184000	 48.9353
4.268000	 48.3723
4.352000	 47.9044
4.436000	 47.2913
4.520000	 46.7651
4.604000	 46.2506
4.688000	 45.6374
4.772000	 45.1844
4.856000	 44.732
4.940000	 44.3017
5.024000	 43.8908
5.108000	 43.2927
5.192000	 42.9
5.276000	 42.5783
5.359999	 42.1882
5.444000	 41.8476
5.528000	 41.4419
5.612000	 41.1315
5.696000	 40.8425
5.780000	 40.3478
5.864000	 40.0415
5.948000	 39.8298
6.032000	 39.5133
6.116000	 39.1789
6.200000	 38.8508
6.284000	 38.4437
6.368000	 38.122
6.452000	 38.0346
6.536000	 37.7282
6.620000	 37.4709
6.704000	 36.9579
6.788000	 36.8911
6.872000	 36.5217
6.956000	 36.3019
7.040000	 36.2214
7.124000	 35.9571
7.208000	 35.7499
7.292000	 35.5384
7.376000	 35.2894
7.460000	 35.1249
7.544000	 34.9794
7.628000	 34.7421
7.712000	 34.4579
7.796000	 34.2638
7.880000	 34.1706
7.964000	 34.0202
8.048000	 33.6095
8.132000	 33.6171
8.216000	 33.4703
8.300000	 33.2343
8.384000	 33.1293
8.468000	 32.9694
8.552000	 32.5998
8.635999	 32.5958
8.719999	 32.3907
8.804000	 32.3102
8.888000	 32.0785
8.972000	 31.9582
9.056000	 31.7338
9.140000	 31.5539
9.224000	 31.4842
9.308000	 31.1866
9.391999	 31.1182
9.475999	 31.0727
9.560000	 31.0086
9.644000	 30.8431
9.728000	 30.7466
9.812000	 30.5422
9.896000	 30.4443
9.980000	 30.2522
10.064	30.0531
10.148	29.9991
10.232	29.9583
10.316	29.7008
10.4	29.6272
10.484	29.5133
10.568	29.6265
10.652	29.4059
10.736	29.2207
10.82	29.0474
10.904	28.7745
10.988	28.6572
11.072	28.6742
11.156	28.5399
11.24	28.4209
11.324	28.2172
11.408	28.1626
11.492	27.9923
11.576	27.9044
11.66	27.8979
11.744	27.7055
11.828	27.527
11.912	27.4273
11.996	27.3031
12.08	27.2642
12.164	27.4877
12.248	27.2694
12.332	26.9364
12.416	26.8304
12.5	26.6843
12.584	26.5144
12.668	26.4279
12.752	26.4369
12.836	26.4672
12.92	26.2794
13.004	26.1244
13.088	25.862
13.172	25.4077
13.256	25.1355
13.34	25.195
13.424	25.6678
13.508	25.8845
13.592	25.5691
13.676	25.4079
13.76	25.378
13.844	25.2324
13.928	24.983
14.012	24.4538
14.096	24.0083
14.18	24.1138
14.264	24.3086
14.348	24.0429
14.432	23.3979
14.516	22.8029
14.6	22.6234
14.684	22.776
14.768	23.0237
14.852	23.3665
14.936	23.7227
15.02	23.5628
15.104	22.9918
15.188	22.8907
15.272	23.1888
15.356	23.1848
15.44	22.9311
15.524	22.7455
15.608	22.5164
15.692	22.1628
15.776	21.9049
15.86	21.9292
15.944	22.087
16.028	22.0723
16.112	21.9795
16.196	22.1315
16.28	22.3171
16.364	22.0382
16.448	21.3782
16.532	20.9145
16.616	20.9279
16.7	21.2094
16.784	21.4722
16.868	21.5554
16.952	21.3958
17.036	21.0642
17.12	20.7652
17.204	20.6344
17.288	20.5925
17.372	20.5309
17.456	20.5155
17.54	20.6229
17.624	20.741
17.708	20.7172
17.792	20.5723
17.876	20.4136
17.96	20.2492
18.044	20.046
18.128	19.8679
18.212	19.8004
18.296	19.7918
18.38	19.7026
18.464	19.5023
18.548	19.3052
18.632	19.2059
18.716	19.163
18.8	19.0814
18.884	18.9318
18.968	18.764
19.052	18.6364
19.136	18.58
19.22	18.5973
19.304	18.6529
19.388	18.6599
19.472	18.5147
19.556	18.1784
19.64	17.7397
19.724	17.3841
19.808	17.283
19.892	17.478
19.976	17.8488
20.06	18.1865
20.144	18.3147
20.228	18.1771
20.312	17.8336
20.396	17.3987
20.48	16.9868
20.564	16.6865
20.648	16.5538
20.732	16.6038
20.816	16.8022
20.9	17.0595
20.984	17.2384
21.068	17.2115
21.152	16.9225
21.236	16.4309
21.32	15.8813
21.404	15.4134
21.488	15.0957
21.572	14.9103
21.656	14.8002
21.74	14.726
21.824	14.6867
21.908	14.6996
21.992	14.7648
22.076	14.8592
22.16	14.9702
22.244	15.1368
22.328	15.422
22.412	15.8405
22.496	16.2914
22.58	16.5871
22.664	16.5461
22.748	16.104
22.832	15.3682
22.916	14.5763
23	13.9583
23.084	13.6595
23.168	13.686
23.252	13.9258
23.336	14.2316
23.42	14.471
23.504	14.5424
23.588	14.4371
23.672	14.238
23.756	14.0635
23.84	13.9763
23.924	13.9424
24.008	13.8516
24.092	13.6001
24.176	13.2118
24.26	12.8
24.344	12.5489
24.428	12.6939
24.512	13.5643
24.596	15.4574
24.68	18.4132
24.764	22.0311
24.848	25.5413
24.932	28.0366
25.016	28.8948
25.1	27.9974
25.184	25.6547
25.268	22.4627
25.352	19.0767
25.436	16.2419
25.52	14.6939
25.604	15.043
25.688	17.5889
25.772	22.0853
25.856	27.7531
25.94	33.4687
26.024	38.0602
26.108	40.7205
26.192	41.231
26.276	39.9211
26.36	37.5196
26.444	34.8321
26.528	32.4272
26.612	30.5656
26.696	29.1141
26.78	27.6702
26.864	25.8307
26.948	23.4683
27.028	21.0089