File: Bakgrunnsmateriale/MATLAB/FTIR/ftir_data/subBb/Mapping_121/C-4040-8_t113_cm-1.asc
PE IR       SPECTRUM    SPECTRUM    ASCII       PEDS        1.60
  -1
C-4809~1.ASC
17/03/27
23:49:01.00
17/03/27
23:49:01.00
tln
$C-4040-8_t0113$<tbV0>[7.8,13.0,8.0,0.0,27,1,0]
370
64

2002,4.07
MIRTGS : RIGHTBACK : INTERNAL 2
MIR : ON : INTERNAL 2
OPTKBR

0.200000
8
8.000000
FILLER
RATIO
SPECTRUM
UNLOCKED 256

DOUBLE
64
COMBINED
1
0
0

1.000000
RATIO

1
0
TRUE
51149
0
LEFT NOT FITTED RIGHT NOT FITTED 0
NONE
NONE
15600
12
4.427000
51148
TRUE
1 0 8 72 0 0 0 0

15798

#HDR
-1
-1
#GR
CM-1
%T
2.38419e-05
0.0
5000
-1.000000
4631
8
67.937
11.1833
#DATA
5000	64.2686
4984	65.3123
4968	65.4597
4952	64.8931
4936	65.1729
4920	65.1258
4904	64.858
4888	65.3811
4872	64.9895
4856	65.3506
4840	64.9848
4824	65.0026
4808	64.827
4792	64.8568
4776	64.7851
4760	64.613
4744	64.9235
4728	64.5712
4712	65.1336
4696	64.6237
4680	64.5066
4664	65.0585
4648	65.0526
4632	64.6316
4616	64.4505
4600	65.0047
4584	65.3816
4568	65.2807
4552	65.366
4536	65.4461
4520	64.7908
4504	65.4677
4488	66.0421
4472	65.6979
4456	66.2536
4440	66.3421
4424	67.6979
4408	64.2086
4392	48.1509
4376	67.8402
4360	65.9297
4344	65.8646
4328	66.3179
4312	65.3664
4296	65.0963
4280	65.6263
4264	65.4628
4248	65.2011
4232	65.3268
4216	65.6446
4200	65.4567
4184	64.8823
4168	65.1833
4152	64.9427
4136	64.7488
4120	65.1991
4104	64.8595
4088	64.8608
4072	65.1994
4056	64.8672
4040	64.8621
4024	64.8185
4008	65.0246
3992	64.8717
3976	65.2706
3960	65.3577
3944	65.1422
3928	65.2005
3912	65.2337
3896	65.1385
3880	65.3388
3864	65.1141
3848	65.1083
3832	65.3077
3816	65.4112
3800	65.2612
3784	65.5154
3768	65.2531
3752	65.199
3736	65.1915
3720	65.2871
3704	65.3271
3688	65.2454
3672	65.2277
3656	65.2574
3640	65.2804
3624	65.1927
3608	65.282
3592	65.2164
3576	65.1273
3560	65.4256
3544	65.1396
3528	65.2617
3512	65.1307
3496	65.4495
3480	65.3065
3464	65.4413
3448	65.0772
3432	65.2112
3416	65.016
3400	65.1929
3384	65.2464
3368	65.1052
3352	65.1488
3336	65.2478
3320	65.0794
3304	65.0943
3288	65.2066
3272	65.0974
3256	65.3228
3240	64.8568
3224	65.0182
3208	65.3613
3192	64.8954
3176	65.2861
3160	65.235
3144	64.9467
3128	65.284
3112	65.3805
3096	65.1613
3080	65.2584
3064	65.2674
3048	65.3797
3032	65.4272
3016	65.2208
3000	65.3009
2984	65.1839
2968	65.0349
2952	65.1702
2936	64.9743
2920	65.0183
2904	65.1142
2888	65.0479
2872	65.281
2856	65.0907
2840	65.0436
2824	65.0769
2808	65.1887
2792	65.0831
2776	65.1277
2760	65.2185
2744	65.1121
2728	65.2163
2712	65.1864
2696	65.1323
2680	65.2016
2664	65.212
2648	65.2503
2632	65.1854
2616	65.2646
2600	65.3315
2584	65.2071
2568	65.2954
2552	65.4769
2536	65.3072
2520	65.1981
2504	65.4554
2488	64.9354
2472	65.3592
2456	65.395
2440	65.5566
2424	65.2516
2408	65.7767
2392	65.5103
2376	65.3101
2360	65.2754
2344	65.3346
2328	65.3105
2312	65.1916
2296	65.3277
2280	65.215
2264	65.3159
2248	65.3296
2232	65.2537
2216	65.2955
2200	65.3846
2184	65.3872
2168	65.2336
2152	65.2376
2136	65.3625
2120	65.2712
2104	65.4393
2088	65.2992
2072	65.2658
2056	65.27
2040	65.2529
2024	65.5001
2008	65.3335
1992	65.2046
1976	65.4629
1960	65.2579
1944	65.224
1928	65.2899
1912	65.3922
1896	65.3684
1880	65.397
1864	65.1839
1848	65.3094
1832	65.2431
1816	65.1599
1800	65.3687
1784	65.2365
1768	65.2967
1752	65.0924
1736	65.0037
1720	65.0676
1704	65.3175
1688	65.1724
1672	65.3189
1656	65.1371
1640	65.1579
1624	65.111
1608	65.1473
1592	64.9978
1576	64.9694
1560	64.934
1544	65.0237
1528	65.178
1512	65.1343
1496	65.1378
1480	65.2458
1464	65.1372
1448	65.1021
1432	65.1813
1416	65.0549
1400	64.8509
1384	65.048
1368	65.0941
1352	65.1131
1336	64.9615
1320	65.0809
1304	64.9178
1288	64.9471
1272	65.0842
1256	64.928
1240	64.8723
1224	65.0235
1208	65.0439
1192	65.0327
1176	64.942
1160	64.799
1144	64.9164
1128	64.9166
1112	65.0514
1096	65.0068
1080	64.9531
1064	64.8367
1048	64.6707
1032	64.7723
1016	64.9676
1000	64.779
984	 64.8666
968	 64.6403
952	 64.6321
936	 64.5179
920	 64.7406
904	 65.0377
888	 64.2846
872	 64.5676
856	 64.176
840	 64.197
824	 64.986
808	 64.2877
792	 64.3743
776	 63.8555
760	 63.8822
744	 64.3743
728	 63.5786
712	 63.7858
696	 63.8148
680	 63.3086
664	 63.3611
648	 63.722
632	 63.2292
616	 63.346
600	 62.7768
584	 62.3129
568	 63.0125
552	 62.499
536	 62.8738
520	 62.0536
504	 61.183
488	 61.192
472	 61.2236
456	 60.4724
440	 60.9896
424	 58.498
408	 66.4344
392	 64.9112
376	 11.5364
370	 30.0553