File: Bakgrunnsmateriale/MATLAB/FTIR/ftir_data/subBb/Mapping_121/C-4040-8_t94_cm-1.asc
PE IR       SPECTRUM    SPECTRUM    ASCII       PEDS        1.60
  -1
C-1E6F~1.ASC
17/03/27
22:14:29.00
17/03/27
22:14:29.00
tln
$C-4040-8_t0094$<tbV0>[0.0,7.8,8.0,0.0,27,1,0]
370
64

2002,4.07
MIRTGS : RIGHTBACK : INTERNAL 2
MIR : ON : INTERNAL 2
OPTKBR

0.200000
8
8.000000
FILLER
RATIO
SPECTRUM
UNLOCKED 256

DOUBLE
64
COMBINED
1
0
0

1.000000
RATIO

1
0
TRUE
51149
0
LEFT NOT FITTED RIGHT NOT FITTED 0
NONE
NONE
15600
12
4.427000
51148
TRUE
1 0 8 72 0 0 0 0

15798

#HDR
-1
-1
#GR
CM-1
%T
2.38419e-05
0.0
5000
-1.000000
4631
8
200
25.9969
#DATA
5000	65.3836
4984	65.5397
4968	65.1753
4952	65.6947
4936	65.1563
4920	65.524
4904	65.2392
4888	65.1145
4872	66.0042
4856	65.135
4840	64.709
4824	65.314
4808	65.0272
4792	65.3225
4776	65.0638
4760	64.9333
4744	64.8661
4728	64.4675
4712	65.0257
4696	64.7331
4680	64.8614
4664	64.8415
4648	65.4647
4632	65.344
4616	65.2823
4600	64.9219
4584	65.5524
4568	65.0854
4552	65.9438
4536	64.9433
4520	65.9338
4504	65.3561
4488	65.8444
4472	65.5634
4456	65.8391
4440	65.7438
4424	65.2953
4408	67.6835
4392	68.6696
4376	62.1249
4360	66.6165
4344	65.8413
4328	65.6199
4312	65.7878
4296	65.832
4280	65.3403
4264	65.7155
4248	65.1372
4232	65.2689
4216	65.37
4200	64.7225
4184	65.1053
4168	65.0662
4152	65.1497
4136	64.9766
4120	64.6928
4104	65.0119
4088	64.7546
4072	64.8831
4056	64.852
4040	65.1028
4024	65.3733
4008	64.8957
3992	65.0357
3976	64.9588
3960	65.0626
3944	65.1145
3928	65.1367
3912	65.398
3896	65.3867
3880	65.4674
3864	65.3108
3848	65.1008
3832	65.0742
3816	65.268
3800	65.3547
3784	65.2748
3768	65.3452
3752	65.3061
3736	65.3572
3720	65.2748
3704	65.2776
3688	65.3777
3672	65.3301
3656	65.2158
3640	65.4054
3624	65.2886
3608	65.0704
3592	65.1887
3576	65.2334
3560	65.2154
3544	64.9524
3528	65.1882
3512	65.3196
3496	64.9405
3480	64.9864
3464	65.4151
3448	65.0696
3432	65.4098
3416	65.3018
3400	65.2113
3384	65.282
3368	65.3366
3352	65.1837
3336	65.2884
3320	65.175
3304	65.2663
3288	65.0475
3272	65.2889
3256	65.1277
3240	65.1785
3224	65.2117
3208	65.4206
3192	65.1762
3176	65.2785
3160	65.4505
3144	65.2853
3128	65.5041
3112	65.285
3096	65.2563
3080	65.2025
3064	65.2653
3048	65.3538
3032	65.4029
3016	65.4175
3000	65.35
2984	65.1158
2968	65.0918
2952	65.1314
2936	65.2696
2920	64.8137
2904	65.258
2888	65.1777
2872	65.1269
2856	65.2402
2840	65.0879
2824	65.2475
2808	65.2763
2792	65.2683
2776	65.3851
2760	65.2408
2744	65.2619
2728	65.2531
2712	65.4109
2696	65.3304
2680	65.3317
2664	65.4171
2648	65.3009
2632	65.3346
2616	65.3559
2600	65.277
2584	65.33
2568	65.2576
2552	65.3188
2536	65.31
2520	65.4509
2504	65.1149
2488	65.4498
2472	65.4514
2456	65.2764
2440	65.3028
2424	65.3648
2408	65.176
2392	65.3129
2376	65.3221
2360	65.2821
2344	65.3209
2328	65.2133
2312	65.4603
2296	65.3439
2280	65.3723
2264	65.2648
2248	65.3618
2232	65.2793
2216	65.3785
2200	65.2689
2184	65.3557
2168	65.4686
2152	65.3827
2136	65.5425
2120	65.2578
2104	65.3085
2088	65.1689
2072	65.7084
2056	65.2595
2040	65.3428
2024	65.3037
2008	65.3559
1992	65.3672
1976	65.327
1960	65.4099
1944	65.3438
1928	65.2648
1912	65.1675
1896	65.4324
1880	65.3995
1864	65.3287
1848	65.3427
1832	65.4132
1816	65.37
1800	65.3318
1784	65.3715
1768	65.3082
1752	65.0967
1736	65.1081
1720	64.992
1704	65.3945
1688	65.0696
1672	65.2209
1656	65.2235
1640	65.3785
1624	65.1993
1608	65.0941
1592	65.1442
1576	65.1301
1560	65.0615
1544	65.1973
1528	65.1531
1512	65.2218
1496	65.3741
1480	65.1843
1464	65.1878
1448	65.1199
1432	65.0906
1416	65.1503
1400	65.2318
1384	65.0899
1368	65.067
1352	65.2415
1336	65.0599
1320	65.1255
1304	65.0606
1288	65.1018
1272	65.095
1256	65.1631
1240	65.0819
1224	65.0407
1208	64.9925
1192	65.0482
1176	65.0446
1160	64.9535
1144	64.9639
1128	64.8729
1112	64.9795
1096	64.6827
1080	64.9136
1064	64.8782
1048	64.7859
1032	64.7217
1016	64.8456
1000	64.6968
984	 64.752
968	 64.7676
952	 64.7299
936	 64.1302
920	 65.1475
904	 64.7964
888	 64.7597
872	 64.6722
856	 64.7219
840	 64.6077
824	 64.3575
808	 64.1826
792	 64.279
776	 64.0448
760	 63.8754
744	 64.0921
728	 63.7127
712	 63.422
696	 63.3835
680	 63.4304
664	 62.924
648	 63.2308
632	 62.6769
616	 62.8167
600	 62.674
584	 62.5796
568	 62.6374
552	 62.7429
536	 61.4488
520	 60.9284
504	 61.5475
488	 61.194
472	 59.951
456	 59.6893
440	 59.9364
424	 57.9597
408	 60.8596
392	 62.3545
376	 152.462
370	 191.82