File: Bakgrunnsmateriale/MATLAB/FTIR/ftir_data/subBb/Mapping_121/C-4040-8_t75_cm-1.asc
PE IR       SPECTRUM    SPECTRUM    ASCII       PEDS        1.60
  -1
C-1DEE~1.ASC
17/03/27
20:39:43.00
17/03/27
20:39:43.00
tln
$C-4040-8_t0075$<tbV0>[-7.8,2.6,8.0,0.0,27,1,0]
370
64

2002,4.07
MIRTGS : RIGHTBACK : INTERNAL 2
MIR : ON : INTERNAL 2
OPTKBR

0.200000
8
8.000000
FILLER
RATIO
SPECTRUM
UNLOCKED 256

DOUBLE
64
COMBINED
1
0
0

1.000000
RATIO

1
0
TRUE
51149
0
LEFT NOT FITTED RIGHT NOT FITTED 0
NONE
NONE
15600
12
4.427000
51148
TRUE
1 0 8 72 0 0 0 0

15798

#HDR
-1
-1
#GR
CM-1
%T
2.38419e-05
0.0
5000
-1.000000
4631
8
79.8965
29.4175
#DATA
5000	65.2743
4984	64.5983
4968	64.5141
4952	66.2722
4936	64.6171
4920	64.5544
4904	65.243
4888	64.7645
4872	65.6437
4856	65.1083
4840	64.9865
4824	64.9979
4808	65.3659
4792	64.35
4776	64.8689
4760	64.8429
4744	64.547
4728	65.254
4712	65.0699
4696	65.0698
4680	64.9515
4664	65.3931
4648	65.1847
4632	65.1099
4616	64.9076
4600	65.065
4584	64.6177
4568	64.9928
4552	64.987
4536	64.7629
4520	64.8818
4504	64.7
4488	65.2358
4472	64.6865
4456	64.717
4440	65.0997
4424	64.3284
4408	63.742
4392	63.4648
4376	68.3291
4360	64.1555
4344	65.6303
4328	65.0109
4312	64.968
4296	65.1248
4280	65.0432
4264	64.7654
4248	65.222
4232	64.8738
4216	64.8095
4200	64.9156
4184	64.8338
4168	64.9601
4152	65.2861
4136	64.7718
4120	64.9556
4104	65.2069
4088	65.1182
4072	64.9355
4056	65.0956
4040	65.1953
4024	65.1083
4008	65.1661
3992	64.9265
3976	65.298
3960	65.1287
3944	65.0003
3928	65.0166
3912	65.099
3896	65.1139
3880	64.9463
3864	65.1834
3848	65.0173
3832	65.0251
3816	65.5239
3800	65.1139
3784	65.0273
3768	65.1031
3752	65.2152
3736	64.9768
3720	65.0656
3704	65.088
3688	64.9273
3672	64.9802
3656	65.3691
3640	65.1619
3624	65.1659
3608	65.2914
3592	65.2044
3576	65.3465
3560	65.0676
3544	64.9798
3528	65.2224
3512	65.3556
3496	65.3208
3480	65.402
3464	65.0148
3448	65.0078
3432	65.206
3416	65.2766
3400	65.1883
3384	65.1346
3368	64.9418
3352	64.9198
3336	65.1405
3320	65.1566
3304	65.1039
3288	65.1214
3272	65.0905
3256	64.8883
3240	65.1036
3224	65.1391
3208	65.1241
3192	65.2982
3176	65.1999
3160	65.2145
3144	65.334
3128	65.1958
3112	65.1112
3096	65.1969
3080	64.9047
3064	65.2159
3048	65.0103
3032	65.2082
3016	65.1274
3000	64.9209
2984	64.9919
2968	64.7856
2952	64.929
2936	64.9988
2920	64.5804
2904	65.097
2888	65.0146
2872	64.9674
2856	64.9634
2840	65.0159
2824	65.0095
2808	65.1409
2792	65.1806
2776	65.3311
2760	65.187
2744	65.2526
2728	65.0694
2712	65.1858
2696	65.2499
2680	65.1993
2664	65.1404
2648	65.0524
2632	65.1862
2616	65.1304
2600	65.1037
2584	65.1229
2568	65.2095
2552	65.2154
2536	65.3007
2520	65.2209
2504	65.3415
2488	65.1848
2472	65.3022
2456	65.1056
2440	65.3558
2424	64.789
2408	64.9178
2392	65.2149
2376	65.2195
2360	65.0975
2344	65.1984
2328	65.2769
2312	65.2994
2296	65.2802
2280	65.2069
2264	65.1402
2248	65.2623
2232	65.2925
2216	65.2333
2200	65.1168
2184	65.2315
2168	65.1271
2152	65.3171
2136	65.0846
2120	65.2009
2104	65.289
2088	65.2261
2072	65.4061
2056	65.1814
2040	65.3126
2024	65.2972
2008	65.3044
1992	65.0733
1976	65.1432
1960	65.16
1944	65.1591
1928	65.2507
1912	65.2006
1896	65.203
1880	65.1142
1864	65.0371
1848	65.073
1832	65.2289
1816	65.2553
1800	65.0513
1784	65.188
1768	65.0773
1752	65.1901
1736	65.0813
1720	65.259
1704	64.9993
1688	65.2207
1672	65.1463
1656	65.1068
1640	65.1045
1624	65.0608
1608	64.9624
1592	65.0115
1576	64.945
1560	64.8978
1544	64.9387
1528	65.0176
1512	64.9539
1496	64.9851
1480	64.9716
1464	64.9231
1448	64.7818
1432	65.0541
1416	64.9467
1400	64.9151
1384	65.0031
1368	65.0729
1352	64.926
1336	65.0302
1320	65.0533
1304	64.7852
1288	64.9922
1272	64.9417
1256	64.9948
1240	64.7852
1224	64.9511
1208	64.8677
1192	64.7382
1176	64.8148
1160	64.7128
1144	64.4758
1128	64.6939
1112	64.7445
1096	64.5987
1080	64.4975
1064	64.4969
1048	64.6476
1032	64.4105
1016	64.5207
1000	64.6691
984	 64.3748
968	 64.7403
952	 64.8925
936	 64.3257
920	 64.229
904	 64.1515
888	 64.6211
872	 64.4737
856	 64.2562
840	 64.4941
824	 64.6121
808	 64.2421
792	 63.9941
776	 64.4452
760	 64.0092
744	 63.8533
728	 63.5271
712	 63.2579
696	 63.3128
680	 63.3435
664	 62.8924
648	 62.9658
632	 62.5519
616	 62.4372
600	 62.6574
584	 62.8824
568	 62.8652
552	 62.1946
536	 62.1046
520	 61.4524
504	 60.9703
488	 61.8881
472	 60.4551
456	 60.4027
440	 59.986
424	 57.0576
408	 57.6011
392	 48.5595
376	 41.9069
370	 58.7693