File: Bakgrunnsmateriale/MATLAB/FTIR/ftir_data/subBb/Mapping_121/C-4040-8_t45_cm-1.asc
PE IR       SPECTRUM    SPECTRUM    ASCII       PEDS        1.60
  -1
C-9BEE~1.ASC
17/03/27
18:13:55.00
17/03/27
18:13:55.00
tln
$C-4040-8_t0045$<tbV0>[13.0,-2.6,8.0,0.0,27,1,0]
370
64

2002,4.07
MIRTGS : RIGHTBACK : INTERNAL 2
MIR : ON : INTERNAL 2
OPTKBR

0.200000
8
8.000000
FILLER
RATIO
SPECTRUM
UNLOCKED 256

DOUBLE
64
COMBINED
1
0
0

1.000000
RATIO

1
0
TRUE
51149
0
LEFT NOT FITTED RIGHT NOT FITTED 0
NONE
NONE
15600
12
4.427000
51148
TRUE
1 0 8 72 0 0 0 0

15798

#HDR
-1
-1
#GR
CM-1
%T
2.38419e-05
0.0
5000
-1.000000
4631
8
77.1355
-14.5438
#DATA
5000	64.9082
4984	64.7612
4968	65.296
4952	64.7666
4936	64.5775
4920	65.0666
4904	65.1433
4888	64.8456
4872	64.5077
4856	64.5985
4840	65.0923
4824	64.6112
4808	64.8756
4792	64.9998
4776	64.9998
4760	64.6149
4744	64.6997
4728	64.3664
4712	64.977
4696	64.9593
4680	65.131
4664	64.4952
4648	64.6005
4632	64.7136
4616	64.6881
4600	64.88
4584	64.949
4568	64.7894
4552	64.5119
4536	64.0023
4520	65.3563
4504	65.2362
4488	65.0999
4472	65.0714
4456	65.3827
4440	65.0025
4424	65.7135
4408	65.4276
4392	63.8255
4376	63.4291
4360	64.8936
4344	65.3962
4328	65.2627
4312	65.9242
4296	65.1848
4280	65.5075
4264	65.3548
4248	64.973
4232	65.0235
4216	65.3365
4200	64.975
4184	63.8765
4168	65.4253
4152	64.9907
4136	64.8747
4120	64.9421
4104	65.1415
4088	65.0607
4072	65.084
4056	64.9722
4040	64.9455
4024	65.15
4008	64.8523
3992	64.9436
3976	64.9779
3960	64.9024
3944	65.2498
3928	64.8871
3912	65.0654
3896	65.3271
3880	64.9685
3864	65.1585
3848	64.93
3832	64.7407
3816	64.8064
3800	65.2502
3784	65.2232
3768	65.2255
3752	65.0844
3736	65.0248
3720	65.1587
3704	64.971
3688	65.24
3672	65.2358
3656	65.2066
3640	65.2316
3624	65.1631
3608	64.9334
3592	65.0498
3576	65.4103
3560	64.9841
3544	65.1864
3528	65.1521
3512	65.2724
3496	65.2251
3480	65.1299
3464	65.0327
3448	65.3331
3432	65.0936
3416	65.0446
3400	65.1099
3384	65.1344
3368	65.2302
3352	64.9114
3336	65.2961
3320	65.4354
3304	64.7469
3288	65.1369
3272	65.1809
3256	65.2163
3240	65.1443
3224	65.1776
3208	65.2376
3192	64.8487
3176	65.2433
3160	65.0163
3144	65.3729
3128	65.0444
3112	64.9282
3096	65.2329
3080	65.0687
3064	65.1033
3048	65.1725
3032	65.0017
3016	65.15
3000	65.2077
2984	65.098
2968	65.2384
2952	65.1919
2936	65.1406
2920	64.9717
2904	65.1642
2888	65.1894
2872	65.089
2856	64.9934
2840	65.2042
2824	65.2506
2808	65.3331
2792	65.1409
2776	65.2174
2760	65.2776
2744	65.3269
2728	65.2169
2712	65.3325
2696	65.1635
2680	65.3033
2664	65.3181
2648	65.164
2632	65.3298
2616	65.3752
2600	65.248
2584	65.3662
2568	65.2948
2552	65.4452
2536	65.3799
2520	65.3536
2504	65.2641
2488	65.1363
2472	65.2334
2456	65.2975
2440	65.3869
2424	65.6571
2408	64.9476
2392	65.1745
2376	65.0856
2360	65.3269
2344	65.1171
2328	65.3094
2312	65.107
2296	65.3162
2280	65.1396
2264	65.2141
2248	65.3745
2232	65.2134
2216	65.3252
2200	65.098
2184	65.2218
2168	65.1599
2152	65.2899
2136	65.3742
2120	65.2781
2104	65.2716
2088	65.2342
2072	65.3193
2056	65.2327
2040	65.3483
2024	65.4522
2008	65.2647
1992	65.3006
1976	65.3889
1960	65.1678
1944	65.388
1928	65.3429
1912	65.3193
1896	65.2897
1880	65.3701
1864	65.3248
1848	65.3022
1832	65.4136
1816	65.2399
1800	65.1537
1784	65.2666
1768	65.3799
1752	65.1174
1736	64.9622
1720	64.8966
1704	65.2637
1688	65.2839
1672	65.2043
1656	65.2044
1640	65.0039
1624	65.1496
1608	65.1415
1592	65.0378
1576	65.0755
1560	65.003
1544	65.0731
1528	64.9558
1512	65.0682
1496	64.9938
1480	65.1651
1464	65.0183
1448	65.019
1432	64.9068
1416	65.0527
1400	64.9189
1384	65.1943
1368	64.9288
1352	64.8608
1336	65.007
1320	64.8029
1304	65.0624
1288	64.9879
1272	65.0231
1256	64.9402
1240	64.9508
1224	64.9281
1208	64.9141
1192	65.069
1176	64.8756
1160	64.861
1144	64.6518
1128	64.7145
1112	64.887
1096	64.5191
1080	64.6934
1064	65.1489
1048	64.9168
1032	64.9306
1016	63.9806
1000	64.7322
984	 64.6401
968	 64.4896
952	 64.7033
936	 64.4294
920	 64.6026
904	 64.2962
888	 64.3669
872	 64.2702
856	 64.2838
840	 64.0134
824	 64.0551
808	 64.3193
792	 63.514
776	 64.1128
760	 63.7864
744	 63.8202
728	 63.7926
712	 63.5894
696	 63.3075
680	 62.8246
664	 62.5125
648	 62.59
632	 62.3489
616	 62.6171
600	 62.4972
584	 61.7872
568	 61.6654
552	 61.4527
536	 60.7465
520	 60.3357
504	 60.1386
488	 60.3712
472	 59.3537
456	 58.705
440	 58.0968
424	 55.8073
408	 63.3095
392	 48.5062
376	 20.4117
370	 -11.3379