File: Bakgrunnsmateriale/MATLAB/FTIR/ftir_data/subBb/Mapping_121/C-4040-8_t20_cm-1.asc
PE IR       SPECTRUM    SPECTRUM    ASCII       PEDS        1.60
  -1
C-9A61~1.ASC
17/03/27
16:03:50.00
17/03/27
16:03:50.00
tln
$C-4040-8_t0020$<tbV0>[-7.8,-10.4,8.0,0.0,27,1,0]
370
64

2002,4.07
MIRTGS : RIGHTBACK : INTERNAL 2
MIR : ON : INTERNAL 2
OPTKBR

0.200000
8
8.000000
FILLER
RATIO
SPECTRUM
UNLOCKED 256

DOUBLE
64
COMBINED
1
0
0

1.000000
RATIO

1
0
TRUE
51149
0
LEFT NOT FITTED RIGHT NOT FITTED 0
NONE
NONE
15600
12
4.427000
51148
TRUE
1 0 8 72 0 0 0 0

15798

#HDR
-1
-1
#GR
CM-1
%T
2.38419e-05
0.0
5000
-1.000000
4631
8
73.0181
18.7814
#DATA
5000	64.2489
4984	64.6744
4968	64.2021
4952	63.6323
4936	63.3154
4920	64.307
4904	65.1211
4888	64.4796
4872	64.4437
4856	64.4277
4840	64.4817
4824	64.1713
4808	64.0315
4792	64.378
4776	64.4639
4760	64.1685
4744	64.2825
4728	64.0669
4712	63.8534
4696	64.1763
4680	64.0875
4664	64.6644
4648	64.1622
4632	64.4195
4616	64.4989
4600	64.6417
4584	64.2926
4568	64.1082
4552	63.8921
4536	63.6526
4520	64.095
4504	64.2106
4488	63.8141
4472	63.9122
4456	65.7934
4440	67.2272
4424	63.24
4408	63.0162
4392	62.0641
4376	72.4642
4360	64.1551
4344	64.068
4328	64.0486
4312	63.956
4296	63.6754
4280	63.7361
4264	63.8779
4248	64.0294
4232	63.7844
4216	63.9987
4200	63.9025
4184	63.6469
4168	63.4084
4152	63.9025
4136	63.557
4120	63.7662
4104	63.7302
4088	64.0692
4072	63.9384
4056	63.9109
4040	63.9926
4024	63.9309
4008	63.9464
3992	64.0252
3976	63.4793
3960	63.9729
3944	63.9202
3928	63.8543
3912	63.9396
3896	63.7916
3880	63.7452
3864	63.7605
3848	63.959
3832	63.7892
3816	63.4266
3800	63.8142
3784	63.2695
3768	63.6342
3752	63.7401
3736	63.8952
3720	63.4875
3704	63.4199
3688	63.4531
3672	63.8386
3656	63.3555
3640	62.9774
3624	63.1033
3608	63.2315
3592	63.149
3576	62.928
3560	63.0075
3544	62.8271
3528	62.7264
3512	62.6772
3496	62.5547
3480	62.9258
3464	62.7384
3448	62.6133
3432	62.5197
3416	62.339
3400	62.3217
3384	62.3569
3368	62.3382
3352	62.1936
3336	62.2352
3320	62.0555
3304	62.0497
3288	62.0932
3272	61.9849
3256	61.647
3240	61.8827
3224	61.87
3208	61.842
3192	61.6226
3176	61.5725
3160	61.7662
3144	61.4483
3128	61.4485
3112	61.4425
3096	61.3205
3080	61.3847
3064	61.3405
3048	61.2273
3032	61.073
3016	61.2408
3000	60.8894
2984	60.8013
2968	60.5663
2952	60.5614
2936	60.464
2920	60.2808
2904	60.2842
2888	60.3773
2872	60.229
2856	60.1252
2840	60.2587
2824	60.2218
2808	60.1059
2792	60.0397
2776	59.9818
2760	59.7587
2744	59.8164
2728	59.5614
2712	59.4567
2696	59.5416
2680	59.3617
2664	59.3071
2648	59.2465
2632	59.1685
2616	58.9317
2600	58.918
2584	58.8117
2568	58.7393
2552	58.7441
2536	58.5598
2520	58.3235
2504	58.4081
2488	58.2715
2472	58.2711
2456	58.0638
2440	58.1906
2424	57.7685
2408	57.5291
2392	57.6923
2376	57.5583
2360	57.663
2344	57.2969
2328	57.2678
2312	56.9808
2296	56.9773
2280	56.9242
2264	56.8834
2248	56.7529
2232	56.4996
2216	56.356
2200	56.3393
2184	56.1875
2168	56.1777
2152	55.9892
2136	56.013
2120	55.7039
2104	55.6389
2088	55.6829
2072	55.1671
2056	55.2772
2040	55.2058
2024	55.011
2008	55.013
1992	54.7921
1976	54.6901
1960	54.5551
1944	54.4128
1928	54.3044
1912	54.218
1896	54.1093
1880	53.9057
1864	53.7693
1848	53.6947
1832	53.5244
1816	53.5341
1800	53.4169
1784	53.3188
1768	53.1628
1752	53.0717
1736	52.802
1720	52.7623
1704	52.9291
1688	52.601
1672	52.3632
1656	52.5375
1640	52.0864
1624	51.8455
1608	51.5986
1592	51.5141
1576	51.5972
1560	51.5872
1544	51.5429
1528	51.1404
1512	51.0175
1496	50.8263
1480	50.5448
1464	50.5698
1448	50.3475
1432	50.2059
1416	50.1367
1400	49.8271
1384	49.8011
1368	49.5123
1352	49.4308
1336	49.3464
1320	49.2269
1304	48.9725
1288	48.9348
1272	48.5837
1256	48.5174
1240	48.4549
1224	48.2971
1208	48.1833
1192	48.0896
1176	47.7765
1160	47.7404
1144	47.4687
1128	47.4683
1112	47.3059
1096	46.9973
1080	46.9498
1064	46.9356
1048	46.7683
1032	46.426
1016	46.3146
1000	46.1319
984	 46.4253
968	 45.7174
952	 45.5584
936	 45.2696
920	 45.4236
904	 44.7671
888	 44.8407
872	 44.6747
856	 44.3988
840	 44.1462
824	 44.1217
808	 43.6811
792	 43.5624
776	 43.6714
760	 43.1744
744	 42.7081
728	 42.5243
712	 42.1528
696	 41.7042
680	 41.6361
664	 41.3097
648	 41.2403
632	 40.4385
616	 40.4797
600	 39.4632
584	 39.435
568	 38.5957
552	 37.8972
536	 37.5473
520	 36.4523
504	 36.4207
488	 35.5489
472	 36.1086
456	 35.353
440	 34.479
424	 33.7805
408	 30.6473
392	 44.5294
376	 21.8656
370	 26.3288