File: Bakgrunnsmateriale/MATLAB/FTIR/ftir_data/subBb/Mapping_121/C-4040-8_t36.asc
PE IR       SPECTRUM    SPECTRUM    ASCII       PEDS        1.60
  -1
C-B132~1.ASC
17/03/27
17:25:27.00
17/03/27
17:25:53.00
tln
$C-4040-8_t0036$<tbV0>[7.8,-5.2,8.0,0.0,27,1,0]
27.028
64

2002,4.07
MIRTGS : RIGHTBACK : INTERNAL 2
MIR : ON : INTERNAL 2
OPTKBR

0.200000
8
8.000000
FILLER
RATIO
SPECTRUM
UNLOCKED 256

DOUBLE
64
COMBINED
1
0
0

0.002000
RATIO

1
0
TRUE
51149
0
LEFT NOT FITTED RIGHT NOT FITTED 0
NONE
NONE
15600
12
4.427000
51148
TRUE
1 0 8 72 0 0 0 0

15798

#HDR
-1
-1
#GR
µM
%T
2.38419e-05
0.0
2.000000
0.002000
12515
8
104.044
43.2733
#DATA
2.000000	 64.4344
2.084000	 64.1906
2.168000	 64.6175
2.252000	 63.8618
2.336000	 64.0984
2.420000	 64.1567
2.504000	 64.0558
2.588000	 64.0696
2.672000	 63.852
2.756000	 63.9128
2.840000	 63.8019
2.924000	 63.5065
3.008000	 63.4519
3.092000	 63.1928
3.176000	 63.0426
3.260000	 63.0176
3.344000	 62.8135
3.428000	 62.2014
3.512000	 62.5918
3.596000	 62.3775
3.680000	 62.2844
3.764000	 62.0345
3.848000	 61.8736
3.932000	 61.8485
4.016000	 61.5895
4.100000	 61.371
4.184000	 61.4249
4.268000	 61.2376
4.352000	 61.0562
4.436000	 61.0219
4.520000	 60.7733
4.604000	 60.6766
4.688000	 60.6119
4.772000	 60.5101
4.856000	 60.2529
4.940000	 60.2317
5.024000	 60.2028
5.108000	 60.0965
5.192000	 60.0113
5.276000	 59.8367
5.359999	 59.7908
5.444000	 59.6922
5.528000	 59.5536
5.612000	 59.4254
5.696000	 59.4158
5.780000	 59.1026
5.864000	 59.2277
5.948000	 59.0734
6.032000	 59.0042
6.116000	 58.8958
6.200000	 58.7007
6.284000	 58.787
6.368000	 58.5869
6.452000	 58.6212
6.536000	 58.5837
6.620000	 58.7617
6.704000	 58.5718
6.788000	 58.3891
6.872000	 58.5539
6.956000	 58.3556
7.040000	 58.2165
7.124000	 57.9817
7.208000	 58.0981
7.292000	 57.8699
7.376000	 57.946
7.460000	 57.8467
7.544000	 57.8329
7.628000	 57.8714
7.712000	 57.7834
7.796000	 57.7786
7.880000	 57.6862
7.964000	 57.8124
8.048000	 57.7957
8.132000	 57.5544
8.216000	 57.4792
8.300000	 57.3649
8.384000	 57.444
8.468000	 57.3693
8.552000	 57.4169
8.635999	 57.3039
8.719999	 57.2255
8.804000	 57.3338
8.888000	 57.0521
8.972000	 57.0329
9.056000	 57.0199
9.140000	 57.3628
9.224000	 57.5811
9.308000	 56.969
9.391999	 56.8474
9.475999	 56.8616
9.560000	 57.1962
9.644000	 57.1823
9.728000	 56.9223
9.812000	 57.016
9.896000	 56.9365
9.980000	 56.6136
10.064	56.5952
10.148	57.098
10.232	56.646
10.316	56.7951
10.4	56.4487
10.484	56.6476
10.568	56.7925
10.652	56.5873
10.736	56.6388
10.82	56.5567
10.904	56.7946
10.988	56.4922
11.072	56.4498
11.156	56.4243
11.24	56.4608
11.324	56.5249
11.408	56.5172
11.492	56.2252
11.576	56.2075
11.66	56.1819
11.744	56.2127
11.828	56.2361
11.912	55.8502
11.996	55.8664
12.08	56.0275
12.164	55.9232
12.248	55.7947
12.332	55.8414
12.416	55.8988
12.5	55.8441
12.584	55.9284
12.668	56.146
12.752	55.9287
12.836	55.7478
12.92	55.6482
13.004	55.4236
13.088	55.4548
13.172	55.6551
13.256	55.4878
13.34	55.2784
13.424	55.2965
13.508	55.6109
13.592	55.7522
13.676	55.5712
13.76	55.413
13.844	55.4988
13.928	55.608
14.012	55.4269
14.096	55.3611
14.18	55.5133
14.264	55.5379
14.348	55.3066
14.432	55.1783
14.516	55.2673
14.6	55.214
14.684	55.0836
14.768	54.9729
14.852	54.7973
14.936	54.7431
15.02	54.7932
15.104	54.8996
15.188	55.1034
15.272	55.108
15.356	54.8294
15.44	54.6194
15.524	54.5125
15.608	54.3621
15.692	54.4011
15.776	54.6885
15.86	54.7755
15.944	54.5646
16.028	54.4732
16.112	54.5448
16.196	54.4806
16.28	54.3655
16.364	54.4716
16.448	54.7024
16.532	54.7626
16.616	54.5794
16.7	54.2885
16.784	54.0548
16.868	54.0014
16.952	54.1067
17.036	54.1791
17.12	54.093
17.204	53.9436
17.288	53.828
17.372	53.704
17.456	53.5948
17.54	53.6632
17.624	53.9084
17.708	54.0855
17.792	54.0458
17.876	53.8883
17.96	53.7314
18.044	53.5627
18.128	53.3721
18.212	53.2592
18.296	53.3095
18.38	53.452
18.464	53.5514
18.548	53.5707
18.632	53.5528
18.716	53.506
18.8	53.3943
18.884	53.2408
18.968	53.1595
19.052	53.2512
19.136	53.4805
19.22	53.6947
19.304	53.7626
19.388	53.6988
19.472	53.6366
19.556	53.6867
19.64	53.8304
19.724	53.9499
19.808	53.9386
19.892	53.7647
19.976	53.4734
20.06	53.1644
20.144	52.9516
20.228	52.9117
20.312	53.0322
20.396	53.2095
20.48	53.3318
20.564	53.3584
20.648	53.345
20.732	53.3764
20.816	53.477
20.9	53.5865
20.984	53.605
21.068	53.4775
21.152	53.2472
21.236	53.0329
21.32	52.9525
21.404	53.0364
21.488	53.1861
21.572	53.2275
21.656	53.0127
21.74	52.5194
21.824	51.8901
21.908	51.3644
21.992	51.1387
22.076	51.2705
22.16	51.65
22.244	52.0656
22.328	52.3241
22.412	52.336
22.496	52.1241
22.58	51.7824
22.664	51.4196
22.748	51.1318
22.832	50.9993
22.916	51.0756
23	51.3243
23.084	51.6153
23.168	51.7737
23.252	51.691
23.336	51.368
23.42	50.9177
23.504	50.5055
23.588	50.2257
23.672	50.0504
23.756	49.8571
23.84	49.4464
23.924	48.6798
24.008	47.5388
24.092	46.1398
24.176	44.7516
24.26	43.6931
24.344	43.2737
24.428	43.6246
24.512	44.5609
24.596	45.6607
24.68	46.4308
24.764	46.5322
24.848	45.9103
24.932	44.8869
25.016	44.0427
25.1	43.8923
25.184	44.8805
25.268	47.2341
25.352	50.9365
25.436	55.7428
25.52	61.2345
25.604	66.9462
25.688	72.2959
25.772	76.8717
25.856	80.6418
25.94	83.719
26.024	86.3235
26.108	88.7009
26.192	91.2104
26.276	94.1206
26.36	97.6907
26.444	101.364
26.528	103.813
26.612	103.236
26.696	98.3627
26.78	89.2804
26.864	77.6629
26.948	65.9791
27.028	56.5584