File: Bakgrunnsmateriale/MATLAB/FTIR/ftir_data/subBb/Mapping_121/C-4040-8_e123_cm-1.asc
PE IR       SPECTRUM    SPECTRUM    ASCII       PEDS        1.60
  -1
C-38CF~1.ASC
17/03/27
16:18:59.00
17/03/27
16:18:59.00
tln
$C-4040-8_e0123$<ebV0>[-23.3,12.1,10.0,0.0,27,1,0]
370
64

2002,4.07
MIRTGS : RIGHTBACK : INTERNAL 2
MIR : ON : INTERNAL 2
OPTKBR

0.200000
8
8.000000
FILLER
SINGLE
SPECTRUM
UNLOCKED 256

DOUBLE

COMBINED
1
0
0

1.000000
BACKG

1
0
TRUE
51149
0
LEFT NOT FITTED RIGHT NOT FITTED 0
NONE
NONE
15600
12
4.427000
51148
TRUE
1 0 8 72 0 0 0 0

15798

#HDR
-1
-1
#GR
CM-1
EGY
2.38419e-05
0.0
5000
-1.000000
4631
8
2.455997
0.008106
#DATA
5000	0.769138
4984	0.778508
4968	0.784015
4952	0.785040
4936	0.793123
4920	0.801181
4904	0.805640
4888	0.812411
4872	0.821590
4856	0.829195
4840	0.840616
4824	0.847244
4808	0.861310
4792	0.870847
4776	0.883030
4760	0.887346
4744	0.893044
4728	0.901126
4712	0.901865
4696	0.906968
4680	0.909852
4664	0.909709
4648	0.916552
4632	0.920605
4616	0.927615
4600	0.935935
4584	0.948739
4568	0.958514
4552	0.971007
4536	0.984930
4520	0.987720
4504	0.997972
4488	1.002097
4472	1.008200
4456	1.006817
4440	1.010465
4424	1.014018
4408	1.018238
4392	1.006436
4376	0.998258
4360	1.035237
4344	1.069378
4328	1.091313
4312	1.102995
4296	1.121401
4280	1.138710
4264	1.152586
4248	1.168036
4232	1.174998
4216	1.184773
4200	1.193952
4184	1.207137
4168	1.208114
4152	1.217770
4136	1.225948
4120	1.243829
4104	1.263213
4088	1.279592
4072	1.299619
4056	1.325702
4040	1.344585
4024	1.364660
4008	1.383447
3992	1.395225
3976	1.403450
3960	1.412487
3944	1.420164
3928	1.422357
3912	1.431179
3896	1.431274
3880	1.435208
3864	1.450133
3848	1.463508
3832	1.482105
3816	1.495552
3800	1.514720
3784	1.542711
3768	1.552295
3752	1.546120
3736	1.559877
3720	1.571965
3704	1.574587
3688	1.569795
3672	1.566267
3656	1.574182
3640	1.579880
3624	1.578021
3608	1.587057
3592	1.595497
3576	1.606798
3560	1.617741
3544	1.624774
3528	1.624846
3512	1.626205
3496	1.622343
3480	1.615309
3464	1.606893
3448	1.594090
3432	1.584196
3416	1.591348
3400	1.599717
3384	1.609611
3368	1.623630
3352	1.646304
3336	1.670432
3320	1.693463
3304	1.717495
3288	1.740217
3272	1.756644
3256	1.769518
3240	1.779890
3224	1.787877
3208	1.793432
3192	1.791930
3176	1.797652
3160	1.806521
3144	1.818823
3128	1.838660
3112	1.850152
3096	1.885056
3080	1.917576
3064	1.939153
3048	1.966667
3032	1.976966
3016	1.966619
3000	2.026772
2984	2.025294
2968	1.957201
2952	1.921224
2936	1.815962
2920	1.805615
2904	1.947307
2888	1.997876
2872	1.983070
2856	1.929998
2840	2.067732
2824	2.129936
2808	2.165317
2792	2.194499
2776	2.225899
2760	2.243852
2744	2.252316
2728	2.258944
2712	2.253198
2696	2.241659
2680	2.236080
2664	2.222800
2648	2.220273
2632	2.217030
2616	2.222871
2600	2.227520
2584	2.240777
2568	2.265357
2552	2.283668
2536	2.302312
2520	2.317905
2504	2.328777
2488	2.328491
2472	2.320742
2456	2.306222
2440	2.289247
2424	2.273392
2408	2.263855
2392	2.249097
2376	2.243709
2360	2.237749
2344	2.264666
2328	2.286505
2312	2.317953
2296	2.345871
2280	2.364253
2264	2.377820
2248	2.382111
2232	2.380251
2216	2.374386
2200	2.358579
2184	2.345204
2168	2.336740
2152	2.338051
2136	2.333879
2120	2.336764
2104	2.339720
2088	2.337145
2072	2.359771
2056	2.390050
2040	2.426004
2024	2.444195
2008	2.453899
1992	2.454590
1976	2.446651
1960	2.432060
1944	2.421665
1928	2.403306
1912	2.388167
1896	2.374505
1880	2.376985
1864	2.382755
1848	2.395057
1832	2.407789
1816	2.427053
1800	2.432560
1784	2.429962
1768	2.413082
1752	2.386164
1736	2.327489
1720	2.311420
1704	2.273607
1688	2.250409
1672	2.226066
1656	2.179241
1640	2.153396
1624	2.106451
1608	1.972389
1592	2.014136
1576	1.983833
1560	1.931500
1544	1.958584
1528	2.107572
1512	2.090430
1496	1.701521
1480	1.958584
1464	1.937580
1448	1.781034
1432	1.869678
1416	1.843237
1400	1.732897
1384	1.785278
1368	1.819610
1352	1.814556
1336	1.825928
1320	1.854157
1304	1.855111
1288	1.854515
1272	1.804924
1256	1.754808
1240	1.833128
1224	1.811718
1208	1.748442
1192	1.739478
1176	1.697134
1160	1.629567
1144	1.596260
1128	1.539230
1112	1.458358
1096	1.419711
1080	1.425361
1064	1.439332
1048	1.306056
1032	1.376342
1016	1.362109
1000	1.402187
984	 1.377177
968	 1.344847
952	 1.285338
936	 1.253199
920	 1.215171
904	 1.159906
888	 1.118206
872	 1.036858
856	 1.092171
840	 1.061010
824	 0.846672
808	 0.949549
792	 0.960063
776	 0.977134
760	 0.964331
744	 0.942945
728	 0.901484
712	 0.856304
696	 0.791954
680	 0.735545
664	 0.706338
648	 0.666975
632	 0.624227
616	 0.577497
600	 0.521850
584	 0.507926
568	 0.491547
552	 0.465250
536	 0.436449
520	 0.398302
504	 0.359320
488	 0.304794
472	 0.250673
456	 0.197124
440	 0.150656
424	 0.102233
408	 0.060009
392	 0.021624
376	 0.010180
370	 0.008106