File: Bakgrunnsmateriale/MATLAB/FTIR/ftir_data/subBb/Mapping_121/C-4040-8_t97_cm-1.asc
PE IR       SPECTRUM    SPECTRUM    ASCII       PEDS        1.60
  -1
C-1EEF~1.ASC
17/03/27
22:28:20.00
17/03/27
22:28:20.00
tln
$C-4040-8_t0097$<tbV0>[-7.8,7.8,8.0,0.0,27,1,0]
370
64

2002,4.07
MIRTGS : RIGHTBACK : INTERNAL 2
MIR : ON : INTERNAL 2
OPTKBR

0.200000
8
8.000000
FILLER
RATIO
SPECTRUM
UNLOCKED 256

DOUBLE
64
COMBINED
1
0
0

1.000000
RATIO

1
0
TRUE
51149
0
LEFT NOT FITTED RIGHT NOT FITTED 0
NONE
NONE
15600
12
4.427000
51148
TRUE
1 0 8 72 0 0 0 0

15798

#HDR
-1
-1
#GR
CM-1
%T
2.38419e-05
0.0
5000
-1.000000
4631
8
200
27.3991
#DATA
5000	65.2413
4984	65.2524
4968	64.9868
4952	65.2404
4936	65.0165
4920	65.1929
4904	64.7141
4888	64.9552
4872	65.5684
4856	65.1551
4840	64.9335
4824	65.2488
4808	64.9734
4792	65.4658
4776	64.9803
4760	64.9732
4744	64.6592
4728	65.2213
4712	64.917
4696	64.9049
4680	65.0294
4664	65.1526
4648	65.5368
4632	65.1937
4616	65.4665
4600	64.6009
4584	65.5453
4568	65.3319
4552	65.929
4536	64.7449
4520	65.4585
4504	65.2821
4488	65.2672
4472	65.5195
4456	65.0041
4440	65.4529
4424	65.1079
4408	65.924
4392	69.33
4376	63.0136
4360	65.1831
4344	65.7716
4328	66.0679
4312	65.1973
4296	65.2552
4280	65.075
4264	65.7955
4248	64.7135
4232	65.1458
4216	65.1653
4200	64.4569
4184	65.1261
4168	65.534
4152	65.066
4136	65.2617
4120	65.1778
4104	65.243
4088	64.8273
4072	64.7549
4056	65.0424
4040	65.0646
4024	65.5319
4008	65.173
3992	65.1376
3976	65.2046
3960	65.2824
3944	65.1725
3928	65.0914
3912	65.6047
3896	65.0215
3880	65.2291
3864	65.1783
3848	65.1856
3832	65.0295
3816	65.5116
3800	65.1771
3784	65.2432
3768	65.4076
3752	65.2128
3736	65.054
3720	65.1402
3704	65.2385
3688	65.3468
3672	65.0744
3656	65.1957
3640	65.1977
3624	65.1454
3608	65.1236
3592	65.3011
3576	65.1071
3560	65.2655
3544	65.2023
3528	65.0493
3512	65.2917
3496	65.1142
3480	64.9661
3464	65.5911
3448	65.1231
3432	65.3731
3416	65.2506
3400	65.3848
3384	65.1887
3368	65.4145
3352	65.3628
3336	65.0872
3320	65.1484
3304	65.0459
3288	65.0941
3272	65.2625
3256	65.263
3240	65.2505
3224	65.1998
3208	65.3014
3192	65.0327
3176	65.1948
3160	65.3476
3144	65.1914
3128	65.426
3112	65.2472
3096	65.4355
3080	65.1459
3064	65.2204
3048	65.2353
3032	65.2746
3016	65.3824
3000	65.2378
2984	65.2987
2968	65.1018
2952	65.1508
2936	65.1505
2920	64.8111
2904	65.1752
2888	65.2387
2872	65.1218
2856	65.2806
2840	65.3446
2824	65.324
2808	65.3126
2792	65.4209
2776	65.2722
2760	65.1892
2744	65.3949
2728	65.2717
2712	65.298
2696	65.3341
2680	65.3191
2664	65.5267
2648	65.1891
2632	65.2201
2616	65.2487
2600	65.2711
2584	65.3057
2568	65.3898
2552	65.3334
2536	65.2578
2520	65.4162
2504	65.2251
2488	65.5247
2472	65.4732
2456	65.4752
2440	65.195
2424	65.5605
2408	65.2431
2392	65.3332
2376	65.2386
2360	65.3773
2344	65.3872
2328	65.3397
2312	65.2544
2296	65.2763
2280	65.3798
2264	65.3936
2248	65.3786
2232	65.2998
2216	65.3643
2200	65.3423
2184	65.2709
2168	65.4695
2152	65.2415
2136	65.4431
2120	65.3412
2104	65.3311
2088	65.4493
2072	65.4909
2056	65.0512
2040	65.4258
2024	65.3387
2008	65.445
1992	65.5053
1976	65.3712
1960	65.3131
1944	65.2385
1928	65.3447
1912	65.2466
1896	65.341
1880	65.2951
1864	65.3307
1848	65.2906
1832	65.4689
1816	65.4047
1800	65.3878
1784	65.3095
1768	65.2979
1752	65.1415
1736	64.9568
1720	65.172
1704	65.3309
1688	65.2992
1672	65.1756
1656	65.1976
1640	65.2992
1624	65.1627
1608	65.0644
1592	65.1173
1576	65.1172
1560	64.9655
1544	65.2453
1528	65.1409
1512	65.1997
1496	65.3348
1480	65.1086
1464	65.1265
1448	65.0624
1432	65.0165
1416	65.104
1400	65.0007
1384	65.2085
1368	65.0453
1352	65.0903
1336	64.9055
1320	65.0572
1304	65.0208
1288	65.042
1272	64.9313
1256	65.0107
1240	65.0895
1224	64.8823
1208	64.9001
1192	64.9986
1176	65.0247
1160	64.9431
1144	64.8563
1128	64.8157
1112	64.9062
1096	64.8781
1080	64.699
1064	64.6826
1048	64.7393
1032	64.9675
1016	64.5577
1000	64.7591
984	 64.6403
968	 64.458
952	 64.4356
936	 64.6338
920	 65.8497
904	 64.3591
888	 64.7231
872	 64.5015
856	 64.4334
840	 64.2458
824	 64.4271
808	 64.1635
792	 63.9684
776	 63.8387
760	 63.5791
744	 63.7827
728	 63.42
712	 63.1829
696	 63.2448
680	 63.4371
664	 62.7679
648	 62.549
632	 62.6959
616	 62.5035
600	 62.4745
584	 61.6545
568	 62.3972
552	 62.5926
536	 61.346
520	 62.1392
504	 60.8558
488	 62.1966
472	 58.8072
456	 60.5067
440	 57.8708
424	 59.1049
408	 55.9983
392	 49.2841
376	 158.856
370	 195.956