File: Bakgrunnsmateriale/MATLAB/FTIR/ftir_data/subBb/Mapping_121/C-4040-8_t24_cm-1.asc
PE IR       SPECTRUM    SPECTRUM    ASCII       PEDS        1.60
  -1
C-9A6F~1.ASC
17/03/27
16:29:26.00
17/03/27
16:29:26.00
tln
$C-4040-8_t0024$<tbV0>[10.4,-7.8,8.0,0.0,27,1,0]
370
64

2002,4.07
MIRTGS : RIGHTBACK : INTERNAL 2
MIR : ON : INTERNAL 2
OPTKBR

0.200000
8
8.000000
FILLER
RATIO
SPECTRUM
UNLOCKED 256

DOUBLE
64
COMBINED
1
0
0

1.000000
RATIO

1
0
TRUE
51149
0
LEFT NOT FITTED RIGHT NOT FITTED 0
NONE
NONE
15600
12
4.427000
51148
TRUE
1 0 8 72 0 0 0 0

15798

#HDR
-1
-1
#GR
CM-1
%T
2.38419e-05
0.0
5000
-1.000000
4631
8
104.464
50.2246
#DATA
5000	65.1317
4984	64.7438
4968	64.7365
4952	65.6377
4936	65.4128
4920	65.0591
4904	65.6199
4888	65.3479
4872	65.3273
4856	64.8856
4840	64.8149
4824	65.3187
4808	64.8801
4792	65.3851
4776	64.8299
4760	65.0621
4744	64.8318
4728	64.5902
4712	65.0229
4696	64.7987
4680	64.6411
4664	65.1558
4648	64.6515
4632	64.8549
4616	64.8091
4600	65.0116
4584	64.7882
4568	65.214
4552	64.8996
4536	64.7324
4520	65.0296
4504	65.3401
4488	65.6498
4472	65.0783
4456	65.791
4440	65.8856
4424	65.221
4408	65.204
4392	66.0034
4376	50.7457
4360	65.9295
4344	66.0588
4328	65.4536
4312	65.7431
4296	65.662
4280	65.3102
4264	65.6317
4248	65.1655
4232	65.5747
4216	65.3376
4200	65.3398
4184	64.4402
4168	65.1935
4152	65.1719
4136	65.1205
4120	64.9635
4104	64.8599
4088	64.9026
4072	64.835
4056	64.9376
4040	65.1134
4024	65.1206
4008	64.9884
3992	64.9982
3976	65.0663
3960	65.0098
3944	65.135
3928	65.1319
3912	64.9883
3896	65.1673
3880	65.5396
3864	65.2245
3848	65.2055
3832	64.962
3816	65.0135
3800	65.0797
3784	65.0921
3768	65.1778
3752	65.1294
3736	65.1755
3720	65.0957
3704	65.1021
3688	65.0468
3672	65.1787
3656	65.275
3640	65.207
3624	65.0895
3608	65.2333
3592	65.1659
3576	65.167
3560	65.0684
3544	65.0686
3528	65.2545
3512	65.2103
3496	65.2617
3480	65.1443
3464	65.119
3448	65.36
3432	65.2846
3416	64.9234
3400	65.1229
3384	65.0967
3368	64.9573
3352	65.4355
3336	65.2721
3320	65.2383
3304	65.135
3288	65.2838
3272	65.2179
3256	65.1263
3240	65.2754
3224	65.1772
3208	65.1066
3192	65.3167
3176	65.3263
3160	65.1505
3144	65.1274
3128	65.4994
3112	65.5831
3096	65.2179
3080	65.3467
3064	65.195
3048	65.1514
3032	65.265
3016	65.3199
3000	65.0876
2984	65.3696
2968	65.3773
2952	65.0897
2936	65.1479
2920	64.857
2904	65.1865
2888	65.2105
2872	65.3217
2856	65.0427
2840	65.1895
2824	65.2339
2808	65.3005
2792	65.2933
2776	65.383
2760	65.3324
2744	65.3594
2728	65.4043
2712	65.2406
2696	65.2307
2680	65.2282
2664	65.4451
2648	65.391
2632	65.3733
2616	65.3523
2600	65.3043
2584	65.3769
2568	65.4052
2552	65.3815
2536	65.3915
2520	65.3113
2504	65.1062
2488	65.18
2472	65.3334
2456	65.3433
2440	65.38
2424	65.4293
2408	65.2452
2392	65.3501
2376	65.2827
2360	65.3293
2344	65.401
2328	65.1422
2312	65.3178
2296	65.3091
2280	65.3473
2264	65.1718
2248	65.2718
2232	65.304
2216	65.3091
2200	65.4269
2184	65.3934
2168	65.361
2152	65.4033
2136	65.4555
2120	65.5234
2104	65.3885
2088	65.3395
2072	65.2215
2056	65.4051
2040	65.4172
2024	65.4272
2008	65.4446
1992	65.4376
1976	65.382
1960	65.4564
1944	65.4249
1928	65.4066
1912	65.3611
1896	65.3306
1880	65.3717
1864	65.3537
1848	65.3421
1832	65.4253
1816	65.3363
1800	65.3833
1784	65.4084
1768	65.3625
1752	65.3059
1736	65.1631
1720	65.1218
1704	65.3589
1688	65.3989
1672	65.2722
1656	65.3479
1640	65.5013
1624	65.2449
1608	65.4742
1592	65.3881
1576	65.2588
1560	65.2574
1544	65.1603
1528	65.2395
1512	65.1942
1496	65.2071
1480	65.207
1464	65.1929
1448	65.4584
1432	65.34
1416	65.2614
1400	65.2133
1384	65.1899
1368	65.0941
1352	65.3592
1336	65.2644
1320	65.0963
1304	65.204
1288	65.0984
1272	65.248
1256	65.4351
1240	65.2136
1224	65.2993
1208	65.1676
1192	65.1353
1176	65.2043
1160	65.167
1144	65.2041
1128	65.2808
1112	65.1995
1096	65.4344
1080	65.3069
1064	64.9961
1048	65.1316
1032	65.2825
1016	65.5595
1000	64.9184
984	 65.0324
968	 64.8565
952	 65.4669
936	 65.0107
920	 65.2135
904	 65.2833
888	 65.2565
872	 64.8584
856	 64.9969
840	 65.1885
824	 64.8422
808	 64.9283
792	 65.2508
776	 64.7979
760	 64.8474
744	 64.7063
728	 64.8644
712	 65.1102
696	 64.619
680	 64.2881
664	 64.551
648	 64.3123
632	 64.4477
616	 64.4974
600	 64.3124
584	 64.5324
568	 64.4967
552	 64.1069
536	 63.941
520	 63.632
504	 64.0534
488	 63.0259
472	 64.1083
456	 63.9678
440	 61.6376
424	 58.6584
408	 61.5781
392	 91.4524
376	 88.3246
370	 63.7244