File: Bakgrunnsmateriale/MATLAB/FTIR/ftir_data/subBb/Mapping_121/C-4040-8_t78.asc
PE IR       SPECTRUM    SPECTRUM    ASCII       PEDS        1.60
  -1
C-C14A~1.ASC
17/03/27
20:54:11.00
17/03/27
20:54:37.00
tln
$C-4040-8_t0078$<tbV0>[13.0,5.2,8.0,0.0,27,1,0]
27.028
64

2002,4.07
MIRTGS : RIGHTBACK : INTERNAL 2
MIR : ON : INTERNAL 2
OPTKBR

0.200000
8
8.000000
FILLER
RATIO
SPECTRUM
UNLOCKED 256

DOUBLE
64
COMBINED
1
0
0

0.002000
RATIO

1
0
TRUE
51149
0
LEFT NOT FITTED RIGHT NOT FITTED 0
NONE
NONE
15600
12
4.427000
51148
TRUE
1 0 8 72 0 0 0 0

15798

#HDR
-1
-1
#GR
µM
%T
2.38419e-05
0.0
2.000000
0.002000
12515
8
92.0546
44.4094
#DATA
2.000000	 65.2309
2.084000	 64.6542
2.168000	 65.1184
2.252000	 64.6086
2.336000	 64.8504
2.420000	 65.2531
2.504000	 65.34
2.588000	 65.1637
2.672000	 65.3526
2.756000	 65.2309
2.840000	 65.1612
2.924000	 65.284
3.008000	 65.0644
3.092000	 65.2561
3.176000	 65.2166
3.260000	 65.37
3.344000	 65.0848
3.428000	 64.9543
3.512000	 65.139
3.596000	 65.2992
3.680000	 65.32
3.764000	 65.4059
3.848000	 65.2913
3.932000	 65.3442
4.016000	 65.4206
4.100000	 65.375
4.184000	 65.3945
4.268000	 65.3455
4.352000	 65.241
4.436000	 65.4037
4.520000	 65.2838
4.604000	 65.357
4.688000	 65.4121
4.772000	 65.4295
4.856000	 65.3734
4.940000	 65.3844
5.024000	 65.4426
5.108000	 65.3961
5.192000	 65.3386
5.276000	 65.4162
5.359999	 65.3879
5.444000	 65.2907
5.528000	 65.386
5.612000	 65.4893
5.696000	 65.5316
5.780000	 65.1538
5.864000	 65.0803
5.948000	 65.302
6.032000	 65.3043
6.116000	 65.3227
6.200000	 65.1521
6.284000	 65.0197
6.368000	 65.1791
6.452000	 65.0634
6.536000	 65.1089
6.620000	 64.8925
6.704000	 65.2737
6.788000	 65.2904
6.872000	 65.3141
6.956000	 65.1966
7.040000	 65.2359
7.124000	 65.1407
7.208000	 65.1078
7.292000	 65.1186
7.376000	 65.0595
7.460000	 65.1209
7.544000	 65.0613
7.628000	 65.009
7.712000	 65.0515
7.796000	 65.1679
7.880000	 65.1903
7.964000	 65.0648
8.048000	 64.9102
8.132000	 64.928
8.216000	 65.0444
8.300000	 65.1155
8.384000	 65.0659
8.468000	 64.9016
8.552000	 64.8152
8.635999	 64.7976
8.719999	 64.7238
8.804000	 65.0056
8.888000	 64.8104
8.972000	 64.7836
9.056000	 64.8177
9.140000	 64.8104
9.224000	 64.8039
9.308000	 64.9224
9.391999	 64.8006
9.475999	 64.7361
9.560000	 64.7871
9.644000	 64.8295
9.728000	 64.7002
9.812000	 64.6923
9.896000	 64.7713
9.980000	 64.6686
10.064	64.8348
10.148	64.6705
10.232	64.5962
10.316	64.4363
10.4	64.4924
10.484	65.0896
10.568	65.1444
10.652	64.9075
10.736	64.0676
10.82	64.3321
10.904	65.0777
10.988	64.8251
11.072	64.4884
11.156	64.3944
11.24	64.7405
11.324	64.8132
11.408	64.7353
11.492	64.5482
11.576	64.4349
11.66	64.4904
11.744	64.4529
11.828	64.4683
11.912	64.5302
11.996	64.3625
12.08	64.138
12.164	64.2619
12.248	64.4357
12.332	64.5392
12.416	64.4154
12.5	64.307
12.584	63.9159
12.668	63.8667
12.752	64.1613
12.836	64.2556
12.92	64.0066
13.004	63.9058
13.088	63.9643
13.172	64.0028
13.256	64.0556
13.34	64.3895
13.424	64.7073
13.508	64.2647
13.592	63.4356
13.676	63.0614
13.76	63.1857
13.844	63.5395
13.928	63.6288
14.012	63.4934
14.096	63.276
14.18	63.1542
14.264	63.2923
14.348	63.3494
14.432	63.2266
14.516	63.104
14.6	63.1233
14.684	63.3182
14.768	63.3643
14.852	63.22
14.936	63.1667
15.02	63.0999
15.104	62.8701
15.188	62.7069
15.272	62.7595
15.356	62.8753
15.44	62.8922
15.524	62.7234
15.608	62.4065
15.692	62.1626
15.776	62.1077
15.86	62.1571
15.944	62.2319
16.028	62.2544
16.112	62.2114
16.196	62.1988
16.28	62.2023
16.364	62.1948
16.448	62.3367
16.532	62.6151
16.616	62.7308
16.7	62.5849
16.784	62.4051
16.868	62.3688
16.952	62.3964
17.036	62.347
17.12	62.2249
17.204	62.1121
17.288	62.0168
17.372	61.9225
17.456	61.8767
17.54	61.9044
17.624	61.949
17.708	61.9542
17.792	61.9304
17.876	61.9264
17.96	61.9449
18.044	61.9285
18.128	61.8362
18.212	61.7209
18.296	61.6862
18.38	61.7607
18.464	61.8623
18.548	61.8657
18.632	61.6988
18.716	61.4271
18.8	61.2377
18.884	61.2667
18.968	61.4476
19.052	61.5856
19.136	61.5989
19.22	61.5901
19.304	61.6491
19.388	61.7038
19.472	61.633
19.556	61.4332
19.64	61.2189
19.724	61.0896
19.808	61.0425
19.892	61.0004
19.976	60.8989
20.06	60.7427
20.144	60.5969
20.228	60.5268
20.312	60.5312
20.396	60.5347
20.48	60.4629
20.564	60.3336
20.648	60.2501
20.732	60.3036
20.816	60.4763
20.9	60.6402
20.984	60.6674
21.068	60.5331
21.152	60.3225
21.236	60.1505
21.32	60.0799
21.404	60.1025
21.488	60.1784
21.572	60.2847
21.656	60.4469
21.74	60.7036
21.824	61.0326
21.908	61.3086
21.992	61.3664
22.076	61.1114
22.16	60.5792
22.244	59.9226
22.328	59.3323
22.412	58.9595
22.496	58.8705
22.58	59.0304
22.664	59.3204
22.748	59.5576
22.832	59.5724
22.916	59.28
23	58.7346
23.084	58.0833
23.168	57.478
23.252	56.9562
23.336	56.4363
23.42	55.861
23.504	55.2782
23.588	54.8847
23.672	54.9206
23.756	55.5084
23.84	56.5456
23.924	57.7081
24.008	58.6198
24.092	59.0487
24.176	59.0336
24.26	58.8269
24.344	58.7698
24.428	59.0757
24.512	59.7183
24.596	60.4313
24.68	60.7594
24.764	60.2255
24.848	58.5368
24.932	55.7446
25.016	52.3016
25.1	48.8893
25.184	46.2179
25.268	44.7201
25.352	44.4489
25.436	45.0987
25.52	46.1856
25.604	47.3065
25.688	48.2782
25.772	49.1627
25.856	50.1466
25.94	51.4567
26.024	53.238
26.108	55.4334
26.192	57.821
26.276	60.0231
26.36	61.5406
26.444	62.0084
26.528	61.3
26.612	59.5908
26.696	57.1354
26.78	54.0498
26.864	50.6999
26.948	47.6761
27.028	45.7551