File: Bakgrunnsmateriale/MATLAB/FTIR/ftir_data/subBb/Mapping_121/C-4040-8_t54_cm-1.asc
PE IR       SPECTRUM    SPECTRUM    ASCII       PEDS        1.60
  -1
C-1C6F~1.ASC
17/03/27
18:55:27.00
17/03/27
18:55:27.00
tln
$C-4040-8_t0054$<tbV0>[-10.4,-2.6,8.0,0.0,27,1,0]
370
64

2002,4.07
MIRTGS : RIGHTBACK : INTERNAL 2
MIR : ON : INTERNAL 2
OPTKBR

0.200000
8
8.000000
FILLER
RATIO
SPECTRUM
UNLOCKED 256

DOUBLE
64
COMBINED
1
0
0

1.000000
RATIO

1
0
TRUE
51149
0
LEFT NOT FITTED RIGHT NOT FITTED 0
NONE
NONE
15600
12
4.427000
51148
TRUE
1 0 8 72 0 0 0 0

15798

#HDR
-1
-1
#GR
CM-1
%T
2.38419e-05
0.0
5000
-1.000000
4631
8
101.718
31.8779
#DATA
5000	64.5466
4984	65.4102
4968	64.9791
4952	65.0636
4936	65.0232
4920	64.7296
4904	64.9485
4888	64.9352
4872	64.3309
4856	64.5381
4840	65.171
4824	64.8512
4808	64.6218
4792	64.485
4776	64.9722
4760	64.4205
4744	64.6133
4728	64.5714
4712	64.8955
4696	65.2014
4680	65.2484
4664	64.9571
4648	64.7576
4632	65.0303
4616	64.7275
4600	64.8029
4584	65.2168
4568	65.0593
4552	64.82
4536	64.5249
4520	64.4408
4504	64.8275
4488	64.7929
4472	64.9192
4456	64.8299
4440	64.6732
4424	64.7558
4408	65.3366
4392	64.0831
4376	64.6252
4360	56.0359
4344	68.7598
4328	65.3771
4312	65.1514
4296	64.8402
4280	64.8194
4264	64.8246
4248	63.9273
4232	64.7774
4216	64.7888
4200	64.8891
4184	63.7278
4168	64.5268
4152	64.8879
4136	65.3024
4120	64.9896
4104	64.9565
4088	65.2629
4072	65.2961
4056	65.0759
4040	65.1003
4024	64.9158
4008	65.2262
3992	65.2271
3976	64.9435
3960	65.0597
3944	65.0967
3928	64.7855
3912	65.0927
3896	64.952
3880	65.0623
3864	65.0497
3848	64.8926
3832	64.6627
3816	65.1036
3800	65.0934
3784	65.1217
3768	65.0409
3752	65.2551
3736	65.1506
3720	64.9414
3704	65.1244
3688	65.1423
3672	65.1105
3656	65.1904
3640	65.135
3624	65.1611
3608	65.2159
3592	64.9541
3576	65.2438
3560	64.8438
3544	65.0395
3528	65.1761
3512	65.1051
3496	65.0529
3480	65.3883
3464	65.2388
3448	65.1623
3432	65.2656
3416	65.1921
3400	65.0181
3384	65.4051
3368	65.1339
3352	65.1303
3336	65.2068
3320	65.3585
3304	65.007
3288	65.0613
3272	65.0202
3256	65.4216
3240	65.1124
3224	65.1152
3208	65.3696
3192	65.2023
3176	65.3184
3160	65.0427
3144	65.0571
3128	65.1796
3112	65.0477
3096	65.3073
3080	65.1722
3064	65.1779
3048	65.2468
3032	64.9578
3016	65.1854
3000	64.9756
2984	65.1884
2968	65.1254
2952	65.1075
2936	65.0156
2920	64.7061
2904	65.1061
2888	65.0635
2872	65.1839
2856	64.9878
2840	65.1827
2824	65.1364
2808	65.1502
2792	64.9737
2776	65.2182
2760	65.3269
2744	65.2194
2728	65.1979
2712	65.1618
2696	65.1736
2680	65.1497
2664	65.3206
2648	65.2875
2632	65.2395
2616	65.3554
2600	65.3116
2584	65.3453
2568	65.1928
2552	65.4009
2536	65.198
2520	65.3273
2504	65.2459
2488	65.2054
2472	65.1763
2456	65.2105
2440	65.032
2424	65.462
2408	64.9187
2392	65.2222
2376	65.2168
2360	65.298
2344	65.2791
2328	65.2907
2312	65.1994
2296	65.3455
2280	65.263
2264	65.3059
2248	65.4037
2232	65.395
2216	65.2588
2200	65.275
2184	65.286
2168	65.2168
2152	65.3713
2136	65.3032
2120	65.2153
2104	65.2511
2088	65.1465
2072	65.3702
2056	65.3412
2040	65.2138
2024	65.2648
2008	65.2553
1992	65.2559
1976	65.2354
1960	65.2241
1944	65.2848
1928	65.4122
1912	65.4113
1896	65.3146
1880	65.2544
1864	65.2713
1848	65.3539
1832	65.3134
1816	65.2697
1800	65.3259
1784	65.1251
1768	65.2722
1752	65.2772
1736	65.0732
1720	65.0385
1704	65.3661
1688	65.2115
1672	65.2022
1656	65.104
1640	65.1184
1624	65.1898
1608	65.0008
1592	64.938
1576	65.1171
1560	64.8796
1544	64.9407
1528	64.9399
1512	65.0508
1496	65.0663
1480	65.0292
1464	65.039
1448	64.9881
1432	64.8391
1416	65.0351
1400	65.1229
1384	65.1984
1368	64.9404
1352	65.0697
1336	65.0764
1320	65.1288
1304	65.2475
1288	65.0789
1272	65.0363
1256	65.0322
1240	65.0834
1224	65.1989
1208	65.1693
1192	64.8277
1176	64.841
1160	64.9488
1144	65.1964
1128	65.0527
1112	64.8689
1096	64.6195
1080	64.7264
1064	64.8425
1048	64.8273
1032	64.6567
1016	64.4825
1000	64.8459
984	 64.8168
968	 64.6671
952	 64.5844
936	 64.5636
920	 64.6656
904	 64.6353
888	 64.3034
872	 64.5176
856	 64.571
840	 64.5674
824	 64.4192
808	 64.5961
792	 63.9856
776	 64.2452
760	 63.8897
744	 64.1829
728	 63.546
712	 63.7588
696	 63.6448
680	 63.1199
664	 63.0144
648	 63.016
632	 63.0544
616	 63.2455
600	 62.8176
584	 62.028
568	 61.6175
552	 62.445
536	 61.8481
520	 61.9939
504	 61.9325
488	 61.7214
472	 60.7002
456	 59.5647
440	 58.8362
424	 59.9237
408	 66.5038
392	 91.6585
376	 100.331
370	 31.8779