File: Bakgrunnsmateriale/MATLAB/FTIR/ftir_data/subBb/Mapping_121/C-4040-8_t18.asc
PE IR       SPECTRUM    SPECTRUM    ASCII       PEDS        1.60
  -1
C-C92A~1.ASC
17/03/27
15:54:37.00
17/03/27
15:55:03.00
tln
$C-4040-8_t0018$<tbV0>[-2.6,-10.4,8.0,0.0,27,1,0]
27.028
64

2002,4.07
MIRTGS : RIGHTBACK : INTERNAL 2
MIR : ON : INTERNAL 2
OPTKBR

0.200000
8
8.000000
FILLER
RATIO
SPECTRUM
UNLOCKED 256

DOUBLE
64
COMBINED
1
0
0

0.002000
RATIO

1
0
TRUE
51149
0
LEFT NOT FITTED RIGHT NOT FITTED 0
NONE
NONE
15600
12
4.427000
51148
TRUE
1 0 8 72 0 0 0 0

15798

#HDR
-1
-1
#GR
µM
%T
2.38419e-05
0.0
2.000000
0.002000
12515
8
71.3251
28.6735
#DATA
2.000000	 63.8184
2.084000	 64.2573
2.168000	 64.4386
2.252000	 68.457
2.336000	 64.234
2.420000	 63.62
2.504000	 63.9347
2.588000	 63.7924
2.672000	 63.841
2.756000	 63.4731
2.840000	 63.1344
2.924000	 63.1063
3.008000	 62.5782
3.092000	 62.3298
3.176000	 62.1761
3.260000	 61.9507
3.344000	 61.6317
3.428000	 61.2631
3.512000	 61.2451
3.596000	 61.0496
3.680000	 60.8493
3.764000	 60.6124
3.848000	 60.3103
3.932000	 60.0839
4.016000	 59.7006
4.100000	 59.8518
4.184000	 59.4772
4.268000	 59.2155
4.352000	 58.9029
4.436000	 58.6833
4.520000	 58.5782
4.604000	 58.2865
4.688000	 58.0899
4.772000	 57.9549
4.856000	 57.6745
4.940000	 57.4612
5.024000	 57.3483
5.108000	 57.1098
5.192000	 56.8435
5.276000	 56.798
5.359999	 56.6719
5.444000	 56.391
5.528000	 56.3307
5.612000	 56.2713
5.696000	 56.0756
5.780000	 55.9384
5.864000	 55.8914
5.948000	 55.7402
6.032000	 55.588
6.116000	 55.4848
6.200000	 55.2165
6.284000	 54.904
6.368000	 54.9189
6.452000	 54.8001
6.536000	 54.6925
6.620000	 54.6664
6.704000	 54.4087
6.788000	 54.2739
6.872000	 54.0665
6.956000	 53.9038
7.040000	 53.8466
7.124000	 53.5892
7.208000	 53.737
7.292000	 53.4552
7.376000	 53.2746
7.460000	 53.2815
7.544000	 53.1546
7.628000	 53.045
7.712000	 52.8883
7.796000	 52.8294
7.880000	 52.6265
7.964000	 52.5993
8.048000	 52.4518
8.132000	 52.5119
8.216000	 52.3983
8.300000	 52.3569
8.384000	 52.1644
8.468000	 52.1532
8.552000	 52.0095
8.635999	 52.0338
8.719999	 52.0382
8.804000	 51.874
8.888000	 51.7658
8.972000	 51.6404
9.056000	 51.6362
9.140000	 51.33
9.224000	 51.423
9.308000	 51.1114
9.391999	 51.2609
9.475999	 51.1533
9.560000	 51.2433
9.644000	 51.0564
9.728000	 51.1254
9.812000	 51.082
9.896000	 50.9508
9.980000	 50.5785
10.064	50.5476
10.148	50.7355
10.232	50.4487
10.316	50.6047
10.4	50.6072
10.484	50.4844
10.568	50.2107
10.652	50.2819
10.736	50.1909
10.82	49.79
10.904	49.6521
10.988	49.7258
11.072	49.4404
11.156	49.5256
11.24	49.6836
11.324	49.3564
11.408	49.5243
11.492	49.409
11.576	49.0911
11.66	49.3827
11.744	49.4044
11.828	49.2156
11.912	49.1725
11.996	48.9704
12.08	48.7938
12.164	48.8295
12.248	48.7589
12.332	48.5735
12.416	48.8105
12.5	48.9415
12.584	48.9009
12.668	48.7032
12.752	48.6878
12.836	48.8005
12.92	48.6483
13.004	48.4842
13.088	48.3213
13.172	48.1551
13.256	48.1018
13.34	48.1473
13.424	48.0639
13.508	47.7362
13.592	47.5548
13.676	47.81
13.76	47.8822
13.844	47.635
13.928	47.6123
14.012	47.6866
14.096	47.573
14.18	47.3294
14.264	47.1537
14.348	47.0463
14.432	46.8803
14.516	46.7034
14.6	46.7212
14.684	46.8665
14.768	46.8608
14.852	46.7554
14.936	46.7389
15.02	46.7873
15.104	46.734
15.188	46.5695
15.272	46.5
15.356	46.6295
15.44	46.7887
15.524	46.7238
15.608	46.4317
15.692	46.2092
15.776	46.247
15.86	46.3526
15.944	46.2375
16.028	45.908
16.112	45.6327
16.196	45.6073
16.28	45.7678
16.364	45.9074
16.448	45.8769
16.532	45.7208
16.616	45.5719
16.7	45.4408
16.784	45.2696
16.868	45.1137
16.952	45.0845
17.036	45.1981
17.12	45.3497
17.204	45.3973
17.288	45.3203
17.372	45.2759
17.456	45.3493
17.54	45.3564
17.624	45.1472
17.708	44.8702
17.792	44.6847
17.876	44.4887
17.96	44.1668
18.044	43.876
18.128	43.8627
18.212	44.0978
18.296	44.3015
18.38	44.2677
18.464	44.0513
18.548	43.8602
18.632	43.8492
18.716	44.0127
18.8	44.2116
18.884	44.2467
18.968	43.9966
19.052	43.5309
19.136	43.0805
19.22	42.8468
19.304	42.8311
19.388	42.86
19.472	42.7602
19.556	42.4957
19.64	42.1812
19.724	42.0079
19.808	42.1439
19.892	42.648
19.976	43.3952
20.06	44.0968
20.144	44.4548
20.228	44.3636
20.312	43.9617
20.396	43.5229
20.48	43.2919
20.564	43.3602
20.648	43.6301
20.732	43.8829
20.816	43.9336
20.9	43.7396
20.984	43.3783
21.068	42.9492
21.152	42.4977
21.236	42.0314
21.32	41.5937
21.404	41.2727
21.488	41.1323
21.572	41.129
21.656	41.1258
21.74	40.9792
21.824	40.6359
21.908	40.1686
21.992	39.7211
22.076	39.4329
22.16	39.3834
22.244	39.5624
22.328	39.8787
22.412	40.1809
22.496	40.3182
22.58	40.2258
22.664	39.9578
22.748	39.668
22.832	39.4904
22.916	39.4525
23	39.4471
23.084	39.321
23.168	38.9908
23.252	38.5187
23.336	38.0748
23.42	37.8508
23.504	37.9433
23.588	38.2923
23.672	38.7495
23.756	39.1861
23.84	39.5413
23.924	39.8676
24.008	40.219
24.092	40.5366
24.176	40.6763
24.26	40.5112
24.344	39.9772
24.428	39.1191
24.512	38.1279
24.596	37.2339
24.68	36.517
24.764	35.8044
24.848	34.775
24.932	33.2302
25.016	31.3325
25.1	29.6446
25.184	28.7372
25.268	28.9096
25.352	30.1618
25.436	32.608
25.52	36.5102
25.604	42.0545
25.688	48.8823
25.772	55.7778
25.856	60.9386
25.94	62.6883
26.024	60.189
26.108	53.995
26.192	45.8218
26.276	37.8681
26.36	32.1428
26.444	29.6096
26.528	30.1165
26.612	32.763
26.696	36.7211
26.78	41.7817
26.864	48.4165
26.948	57.173
27.028	67.1461