File: Bakgrunnsmateriale/MATLAB/FTIR/ftir_data/subBb/Mapping_121/C-4040-8_t46.asc
PE IR       SPECTRUM    SPECTRUM    ASCII       PEDS        1.60
  -1
C-B532~1.ASC
17/03/27
18:18:32.00
17/03/27
18:18:58.00
tln
$C-4040-8_t0046$<tbV0>[10.4,-2.6,8.0,0.0,27,1,0]
27.028
64

2002,4.07
MIRTGS : RIGHTBACK : INTERNAL 2
MIR : ON : INTERNAL 2
OPTKBR

0.200000
8
8.000000
FILLER
RATIO
SPECTRUM
UNLOCKED 256

DOUBLE
64
COMBINED
1
0
0

0.002000
RATIO

1
0
TRUE
51149
0
LEFT NOT FITTED RIGHT NOT FITTED 0
NONE
NONE
15600
12
4.427000
51148
TRUE
1 0 8 72 0 0 0 0

15798

#HDR
-1
-1
#GR
µM
%T
2.38419e-05
0.0
2.000000
0.002000
12515
8
125.078
44.9934
#DATA
2.000000	 64.9106
2.084000	 64.8616
2.168000	 63.8732
2.252000	 65.612
2.336000	 66.295
2.420000	 64.9812
2.504000	 64.9283
2.588000	 65.1102
2.672000	 65.422
2.756000	 64.9591
2.840000	 65.4167
2.924000	 65.4019
3.008000	 65.3697
3.092000	 65.1762
3.176000	 65.2312
3.260000	 65.2955
3.344000	 65.2643
3.428000	 64.9859
3.512000	 65.1355
3.596000	 65.1752
3.680000	 65.1985
3.764000	 65.3676
3.848000	 65.36
3.932000	 65.3146
4.016000	 65.2029
4.100000	 65.4859
4.184000	 65.3451
4.268000	 65.2939
4.352000	 65.3546
4.436000	 65.4622
4.520000	 65.3734
4.604000	 65.3407
4.688000	 65.508
4.772000	 65.3951
4.856000	 65.5052
4.940000	 65.3786
5.024000	 65.4017
5.108000	 65.1206
5.192000	 65.3202
5.276000	 65.4224
5.359999	 65.2726
5.444000	 65.4434
5.528000	 65.3038
5.612000	 65.2938
5.696000	 65.2193
5.780000	 64.9631
5.864000	 65.345
5.948000	 65.2696
6.032000	 65.3801
6.116000	 65.2513
6.200000	 65.3389
6.284000	 65.1409
6.368000	 65.2779
6.452000	 65.1064
6.536000	 65.2357
6.620000	 65.171
6.704000	 65.1127
6.788000	 65.191
6.872000	 64.9429
6.956000	 65.0449
7.040000	 65.1981
7.124000	 65.0933
7.208000	 65.1714
7.292000	 65.1545
7.376000	 65.103
7.460000	 65.1935
7.544000	 65.1256
7.628000	 65.1112
7.712000	 65.0601
7.796000	 65.0141
7.880000	 65.0268
7.964000	 64.9577
8.048000	 65.1166
8.132000	 64.8811
8.216000	 64.9057
8.300000	 65.2064
8.384000	 64.9589
8.468000	 64.8447
8.552000	 64.726
8.635999	 64.987
8.719999	 65.5112
8.804000	 64.7096
8.888000	 65.0331
8.972000	 64.9244
9.056000	 64.5827
9.140000	 64.9341
9.224000	 65.1816
9.308000	 64.8402
9.391999	 64.998
9.475999	 65.0088
9.560000	 64.8072
9.644000	 64.4986
9.728000	 64.5792
9.812000	 64.6792
9.896000	 64.8881
9.980000	 64.7266
10.064	64.7657
10.148	64.7999
10.232	64.8436
10.316	64.2944
10.4	64.5822
10.484	64.5939
10.568	64.8327
10.652	64.5021
10.736	64.4963
10.82	64.5309
10.904	64.5896
10.988	64.6011
11.072	64.6099
11.156	64.5697
11.24	64.4433
11.324	64.4674
11.408	64.3343
11.492	64.4965
11.576	64.549
11.66	64.4569
11.744	64.5583
11.828	64.6376
11.912	64.4489
11.996	64.3405
12.08	64.3695
12.164	64.331
12.248	64.1457
12.332	64.5048
12.416	64.4653
12.5	64.3049
12.584	64.3256
12.668	64.1243
12.752	64.0724
12.836	64.1968
12.92	64.1185
13.004	64.1376
13.088	64.2848
13.172	63.932
13.256	63.4539
13.34	63.642
13.424	63.8883
13.508	63.768
13.592	63.8072
13.676	63.7039
13.76	63.5001
13.844	63.3914
13.928	63.5185
14.012	63.6953
14.096	63.553
14.18	63.5177
14.264	63.8424
14.348	63.9254
14.432	63.7065
14.516	63.3898
14.6	63.1475
14.684	63.2302
14.768	63.4401
14.852	63.5538
14.936	63.543
15.02	63.3773
15.104	63.2183
15.188	63.2478
15.272	63.2512
15.356	63.015
15.44	62.7006
15.524	62.5565
15.608	62.7412
15.692	63.1339
15.776	63.4191
15.86	63.4576
15.944	63.2973
16.028	63.1079
16.112	63.0558
16.196	63.1333
16.28	63.2258
16.364	63.2198
16.448	63.1197
16.532	63.0334
16.616	62.9546
16.7	62.7906
16.784	62.6005
16.868	62.4666
16.952	62.2991
17.036	62.042
17.12	61.8514
17.204	61.8785
17.288	62.073
17.372	62.2871
17.456	62.4301
17.54	62.4837
17.624	62.4478
17.708	62.3207
17.792	62.1475
17.876	62.0443
17.96	62.0988
18.044	62.26
18.128	62.3916
18.212	62.4319
18.296	62.3996
18.38	62.2851
18.464	62.0705
18.548	61.8232
18.632	61.6461
18.716	61.5584
18.8	61.5169
18.884	61.5044
18.968	61.5106
19.052	61.4612
19.136	61.2863
19.22	61.0455
19.304	60.8844
19.388	60.8479
19.472	60.8231
19.556	60.6929
19.64	60.501
19.724	60.4062
19.808	60.4916
19.892	60.6737
19.976	60.807
20.06	60.8412
20.144	60.8432
20.228	60.8837
20.312	60.9332
20.396	60.8893
20.48	60.6914
20.564	60.3875
20.648	60.0744
20.732	59.8176
20.816	59.6264
20.9	59.4857
20.984	59.3939
21.068	59.3601
21.152	59.3865
21.236	59.4624
21.32	59.5736
21.404	59.6953
21.488	59.7834
21.572	59.8015
21.656	59.7792
21.74	59.8274
21.824	60.06
21.908	60.4735
21.992	60.9064
22.076	61.1273
22.16	60.9968
22.244	60.5862
22.328	60.1182
22.412	59.8155
22.496	59.7532
22.58	59.8528
22.664	59.9871
22.748	60.0669
22.832	60.0775
22.916	60.0612
23	60.0588
23.084	60.1012
23.168	60.2273
23.252	60.477
23.336	60.8656
23.42	61.3091
23.504	61.7096
23.588	61.9267
23.672	61.8378
23.756	61.4572
23.84	60.8213
23.924	59.986
24.008	59.0448
24.092	58.1809
24.176	57.6903
24.26	57.8791
24.344	58.9404
24.428	60.8089
24.512	63.1468
24.596	65.3789
24.68	66.9171
24.764	67.4899
24.848	67.2335
24.932	67.0098
25.016	68.1886
25.1	72.083
25.184	79.4142
25.268	89.7121
25.352	101.368
25.436	112.142
25.52	120.111
25.604	124.347
25.688	124.863
25.772	122.566
25.856	118.794
25.94	114.985
26.024	112.233
26.108	110.88
26.192	110.334
26.276	109.265
26.36	106.011
26.444	99.5299
26.528	89.9408
26.612	78.5527
26.696	67.3139
26.78	58.1023
26.864	51.8262
26.948	48.1564
27.028	45.8837