File: Bakgrunnsmateriale/MATLAB/FTIR/ftir_data/subBb/Mapping_121/C-4040-8_t12_cm-1.asc
PE IR       SPECTRUM    SPECTRUM    ASCII       PEDS        1.60
  -1
C-1A64~1.ASC
17/03/27
15:26:56.00
17/03/27
15:26:56.00
tln
$C-4040-8_t0012$<tbV0>[13.0,-10.4,8.0,0.0,27,1,0]
370
64

2002,4.07
MIRTGS : RIGHTBACK : INTERNAL 2
MIR : ON : INTERNAL 2
OPTKBR

0.200000
8
8.000000
FILLER
RATIO
SPECTRUM
UNLOCKED 256

DOUBLE
64
COMBINED
1
0
0

1.000000
RATIO

1
0
TRUE
51149
0
LEFT NOT FITTED RIGHT NOT FITTED 0
NONE
NONE
15600
12
4.427000
51148
TRUE
1 0 8 72 0 0 0 0

15798

#HDR
-1
-1
#GR
CM-1
%T
2.38419e-05
0.0
5000
-1.000000
4631
8
125.381
43.5405
#DATA
5000	64.4721
4984	65.2446
4968	65.0278
4952	63.9293
4936	64.0665
4920	63.9616
4904	65.5231
4888	65.1208
4872	63.7468
4856	65.1836
4840	65.6622
4824	64.6131
4808	64.6492
4792	65.3059
4776	64.8019
4760	64.3814
4744	64.9966
4728	65.0778
4712	64.8258
4696	65.0255
4680	64.7719
4664	65.0412
4648	65.0173
4632	65.2775
4616	65.0172
4600	65.2522
4584	64.7169
4568	64.6845
4552	64.527
4536	64.4272
4520	64.5318
4504	64.9296
4488	64.0306
4472	64.4135
4456	65.9544
4440	67.2001
4424	62.6634
4408	62.2859
4392	63.4759
4376	72.2287
4360	65.7161
4344	64.9958
4328	64.7017
4312	64.1733
4296	64.2855
4280	64.5963
4264	64.841
4248	64.7112
4232	64.4661
4216	64.8905
4200	64.7305
4184	64.3925
4168	64.4071
4152	64.9623
4136	64.7936
4120	65.0362
4104	65.3286
4088	65.2624
4072	65.0576
4056	65.3355
4040	65.1665
4024	65.4146
4008	65.5089
3992	65.1847
3976	64.9772
3960	65.2288
3944	65.2114
3928	65.2176
3912	65.1726
3896	65.2213
3880	64.9649
3864	65.1266
3848	65.5241
3832	65.3901
3816	65.0434
3800	65.3972
3784	65.1664
3768	65.3114
3752	65.5812
3736	65.3838
3720	65.3488
3704	65.2792
3688	65.4136
3672	65.5715
3656	65.4367
3640	65.2312
3624	65.2393
3608	65.2218
3592	65.4265
3576	65.2699
3560	65.1541
3544	65.1705
3528	65.3299
3512	65.1407
3496	65.1698
3480	65.4819
3464	65.3299
3448	65.1248
3432	64.7812
3416	65.1399
3400	65.1137
3384	65.1685
3368	65.3028
3352	65.0728
3336	65.1901
3320	65.0765
3304	65.3037
3288	65.3057
3272	65.276
3256	65.136
3240	65.1989
3224	65.2909
3208	65.4346
3192	64.9717
3176	65.1748
3160	65.059
3144	65.2363
3128	65.1536
3112	65.1337
3096	65.2726
3080	65.0995
3064	65.3067
3048	65.298
3032	65.2772
3016	65.2945
3000	65.2579
2984	65.2518
2968	65.1655
2952	65.0342
2936	65.2059
2920	65.0476
2904	65.0397
2888	65.1655
2872	65.1343
2856	64.7233
2840	65.5212
2824	65.2789
2808	65.2839
2792	65.1697
2776	65.2002
2760	65.345
2744	65.3746
2728	65.223
2712	65.2281
2696	65.4097
2680	65.1799
2664	65.3009
2648	65.1506
2632	65.4293
2616	65.2135
2600	65.2864
2584	65.3369
2568	65.3191
2552	65.2393
2536	65.3174
2520	65.3429
2504	65.2833
2488	65.2298
2472	65.3169
2456	65.1341
2440	65.4808
2424	64.9194
2408	65.2653
2392	65.2643
2376	65.2735
2360	65.4563
2344	65.3152
2328	65.2975
2312	65.3762
2296	65.3111
2280	65.4304
2264	65.3805
2248	65.339
2232	65.312
2216	65.3327
2200	65.2861
2184	65.2501
2168	65.302
2152	65.1424
2136	65.4521
2120	65.2406
2104	65.2962
2088	65.6093
2072	65.2663
2056	65.3884
2040	65.3484
2024	65.1595
2008	65.3188
1992	65.3688
1976	65.2779
1960	65.3488
1944	65.3949
1928	65.2959
1912	65.4814
1896	65.4446
1880	65.2506
1864	65.3641
1848	65.3636
1832	65.3341
1816	65.3938
1800	65.547
1784	65.51
1768	65.4304
1752	65.3779
1736	65.3969
1720	65.4857
1704	65.6908
1688	65.6261
1672	65.426
1656	65.6873
1640	65.4014
1624	65.3159
1608	65.2854
1592	65.2516
1576	65.476
1560	65.8415
1544	65.7334
1528	65.4642
1512	65.6047
1496	65.2876
1480	65.2817
1464	65.4769
1448	65.4822
1432	65.0594
1416	65.3527
1400	65.3184
1384	65.1278
1368	65.0718
1352	65.0484
1336	65.172
1320	65.2251
1304	65.0299
1288	65.1036
1272	64.9839
1256	65.0535
1240	64.9879
1224	65.0507
1208	64.9904
1192	64.9902
1176	64.9478
1160	64.9971
1144	64.9791
1128	64.9827
1112	64.9859
1096	64.8005
1080	64.7236
1064	64.8208
1048	64.9567
1032	64.8194
1016	64.3805
1000	64.6797
984	 65.1438
968	 64.5901
952	 64.4878
936	 64.5901
920	 64.7197
904	 64.5271
888	 64.4119
872	 64.4067
856	 64.5366
840	 64.298
824	 64.2752
808	 64.2632
792	 64.0344
776	 64.1693
760	 63.9558
744	 64.3162
728	 63.4569
712	 63.2011
696	 63.3145
680	 63.1291
664	 62.9166
648	 63.3741
632	 63.2624
616	 62.8783
600	 62.2425
584	 62.6252
568	 63.1842
552	 61.8787
536	 61.5638
520	 60.8376
504	 60.9391
488	 60.5583
472	 60.4505
456	 60.3109
440	 60.6099
424	 56.0102
408	 45.3882
392	 72.9322
376	 63.5467
370	 62.2865