File: Bakgrunnsmateriale/MATLAB/FTIR/ftir_data/subBb/Mapping_121/C-4040-8_t97.asc
PE IR       SPECTRUM    SPECTRUM    ASCII       PEDS        1.60
  -1
C-B946~1.ASC
17/03/27
22:28:20.00
17/03/27
22:28:46.00
tln
$C-4040-8_t0097$<tbV0>[-7.8,7.8,8.0,0.0,27,1,0]
27.028
64

2002,4.07
MIRTGS : RIGHTBACK : INTERNAL 2
MIR : ON : INTERNAL 2
OPTKBR

0.200000
8
8.000000
FILLER
RATIO
SPECTRUM
UNLOCKED 256

DOUBLE
64
COMBINED
1
0
0

0.002000
RATIO

1
0
TRUE
51149
0
LEFT NOT FITTED RIGHT NOT FITTED 0
NONE
NONE
15600
12
4.427000
51148
TRUE
1 0 8 72 0 0 0 0

15798

#HDR
-1
-1
#GR
µM
%T
2.38419e-05
0.0
2.000000
0.002000
12515
8
201.219
27.3949
#DATA
2.000000	 65.2413
2.084000	 65.1687
2.168000	 65.3767
2.252000	 65.4255
2.336000	 65.0739
2.420000	 64.9247
2.504000	 65.0838
2.588000	 65.1787
2.672000	 65.1978
2.756000	 65.1095
2.840000	 65.2447
2.924000	 65.2344
3.008000	 65.1786
3.092000	 65.1224
3.176000	 65.1184
3.260000	 65.3051
3.344000	 65.3791
3.428000	 64.8441
3.512000	 65.211
3.596000	 65.2903
3.680000	 65.3285
3.764000	 65.4772
3.848000	 65.2331
3.932000	 65.5265
4.016000	 65.5395
4.100000	 65.1816
4.184000	 65.3162
4.268000	 65.3784
4.352000	 65.2851
4.436000	 65.3182
4.520000	 65.3031
4.604000	 65.4006
4.688000	 65.4444
4.772000	 65.3265
4.856000	 65.1529
4.940000	 65.3308
5.024000	 65.5255
5.108000	 65.2797
5.192000	 65.3315
5.276000	 65.3414
5.359999	 65.3321
5.444000	 65.4415
5.528000	 65.3015
5.612000	 65.2945
5.696000	 65.1445
5.780000	 65.0017
5.864000	 65.3621
5.948000	 65.3084
6.032000	 65.2296
6.116000	 65.16
6.200000	 65.1435
6.284000	 65.1153
6.368000	 65.0393
6.452000	 65.2599
6.536000	 65.1764
6.620000	 65.2299
6.704000	 65.1633
6.788000	 65.1056
6.872000	 65.0513
6.956000	 65.2232
7.040000	 65.1085
7.124000	 65.153
7.208000	 65.151
7.292000	 65.0712
7.376000	 64.9982
7.460000	 65.0609
7.544000	 65.0657
7.628000	 64.7509
7.712000	 65.2013
7.796000	 64.9646
7.880000	 64.8646
7.964000	 65.0094
8.048000	 65.0591
8.132000	 64.7871
8.216000	 65.0382
8.300000	 64.933
8.384000	 65.0023
8.468000	 65.0089
8.552000	 64.9244
8.635999	 64.9723
8.719999	 64.8273
8.804000	 64.7661
8.888000	 64.9194
8.972000	 64.8883
9.056000	 64.7842
9.140000	 64.9453
9.224000	 64.654
9.308000	 64.8143
9.391999	 64.7001
9.475999	 64.6282
9.560000	 64.747
9.644000	 64.8685
9.728000	 65.0024
9.812000	 64.8685
9.896000	 64.3945
9.980000	 64.6905
10.064	64.8222
10.148	64.6661
10.232	64.5648
10.316	64.4261
10.4	64.6114
10.484	64.4836
10.568	64.4777
10.652	64.5943
10.736	64.8351
10.82	65.6572
10.904	65.4857
10.988	64.4476
11.072	64.3094
11.156	64.5029
11.24	64.7629
11.324	64.7966
11.408	64.7391
11.492	64.4801
11.576	64.5091
11.66	64.4533
11.744	64.3232
11.828	64.2264
11.912	64.2393
11.996	64.1962
12.08	64.4029
12.164	64.4246
12.248	64.3886
12.332	64.2447
12.416	64.0658
12.5	63.9234
12.584	64.0206
12.668	63.8241
12.752	63.6018
12.836	63.723
12.92	63.8661
13.004	63.8346
13.088	63.7361
13.172	63.5688
13.256	63.6154
13.34	63.576
13.424	63.7524
13.508	63.6381
13.592	63.1505
13.676	63.2024
13.76	63.456
13.844	63.3213
13.928	63.2042
14.012	63.1983
14.096	63.1901
14.18	63.4018
14.264	63.5575
14.348	63.3216
14.432	63.0799
14.516	63.1009
14.6	63.2545
14.684	63.4125
14.768	63.4595
14.852	63.3705
14.936	63.0765
15.02	62.8046
15.104	62.7606
15.188	62.6661
15.272	62.5129
15.356	62.4794
15.44	62.5622
15.524	62.76
15.608	62.9115
15.692	62.8653
15.776	62.7468
15.86	62.6627
15.944	62.6162
16.028	62.6385
16.112	62.653
16.196	62.5575
16.28	62.4676
16.364	62.5398
16.448	62.7083
16.532	62.7786
16.616	62.6414
16.7	62.3501
16.784	62.0766
16.868	61.9427
16.952	61.8491
17.036	61.6928
17.12	61.65
17.204	61.9275
17.288	62.3834
17.372	62.6827
17.456	62.6873
17.54	62.5206
17.624	62.3742
17.708	62.35
17.792	62.4323
17.876	62.545
17.96	62.6262
18.044	62.6459
18.128	62.5757
18.212	62.3844
18.296	62.0754
18.38	61.7193
18.464	61.4384
18.548	61.3204
18.632	61.3333
18.716	61.3701
18.8	61.3868
18.884	61.4587
18.968	61.6644
19.052	61.9517
19.136	62.159
19.22	62.1564
19.304	61.9397
19.388	61.6274
19.472	61.371
19.556	61.2452
19.64	61.1929
19.724	61.102
19.808	60.9301
19.892	60.7627
19.976	60.72
20.06	60.843
20.144	61.0901
20.228	61.4135
20.312	61.772
20.396	62.0818
20.48	62.2023
20.564	62.0223
20.648	61.5411
20.732	60.8739
20.816	60.1654
20.9	59.5255
20.984	59.0441
21.068	58.7908
21.152	58.7695
21.236	58.8786
21.32	58.9784
21.404	59.0027
21.488	58.9978
21.572	59.0693
21.656	59.2952
21.74	59.6709
21.824	60.1027
21.908	60.4478
21.992	60.5812
22.076	60.4409
22.16	60.0456
22.244	59.4829
22.328	58.8689
22.412	58.3052
22.496	57.8652
22.58	57.6181
22.664	57.6412
22.748	57.9864
22.832	58.6246
22.916	59.4253
23	60.1956
23.084	60.7835
23.168	61.0854
23.252	61.0678
23.336	60.7764
23.42	60.2888
23.504	59.6877
23.588	59.0844
23.672	58.591
23.756	58.2456
23.84	58.0233
23.924	57.8095
24.008	57.5013
24.092	57.096
24.176	56.657
24.26	56.2351
24.344	55.9032
24.428	55.7882
24.512	56.0114
24.596	56.8877
24.68	58.7593
24.764	61.6795
24.848	65.5308
24.932	69.6326
25.016	72.801
25.1	73.714
25.184	71.6595
25.268	66.9902
25.352	60.8711
25.436	54.5555
25.52	48.5961
25.604	42.6916
25.688	36.7151
25.772	31.3318
25.856	27.9791
25.94	27.7792
26.024	31.0283
26.108	37.0132
26.192	45.626
26.276	57.8897
26.36	76.1238
26.444	101.5
26.528	132.62
26.612	164.872
26.696	191.733
26.78	200.824
26.864	200
26.948	200.144
27.028	195.956