File: Bakgrunnsmateriale/MATLAB/FTIR/ftir_data/subBb/Mapping_121/C-4040-8_t91.asc
PE IR       SPECTRUM    SPECTRUM    ASCII       PEDS        1.60
  -1
C-A94E~1.ASC
17/03/27
22:00:38.00
17/03/27
22:01:04.00
tln
$C-4040-8_t0091$<tbV0>[7.8,7.8,8.0,0.0,27,1,0]
27.028
64

2002,4.07
MIRTGS : RIGHTBACK : INTERNAL 2
MIR : ON : INTERNAL 2
OPTKBR

0.200000
8
8.000000
FILLER
RATIO
SPECTRUM
UNLOCKED 256

DOUBLE
64
COMBINED
1
0
0

0.002000
RATIO

1
0
TRUE
51149
0
LEFT NOT FITTED RIGHT NOT FITTED 0
NONE
NONE
15600
12
4.427000
51148
TRUE
1 0 8 72 0 0 0 0

15798

#HDR
-1
-1
#GR
µM
%T
2.38419e-05
0.0
2.000000
0.002000
12515
8
123.752
45.3768
#DATA
2.000000	 65.3317
2.084000	 65.086
2.168000	 65.1782
2.252000	 64.7395
2.336000	 65.0299
2.420000	 65.117
2.504000	 65.1288
2.588000	 65.1954
2.672000	 65.1813
2.756000	 65.1998
2.840000	 65.1904
2.924000	 65.2624
3.008000	 65.2045
3.092000	 65.2649
3.176000	 65.3144
3.260000	 65.2709
3.344000	 65.243
3.428000	 64.8604
3.512000	 65.1143
3.596000	 65.3862
3.680000	 65.2743
3.764000	 65.3469
3.848000	 65.1452
3.932000	 65.4242
4.016000	 65.6112
4.100000	 65.1748
4.184000	 65.2822
4.268000	 65.2822
4.352000	 65.2186
4.436000	 65.2939
4.520000	 65.3276
4.604000	 65.3253
4.688000	 65.3201
4.772000	 65.3364
4.856000	 65.2882
4.940000	 65.272
5.024000	 65.3867
5.108000	 65.3866
5.192000	 65.4072
5.276000	 65.3248
5.359999	 65.3505
5.444000	 65.4804
5.528000	 65.2736
5.612000	 65.2516
5.696000	 65.3899
5.780000	 65.1937
5.864000	 65.358
5.948000	 65.2257
6.032000	 65.2516
6.116000	 65.3247
6.200000	 65.1495
6.284000	 65.2629
6.368000	 64.9527
6.452000	 65.225
6.536000	 65.1479
6.620000	 65.1382
6.704000	 65.2374
6.788000	 65.1365
6.872000	 65.1589
6.956000	 65.1804
7.040000	 65.1057
7.124000	 65.2622
7.208000	 65.234
7.292000	 65.2107
7.376000	 65.2195
7.460000	 65.1046
7.544000	 65.2287
7.628000	 64.9549
7.712000	 65.1238
7.796000	 65.1427
7.880000	 64.9075
7.964000	 65.0741
8.048000	 65.0403
8.132000	 65.0465
8.216000	 65.1307
8.300000	 65.0447
8.384000	 65.0384
8.468000	 64.823
8.552000	 64.9383
8.635999	 65.0476
8.719999	 64.8081
8.804000	 64.8008
8.888000	 64.8795
8.972000	 64.8962
9.056000	 64.8541
9.140000	 64.5974
9.224000	 64.6073
9.308000	 64.7316
9.391999	 64.8565
9.475999	 65.0011
9.560000	 65.3521
9.644000	 64.7099
9.728000	 64.5177
9.812000	 64.5608
9.896000	 64.4534
9.980000	 64.6849
10.064	64.7139
10.148	64.6789
10.232	64.7378
10.316	64.9916
10.4	64.8547
10.484	64.5255
10.568	64.6468
10.652	64.4673
10.736	64.79
10.82	65.4289
10.904	65.2067
10.988	65.345
11.072	65.0127
11.156	64.5375
11.24	64.248
11.324	64.2929
11.408	64.4578
11.492	64.5546
11.576	64.3325
11.66	64.4008
11.744	64.6386
11.828	64.6389
11.912	64.6171
11.996	64.5442
12.08	64.4586
12.164	64.1533
12.248	64.1992
12.332	64.1282
12.416	63.9934
12.5	64.0354
12.584	64.2069
12.668	64.067
12.752	63.9233
12.836	63.8441
12.92	63.9422
13.004	63.9982
13.088	64.0879
13.172	64.0421
13.256	63.6703
13.34	63.5515
13.424	63.5785
13.508	63.1842
13.592	63.098
13.676	63.3791
13.76	63.4274
13.844	63.4354
13.928	63.4585
14.012	63.2905
14.096	63.2783
14.18	63.3883
14.264	63.4341
14.348	63.3159
14.432	63.1782
14.516	63.2408
14.6	63.3945
14.684	63.3896
14.768	63.2674
14.852	63.1293
14.936	62.9449
15.02	62.8827
15.104	63.01
15.188	63.1003
15.272	63.151
15.356	63.2574
15.44	63.2819
15.524	63.1314
15.608	62.9039
15.692	62.7042
15.776	62.5766
15.86	62.5751
15.944	62.6868
16.028	62.7833
16.112	62.8003
16.196	62.7764
16.28	62.7455
16.364	62.7198
16.448	62.6317
16.532	62.4122
16.616	62.2101
16.7	62.2198
16.784	62.3714
16.868	62.5092
16.952	62.5839
17.036	62.5464
17.12	62.3655
17.204	62.1712
17.288	62.1527
17.372	62.3134
17.456	62.4545
17.54	62.3999
17.624	62.2116
17.708	62.1096
17.792	62.2033
17.876	62.4072
17.96	62.5812
18.044	62.6673
18.128	62.6854
18.212	62.6442
18.296	62.5193
18.38	62.3118
18.464	62.1035
18.548	61.983
18.632	61.9269
18.716	61.8387
18.8	61.6786
18.884	61.4715
18.968	61.2331
19.052	60.9836
19.136	60.7996
19.22	60.7627
19.304	60.8466
19.388	60.9351
19.472	60.9641
19.556	60.9773
19.64	61.0274
19.724	61.0854
19.808	61.0867
19.892	61.0258
19.976	60.9731
20.06	60.9938
20.144	61.0779
20.228	61.169
20.312	61.2377
20.396	61.3047
20.48	61.3926
20.564	61.4734
20.648	61.4783
20.732	61.3687
20.816	61.1921
20.9	61.0473
20.984	60.9803
21.068	60.9313
21.152	60.7934
21.236	60.5132
21.32	60.1384
21.404	59.7759
21.488	59.5108
21.572	59.364
21.656	59.3084
21.74	59.3043
21.824	59.3279
21.908	59.3736
21.992	59.4413
22.076	59.5251
22.16	59.6065
22.244	59.651
22.328	59.6162
22.412	59.4796
22.496	59.2629
22.58	59.0346
22.664	58.8839
22.748	58.8746
22.832	59.0029
22.916	59.2006
23	59.3594
23.084	59.4173
23.168	59.372
23.252	59.274
23.336	59.2112
23.42	59.2443
23.504	59.3308
23.588	59.3617
23.672	59.2351
23.756	58.8866
23.84	58.3248
23.924	57.6443
24.008	57.0021
24.092	56.5584
24.176	56.389
24.26	56.4346
24.344	56.5723
24.428	56.7693
24.512	57.1756
24.596	58.1715
24.68	60.0897
24.764	62.8515
24.848	65.9619
24.932	68.3934
25.016	68.9829
25.1	66.967
25.184	62.4138
25.268	56.4113
25.352	50.7146
25.436	46.854
25.52	45.4005
25.604	45.9301
25.688	47.4632
25.772	49.0298
25.856	50.1273
25.94	50.5877
26.024	50.4925
26.108	50.0273
26.192	50.0589
26.276	51.9556
26.36	57.1995
26.444	66.5299
26.528	79.4156
26.612	93.968
26.696	107.548
26.78	117.606
26.864	122.803
26.948	123.675
27.028	122.695