File: Bakgrunnsmateriale/MATLAB/FTIR/ftir_data/subBb/Mapping_121/C-4040-8_t87.asc
PE IR       SPECTRUM    SPECTRUM    ASCII       PEDS        1.60
  -1
C-B546~1.ASC
17/03/27
21:35:42.00
17/03/27
21:36:09.00
tln
$C-4040-8_t0087$<tbV0>[-10.4,5.2,8.0,0.0,27,1,0]
27.028
64

2002,4.07
MIRTGS : RIGHTBACK : INTERNAL 2
MIR : ON : INTERNAL 2
OPTKBR

0.200000
8
8.000000
FILLER
RATIO
SPECTRUM
UNLOCKED 256

DOUBLE
64
COMBINED
1
0
0

0.002000
RATIO

1
0
TRUE
51149
0
LEFT NOT FITTED RIGHT NOT FITTED 0
NONE
NONE
15600
12
4.427000
51148
TRUE
1 0 8 72 0 0 0 0

15798

#HDR
-1
-1
#GR
µM
%T
2.38419e-05
0.0
2.000000
0.002000
12515
8
92.2376
32.2468
#DATA
2.000000	 65.4676
2.084000	 65.3068
2.168000	 65.0546
2.252000	 63.8389
2.336000	 64.5555
2.420000	 65.1398
2.504000	 65.2696
2.588000	 65.2579
2.672000	 65.1867
2.756000	 65.4449
2.840000	 65.4331
2.924000	 65.1426
3.008000	 65.0244
3.092000	 65.172
3.176000	 65.2104
3.260000	 65.1666
3.344000	 65.0572
3.428000	 64.4963
3.512000	 65.0617
3.596000	 65.2329
3.680000	 65.3918
3.764000	 65.2956
3.848000	 65.1633
3.932000	 65.1063
4.016000	 65.1245
4.100000	 65.1289
4.184000	 65.3273
4.268000	 65.2762
4.352000	 65.2149
4.436000	 65.1793
4.520000	 65.2048
4.604000	 65.2252
4.688000	 65.0325
4.772000	 65.1701
4.856000	 65.0713
4.940000	 65.0944
5.024000	 65.2735
5.108000	 65.1887
5.192000	 65.356
5.276000	 65.3107
5.359999	 65.3647
5.444000	 65.2427
5.528000	 65.2643
5.612000	 65.2344
5.696000	 65.3336
5.780000	 65.0783
5.864000	 64.9059
5.948000	 65.2749
6.032000	 65.354
6.116000	 65.1657
6.200000	 65.1628
6.284000	 64.9879
6.368000	 65.0588
6.452000	 64.9881
6.536000	 65.0628
6.620000	 65.0626
6.704000	 64.9467
6.788000	 65.0639
6.872000	 65.1616
6.956000	 64.7905
7.040000	 65.0419
7.124000	 65.1429
7.208000	 65.0123
7.292000	 65.0511
7.376000	 64.9104
7.460000	 65.1389
7.544000	 64.8736
7.628000	 64.8427
7.712000	 65.0282
7.796000	 65.0702
7.880000	 64.7985
7.964000	 64.9698
8.048000	 64.8599
8.132000	 64.8022
8.216000	 64.8446
8.300000	 65.0058
8.384000	 64.6359
8.468000	 64.8512
8.552000	 64.6871
8.635999	 64.5999
8.719999	 64.6846
8.804000	 64.6728
8.888000	 64.6518
8.972000	 64.9683
9.056000	 65.1663
9.140000	 64.7261
9.224000	 64.4971
9.308000	 64.735
9.391999	 64.6502
9.475999	 64.8514
9.560000	 64.9001
9.644000	 64.6571
9.728000	 64.6216
9.812000	 64.8552
9.896000	 65.0743
9.980000	 64.9304
10.064	64.6107
10.148	64.5119
10.232	64.3508
10.316	64.4703
10.4	64.6204
10.484	65.0007
10.568	64.9547
10.652	64.775
10.736	64.3658
10.82	64.9372
10.904	64.7982
10.988	64.4812
11.072	64.1288
11.156	64.5997
11.24	64.649
11.324	64.4634
11.408	64.3243
11.492	64.1836
11.576	64.2283
11.66	64.0307
11.744	64.0139
11.828	64.3316
11.912	64.2026
11.996	64.3726
12.08	64.3354
12.164	64.2362
12.248	64.1118
12.332	63.8221
12.416	64.1659
12.5	64.2418
12.584	63.7902
12.668	63.857
12.752	64.2414
12.836	64.1464
12.92	64.1033
13.004	64.007
13.088	63.9273
13.172	64.2062
13.256	64.0022
13.34	63.1067
13.424	62.8488
13.508	63.1874
13.592	63.6473
13.676	63.9539
13.76	63.9199
13.844	63.9932
13.928	63.9781
14.012	63.6441
14.096	63.4028
14.18	63.2339
14.264	63.4439
14.348	63.872
14.432	63.9319
14.516	63.6181
14.6	63.2294
14.684	63.1778
14.768	63.2266
14.852	63.1407
14.936	63.2242
15.02	63.39
15.104	63.4886
15.188	63.5593
15.272	63.4873
15.356	63.2643
15.44	63.0025
15.524	62.8247
15.608	62.8681
15.692	63.0318
15.776	63.1404
15.86	63.2834
15.944	63.4644
16.028	63.4567
16.112	63.1879
16.196	62.7639
16.28	62.2905
16.364	61.9662
16.448	62.0643
16.532	62.5471
16.616	62.9656
16.7	62.9789
16.784	62.7722
16.868	62.7051
16.952	62.7813
17.036	62.7833
17.12	62.729
17.204	62.7865
17.288	62.8497
17.372	62.6638
17.456	62.2755
17.54	61.9954
17.624	62.0012
17.708	62.1827
17.792	62.308
17.876	62.2183
17.96	61.954
18.044	61.7309
18.128	61.7333
18.212	61.8986
18.296	62.0154
18.38	62.0069
18.464	61.9826
18.548	62.0122
18.632	62.0067
18.716	61.8883
18.8	61.7331
18.884	61.6519
18.968	61.6255
19.052	61.5698
19.136	61.5025
19.22	61.5169
19.304	61.6019
19.388	61.6104
19.472	61.4443
19.556	61.1741
19.64	60.9566
19.724	60.8754
19.808	60.9063
19.892	60.9773
19.976	61.0229
20.06	60.9855
20.144	60.8208
20.228	60.529
20.312	60.1744
20.396	59.8497
20.48	59.6413
20.564	59.6059
20.648	59.7747
20.732	60.1385
20.816	60.6275
20.9	61.1164
20.984	61.4788
21.068	61.6565
21.152	61.6875
21.236	61.6631
21.32	61.6402
21.404	61.5913
21.488	61.4158
21.572	61.0333
21.656	60.4586
21.74	59.823
21.824	59.3161
21.908	59.0735
21.992	59.0985
22.076	59.2675
22.16	59.3997
22.244	59.3726
22.328	59.1739
22.412	58.9195
22.496	58.7558
22.58	58.7825
22.664	59.0211
22.748	59.4089
22.832	59.8696
22.916	60.3588
23	60.8431
23.084	61.3007
23.168	61.6768
23.252	61.8979
23.336	61.9251
23.42	61.7669
23.504	61.4721
23.588	61.0629
23.672	60.4587
23.756	59.4443
23.84	57.8276
23.924	55.5406
24.008	52.75
24.092	49.8958
24.176	47.5682
24.26	46.3077
24.344	46.472
24.428	48.0793
24.512	50.8029
24.596	54.1332
24.68	57.5512
24.764	60.6659
24.848	63.2978
24.932	65.3605
25.016	66.7351
25.1	67.1914
25.184	66.3545
25.268	63.8951
25.352	59.7373
25.436	54.1772
25.52	47.8983
25.604	41.7651
25.688	36.7142
25.772	33.4497
25.856	32.2539
25.94	32.9734
26.024	35.142
26.108	38.1829
26.192	41.6081
26.276	45.0988
26.36	48.5106
26.444	51.6209
26.528	54.0535
26.612	55.5128
26.696	55.7202
26.78	54.4781
26.864	51.8503
26.948	48.2413
27.028	44.6348