File: Bakgrunnsmateriale/MATLAB/FTIR/ftir_data/subBb/Mapping_121/C-4040-8_t39_cm-1.asc
PE IR       SPECTRUM    SPECTRUM    ASCII       PEDS        1.60
  -1
C-1BE0~1.ASC
17/03/27
17:39:17.00
17/03/27
17:39:17.00
tln
$C-4040-8_t0039$<tbV0>[0.0,-5.2,8.0,0.0,27,1,0]
370
64

2002,4.07
MIRTGS : RIGHTBACK : INTERNAL 2
MIR : ON : INTERNAL 2
OPTKBR

0.200000
8
8.000000
FILLER
RATIO
SPECTRUM
UNLOCKED 256

DOUBLE
64
COMBINED
1
0
0

1.000000
RATIO

1
0
TRUE
51149
0
LEFT NOT FITTED RIGHT NOT FITTED 0
NONE
NONE
15600
12
4.427000
51148
TRUE
1 0 8 72 0 0 0 0

15798

#HDR
-1
-1
#GR
CM-1
%T
2.38419e-05
0.0
5000
-1.000000
4631
8
70.5494
9.985065
#DATA
5000	63.7665
4984	63.376
4968	63.7217
4952	63.7314
4936	63.4383
4920	63.671
4904	63.3686
4888	63.6363
4872	63.3581
4856	63.6707
4840	63.5345
4824	63.6703
4808	63.2995
4792	63.4655
4776	63.4981
4760	63.4632
4744	63.7788
4728	63.2367
4712	63.32
4696	63.4581
4680	63.2982
4664	63.6181
4648	63.3502
4632	63.7648
4616	63.5163
4600	63.3526
4584	63.2405
4568	63.5357
4552	63.1779
4536	63.2576
4520	63.3945
4504	63.103
4488	62.7463
4472	62.8446
4456	62.9688
4440	62.6908
4424	63.4134
4408	62.4703
4392	63.1521
4376	64.5502
4360	63.5535
4344	67.0096
4328	62.9308
4312	63.0754
4296	62.7025
4280	62.5545
4264	62.9518
4248	62.9005
4232	62.7759
4216	62.486
4200	62.5339
4184	61.9443
4168	63.0719
4152	62.6199
4136	62.5441
4120	62.3329
4104	62.4751
4088	62.2942
4072	62.5621
4056	62.2273
4040	62.4094
4024	62.3126
4008	62.1286
3992	62.2431
3976	62.4063
3960	62.1216
3944	62.1451
3928	61.8239
3912	62.0382
3896	61.849
3880	62.2896
3864	61.6933
3848	61.7013
3832	61.5572
3816	61.6127
3800	61.6751
3784	61.3341
3768	61.5178
3752	61.5948
3736	61.5568
3720	61.4149
3704	61.439
3688	61.0894
3672	61.0895
3656	61.0625
3640	61.1387
3624	61.0747
3608	60.9735
3592	60.8079
3576	60.8366
3560	60.5824
3544	60.5953
3528	60.6472
3512	60.5964
3496	60.5681
3480	60.1747
3464	60.306
3448	60.333
3432	60.1565
3416	59.9246
3400	59.9432
3384	59.7909
3368	59.7238
3352	59.7679
3336	59.4429
3320	59.3511
3304	59.5164
3288	59.172
3272	59.1764
3256	59.063
3240	58.699
3224	58.6504
3208	58.6668
3192	58.6758
3176	58.4745
3160	58.3484
3144	58.1256
3128	57.8707
3112	58.4584
3096	58.0633
3080	57.7409
3064	57.6434
3048	57.5231
3032	57.3827
3016	57.2694
3000	57.0703
2984	57.1028
2968	56.9581
2952	56.6614
2936	56.4733
2920	56.0253
2904	56.0906
2888	56.1362
2872	56.0845
2856	55.7569
2840	55.8416
2824	55.6577
2808	55.5702
2792	55.3699
2776	55.3083
2760	55.1741
2744	55.0175
2728	54.8129
2712	54.6922
2696	54.5696
2680	54.4163
2664	54.342
2648	54.0789
2632	54.0241
2616	53.7294
2600	53.6031
2584	53.4373
2568	53.2813
2552	53.1744
2536	53.017
2520	53.0171
2504	52.5065
2488	52.3713
2472	52.2587
2456	51.9974
2440	51.9458
2424	51.5367
2408	51.5516
2392	51.6301
2376	51.2787
2360	51.1891
2344	50.9055
2328	50.7087
2312	50.5489
2296	50.2143
2280	50.1184
2264	49.8498
2248	49.835
2232	49.5862
2216	49.4801
2200	49.2497
2184	49.1222
2168	48.9465
2152	48.8888
2136	48.6382
2120	48.2677
2104	48.1537
2088	48.0389
2072	47.8312
2056	47.4107
2040	47.3108
2024	47.1801
2008	47.0065
1992	46.8229
1976	46.5322
1960	46.3433
1944	46.1535
1928	45.9958
1912	45.6923
1896	45.5018
1880	45.3861
1864	45.258
1848	44.9959
1832	44.9312
1816	44.5251
1800	44.4006
1784	44.2303
1768	43.9589
1752	43.7183
1736	43.4194
1720	43.3058
1704	43.2337
1688	42.9597
1672	42.7336
1656	42.5498
1640	42.4098
1624	42.1161
1608	41.9946
1592	41.6191
1576	41.4357
1560	41.3058
1544	41.0302
1528	40.8714
1512	40.6484
1496	40.4917
1480	40.2533
1464	39.9222
1448	39.8305
1432	39.6633
1416	39.4784
1400	39.1875
1384	38.9882
1368	38.6386
1352	38.6359
1336	38.4288
1320	38.1427
1304	37.9509
1288	37.8288
1272	37.6343
1256	37.3726
1240	37.1891
1224	37.0203
1208	36.4817
1192	36.6722
1176	36.2902
1160	36.028
1144	35.7581
1128	35.7467
1112	35.1326
1096	35.3001
1080	34.9339
1064	34.5679
1048	34.4616
1032	34.4339
1016	34.1726
1000	33.5731
984	 33.6453
968	 33.396
952	 33.0948
936	 32.7836
920	 32.6043
904	 32.3807
888	 32.0662
872	 31.651
856	 31.5991
840	 31.0194
824	 30.7051
808	 30.6816
792	 30.3091
776	 29.8706
760	 29.6299
744	 29.4404
728	 28.6055
712	 28.1784
696	 27.8579
680	 27.2384
664	 27.0064
648	 26.439
632	 26.3205
616	 25.6642
600	 25.7668
584	 25.0535
568	 24.1577
552	 24.1097
536	 23.2378
520	 22.0124
504	 21.7684
488	 21.9638
472	 20.1112
456	 18.6853
440	 18.3794
424	 15.4357
408	 15.1195
392	 14.8445
376	 38.8985
370	 52.3703