File: Bakgrunnsmateriale/MATLAB/FTIR/ftir_data/subBb/Mapping_121/C-4040-8_t27_cm-1.asc
PE IR       SPECTRUM    SPECTRUM    ASCII       PEDS        1.60
  -1
C-9AEF~1.ASC
17/03/27
16:43:17.00
17/03/27
16:43:17.00
tln
$C-4040-8_t0027$<tbV0>[2.6,-7.8,8.0,0.0,27,1,0]
370
64

2002,4.07
MIRTGS : RIGHTBACK : INTERNAL 2
MIR : ON : INTERNAL 2
OPTKBR

0.200000
8
8.000000
FILLER
RATIO
SPECTRUM
UNLOCKED 256

DOUBLE
64
COMBINED
1
0
0

1.000000
RATIO

1
0
TRUE
51149
0
LEFT NOT FITTED RIGHT NOT FITTED 0
NONE
NONE
15600
12
4.427000
51148
TRUE
1 0 8 72 0 0 0 0

15798

#HDR
-1
-1
#GR
CM-1
%T
2.38419e-05
0.0
5000
-1.000000
4631
8
64.8374
15.3283
#DATA
5000	63.2913
4984	63.3535
4968	62.8551
4952	63.7059
4936	63.7316
4920	63.6094
4904	63.6083
4888	63.8322
4872	63.5233
4856	63.818
4840	63.7671
4824	63.864
4808	63.578
4792	63.4724
4776	63.3398
4760	63.2902
4744	63.7039
4728	63.0743
4712	63.5528
4696	63.2074
4680	63.0887
4664	63.5507
4648	63.3566
4632	63.5603
4616	63.4969
4600	63.4883
4584	63.1374
4568	63.4895
4552	63.6422
4536	63.1333
4520	63.6348
4504	63.3695
4488	63.4456
4472	63.241
4456	63.359
4440	63.4159
4424	62.9858
4408	62.9182
4392	63.3818
4376	62.5371
4360	64.7698
4344	63.3028
4328	62.6049
4312	63.877
4296	63.1785
4280	63.1431
4264	63.1064
4248	63.1738
4232	63.3476
4216	63.0749
4200	62.5738
4184	62.4506
4168	62.9483
4152	62.7352
4136	62.9919
4120	62.6965
4104	62.6164
4088	62.5669
4072	62.9471
4056	62.7158
4040	62.6358
4024	62.5874
4008	62.3268
3992	62.675
3976	62.5094
3960	62.3554
3944	62.3836
3928	62.6698
3912	62.0745
3896	62.2797
3880	62.5555
3864	62.2855
3848	62.1333
3832	62.2684
3816	62.1607
3800	62.1441
3784	61.9077
3768	62.0656
3752	62.0241
3736	61.8117
3720	62.0059
3704	61.9413
3688	61.7926
3672	61.6347
3656	61.6509
3640	61.6447
3624	61.7203
3608	61.6802
3592	61.6693
3576	61.4887
3560	61.3478
3544	61.4383
3528	61.2211
3512	61.198
3496	61.074
3480	61.1745
3464	61.0539
3448	60.8862
3432	60.761
3416	60.6709
3400	60.703
3384	60.6014
3368	60.6969
3352	60.3711
3336	60.5699
3320	60.4208
3304	60.306
3288	60.3112
3272	59.9705
3256	59.8965
3240	59.8909
3224	59.6675
3208	59.5737
3192	59.5367
3176	59.7131
3160	59.6115
3144	59.2184
3128	58.9794
3112	59.3728
3096	59.1895
3080	59.0348
3064	58.903
3048	58.9263
3032	58.8197
3016	58.6368
3000	58.539
2984	58.4736
2968	58.3378
2952	58.1308
2936	57.8585
2920	57.717
2904	57.8499
2888	57.7512
2872	57.6898
2856	57.4252
2840	57.5714
2824	57.3715
2808	57.3329
2792	57.0977
2776	57.0673
2760	56.8904
2744	56.8887
2728	56.7604
2712	56.5001
2696	56.5448
2680	56.3034
2664	56.3178
2648	55.8664
2632	55.9915
2616	55.8014
2600	55.6704
2584	55.5449
2568	55.4873
2552	55.4181
2536	55.0989
2520	54.9407
2504	54.7781
2488	54.5993
2472	54.5889
2456	54.3733
2440	54.3637
2424	54.1667
2408	53.9231
2392	53.7544
2376	53.8087
2360	53.5901
2344	53.3811
2328	53.2365
2312	53.0761
2296	52.9184
2280	52.8261
2264	52.6032
2248	52.5911
2232	52.451
2216	52.264
2200	52.0579
2184	51.9999
2168	51.8761
2152	51.7859
2136	51.4905
2120	51.2378
2104	51.1362
2088	51.0947
2072	50.9588
2056	50.7259
2040	50.4508
2024	50.2501
2008	50.1449
1992	50.0108
1976	49.7981
1960	49.6571
1944	49.5453
1928	49.3874
1912	49.1242
1896	48.8698
1880	48.7468
1864	48.6878
1848	48.3846
1832	48.2522
1816	48.1711
1800	47.9046
1784	47.7147
1768	47.5381
1752	47.3756
1736	47.0374
1720	46.8232
1704	46.9088
1688	46.8171
1672	46.5547
1656	46.3504
1640	46.167
1624	45.9076
1608	45.8678
1592	45.5167
1576	45.3324
1560	45.1921
1544	44.9783
1528	44.8304
1512	44.6869
1496	44.492
1480	44.3766
1464	44.0993
1448	43.9565
1432	43.8413
1416	43.6066
1400	43.487
1384	43.2554
1368	43.0414
1352	42.9362
1336	42.6999
1320	42.6117
1304	42.3155
1288	42.0925
1272	41.9209
1256	41.8221
1240	41.6614
1224	41.4136
1208	41.1509
1192	41.0877
1176	40.914
1160	40.7474
1144	40.5633
1128	40.3186
1112	40.1393
1096	40.0313
1080	39.4242
1064	39.556
1048	39.3477
1032	38.6921
1016	39.0115
1000	38.3486
984	 38.4928
968	 38.0104
952	 38.119
936	 37.6822
920	 37.4383
904	 37.3387
888	 37.1728
872	 36.836
856	 36.5098
840	 36.2905
824	 35.994
808	 35.8386
792	 35.4033
776	 34.945
760	 34.8265
744	 34.6233
728	 34.2168
712	 33.5793
696	 33.4473
680	 32.7647
664	 33.0026
648	 32.277
632	 31.5653
616	 31.3561
600	 30.4974
584	 30.2656
568	 29.8894
552	 29.0604
536	 28.4573
520	 27.5288
504	 27.7393
488	 26.5564
472	 25.5291
456	 24.755
440	 24.0987
424	 21.1738
408	 15.3283
392	 19.1413
376	 36.9054
370	 37.011