File: Bakgrunnsmateriale/MATLAB/FTIR/ftir_data/subBb/Mapping_121/C-4040-8_t83.asc
PE IR       SPECTRUM    SPECTRUM    ASCII       PEDS        1.60
  -1
C-A546~1.ASC
17/03/27
21:17:15.00
17/03/27
21:17:41.00
tln
$C-4040-8_t0083$<tbV0>[0.0,5.2,8.0,0.0,27,1,0]
27.028
64

2002,4.07
MIRTGS : RIGHTBACK : INTERNAL 2
MIR : ON : INTERNAL 2
OPTKBR

0.200000
8
8.000000
FILLER
RATIO
SPECTRUM
UNLOCKED 256

DOUBLE
64
COMBINED
1
0
0

0.002000
RATIO

1
0
TRUE
51149
0
LEFT NOT FITTED RIGHT NOT FITTED 0
NONE
NONE
15600
12
4.427000
51148
TRUE
1 0 8 72 0 0 0 0

15798

#HDR
-1
-1
#GR
µM
%T
2.38419e-05
0.0
2.000000
0.002000
12515
8
98.9237
39.404
#DATA
2.000000	 65.1747
2.084000	 64.7765
2.168000	 64.9806
2.252000	 64.591
2.336000	 64.8979
2.420000	 65.041
2.504000	 65.3037
2.588000	 65.5555
2.672000	 65.2325
2.756000	 65.3277
2.840000	 65.2092
2.924000	 65.3689
3.008000	 65.2035
3.092000	 65.3869
3.176000	 65.363
3.260000	 65.3042
3.344000	 65.1222
3.428000	 64.9007
3.512000	 65.1764
3.596000	 65.4592
3.680000	 65.5003
3.764000	 65.2251
3.848000	 65.2739
3.932000	 65.2146
4.016000	 65.5147
4.100000	 65.1908
4.184000	 65.4772
4.268000	 65.3765
4.352000	 65.4382
4.436000	 65.3542
4.520000	 65.3583
4.604000	 65.3549
4.688000	 65.3067
4.772000	 65.5423
4.856000	 65.2855
4.940000	 65.5279
5.024000	 65.4132
5.108000	 65.2652
5.192000	 65.4557
5.276000	 65.2836
5.359999	 65.4274
5.444000	 65.3518
5.528000	 65.3917
5.612000	 65.3904
5.696000	 65.3582
5.780000	 65.1917
5.864000	 65.0339
5.948000	 65.3239
6.032000	 65.4198
6.116000	 65.2621
6.200000	 65.1468
6.284000	 65.1912
6.368000	 65.0536
6.452000	 65.1124
6.536000	 65.2132
6.620000	 65.2176
6.704000	 65.0906
6.788000	 65.186
6.872000	 65.3297
6.956000	 65.3723
7.040000	 65.2477
7.124000	 65.1721
7.208000	 65.1808
7.292000	 65.2404
7.376000	 65.0494
7.460000	 65.2235
7.544000	 65.0206
7.628000	 65.0658
7.712000	 65.102
7.796000	 65.2807
7.880000	 65.0635
7.964000	 64.9415
8.048000	 64.9875
8.132000	 65.0493
8.216000	 65.0338
8.300000	 65.1739
8.384000	 65.1216
8.468000	 64.9446
8.552000	 64.945
8.635999	 65.0908
8.719999	 64.8017
8.804000	 64.8313
8.888000	 65.0503
8.972000	 64.853
9.056000	 64.8001
9.140000	 64.851
9.224000	 64.9526
9.308000	 64.7151
9.391999	 64.7163
9.475999	 64.7873
9.560000	 64.785
9.644000	 65.0954
9.728000	 64.876
9.812000	 64.6895
9.896000	 64.6358
9.980000	 64.6129
10.064	64.8695
10.148	64.7458
10.232	64.8455
10.316	64.9724
10.4	64.5174
10.484	64.8459
10.568	65.3916
10.652	65.3374
10.736	64.7708
10.82	64.7107
10.904	65.0096
10.988	64.4988
11.072	64.7849
11.156	64.6636
11.24	64.3303
11.324	64.5972
11.408	64.5497
11.492	64.323
11.576	64.4075
11.66	64.412
11.744	64.4528
11.828	64.9175
11.912	65.0374
11.996	64.699
12.08	64.66
12.164	64.6026
12.248	64.6079
12.332	64.6135
12.416	64.1511
12.5	64.0767
12.584	64.0229
12.668	64.2455
12.752	64.6202
12.836	64.5403
12.92	64.2097
13.004	64.158
13.088	64.1339
13.172	63.9942
13.256	63.8578
13.34	63.9343
13.424	64.1415
13.508	64.014
13.592	63.8803
13.676	64.027
13.76	64.1626
13.844	64.0743
13.928	63.7809
14.012	63.5805
14.096	63.4495
14.18	63.4109
14.264	63.6301
14.348	63.8913
14.432	63.7821
14.516	63.5049
14.6	63.5073
14.684	63.5365
14.768	63.4474
14.852	63.4331
14.936	63.5093
15.02	63.5991
15.104	63.5622
15.188	63.3778
15.272	63.2714
15.356	63.3241
15.44	63.3703
15.524	63.3382
15.608	63.2533
15.692	63.1315
15.776	63.0496
15.86	63.033
15.944	63.0267
16.028	63.0555
16.112	63.0663
16.196	62.9599
16.28	62.8704
16.364	62.9262
16.448	63.0605
16.532	63.2596
16.616	63.4405
16.7	63.374
16.784	63.1397
16.868	63.0649
16.952	63.1942
17.036	63.3162
17.12	63.3461
17.204	63.3258
17.288	63.2645
17.372	63.1815
17.456	63.1396
17.54	63.1396
17.624	63.0602
17.708	62.7815
17.792	62.3552
17.876	62.0077
17.96	61.8995
18.044	61.9631
18.128	62.0481
18.212	62.123
18.296	62.227
18.38	62.3208
18.464	62.3125
18.548	62.1732
18.632	61.9348
18.716	61.6588
18.8	61.4472
18.884	61.3963
18.968	61.5007
19.052	61.649
19.136	61.7495
19.22	61.7948
19.304	61.7911
19.388	61.7053
19.472	61.5428
19.556	61.398
19.64	61.3675
19.724	61.4376
19.808	61.4851
19.892	61.3936
19.976	61.1528
20.06	60.8514
20.144	60.5899
20.228	60.4172
20.312	60.353
20.396	60.4314
20.48	60.707
20.564	61.1881
20.648	61.7481
20.732	62.1552
20.816	62.2027
20.9	61.8504
20.984	61.2401
21.068	60.5919
21.152	60.0694
21.236	59.7097
21.32	59.4364
21.404	59.1327
21.488	58.7336
21.572	58.2752
21.656	57.9062
21.74	57.8152
21.824	58.1124
21.908	58.7247
21.992	59.4179
22.076	59.9238
22.16	60.0678
22.244	59.8602
22.328	59.4609
22.412	59.072
22.496	58.8402
22.58	58.7767
22.664	58.7782
22.748	58.6861
22.832	58.3899
22.916	57.8885
23	57.2876
23.084	56.7418
23.168	56.3664
23.252	56.1466
23.336	55.9573
23.42	55.716
23.504	55.4138
23.588	55.1663
23.672	55.1553
23.756	55.5139
23.84	56.2186
23.924	57.0729
24.008	57.7973
24.092	58.1615
24.176	58.1149
24.26	57.8118
24.344	57.5685
24.428	57.7165
24.512	58.5171
24.596	60.024
24.68	61.8442
24.764	63.1041
24.848	62.8623
24.932	60.4657
25.016	56.0049
25.1	50.3526
25.184	44.919
25.268	41.03
25.352	39.4314
25.436	40.2118
25.52	42.8605
25.604	46.6219
25.688	50.627
25.772	54.0988
25.856	56.4884
25.94	57.5145
26.024	57.1692
26.108	55.706
26.192	53.7935
26.276	52.4298
26.36	52.7325
26.444	55.5955
26.528	61.2933
26.612	69.0613
26.696	77.5047
26.78	85.1506
26.864	90.7167
26.948	93.3861
27.028	92.7982