File: Bakgrunnsmateriale/MATLAB/FTIR/ftir_data/subBb/Mapping_121/C-4040-8_t18_cm-1.asc
PE IR       SPECTRUM    SPECTRUM    ASCII       PEDS        1.60
  -1
C-1A65~1.ASC
17/03/27
15:54:37.00
17/03/27
15:54:37.00
tln
$C-4040-8_t0018$<tbV0>[-2.6,-10.4,8.0,0.0,27,1,0]
370
64

2002,4.07
MIRTGS : RIGHTBACK : INTERNAL 2
MIR : ON : INTERNAL 2
OPTKBR

0.200000
8
8.000000
FILLER
RATIO
SPECTRUM
UNLOCKED 256

DOUBLE
64
COMBINED
1
0
0

1.000000
RATIO

1
0
TRUE
51149
0
LEFT NOT FITTED RIGHT NOT FITTED 0
NONE
NONE
15600
12
4.427000
51148
TRUE
1 0 8 72 0 0 0 0

15798

#HDR
-1
-1
#GR
CM-1
%T
2.38419e-05
0.0
5000
-1.000000
4631
8
71.7344
28.7167
#DATA
5000	63.8184
4984	64.4498
4968	63.7727
4952	63.5487
4936	63.8657
4920	64.0245
4904	64.8555
4888	64.2652
4872	63.7079
4856	64.6321
4840	64.1844
4824	64.202
4808	63.8224
4792	64.2195
4776	63.8929
4760	64.0714
4744	64.2291
4728	63.7297
4712	63.9931
4696	63.8936
4680	63.716
4664	63.8617
4648	63.8273
4632	64.1129
4616	64.0362
4600	64.4601
4584	63.9225
4568	64.1079
4552	64.3766
4536	63.8159
4520	64.4522
4504	64.4508
4488	63.8343
4472	64.2838
4456	66.3433
4440	67.9665
4424	63.1051
4408	63.1192
4392	63.9642
4376	54.818
4360	64.4206
4344	64.6947
4328	64.4117
4312	64.1344
4296	64.637
4280	64.2457
4264	64.2511
4248	63.6684
4232	64.1168
4216	63.9616
4200	63.8654
4184	64.0445
4168	63.6047
4152	63.8352
4136	63.6479
4120	63.9057
4104	63.8859
4088	63.7356
4072	63.9477
4056	63.5452
4040	64.0484
4024	64.1009
4008	64.1499
3992	63.9088
3976	63.5551
3960	63.7042
3944	63.8657
3928	63.8265
3912	63.8835
3896	63.9112
3880	63.5207
3864	63.7929
3848	63.8937
3832	63.495
3816	63.5638
3800	63.8291
3784	63.4821
3768	63.6956
3752	63.9484
3736	63.7531
3720	63.7079
3704	63.6552
3688	63.7163
3672	63.7718
3656	63.4375
3640	63.2714
3624	63.3286
3608	63.2361
3592	63.377
3576	63.1888
3560	63.2836
3544	62.8833
3528	63.2351
3512	62.9394
3496	63.1555
3480	63.1129
3464	62.8427
3448	62.9701
3432	63.2013
3416	62.8957
3400	62.8028
3384	62.9019
3368	62.9274
3352	62.8269
3336	62.7479
3320	62.503
3304	62.563
3288	62.6706
3272	62.6421
3256	62.3535
3240	62.3349
3224	62.3408
3208	62.423
3192	62.1322
3176	62.0667
3160	62.2143
3144	62.0296
3128	62.0144
3112	62.0997
3096	62.0686
3080	61.847
3064	61.9611
3048	62.0044
3032	61.7784
3016	61.8769
3000	61.6536
2984	61.6411
2968	61.5069
2952	61.3837
2936	61.6959
2920	61.2963
2904	61.1919
2888	61.2002
2872	61.1509
2856	61.1473
2840	61.3218
2824	61.1998
2808	61.1471
2792	61.0621
2776	60.9862
2760	60.8834
2744	60.8464
2728	60.8963
2712	60.7284
2696	60.9309
2680	60.5996
2664	60.5255
2648	60.5558
2632	60.2741
2616	60.3414
2600	60.305
2584	60.2295
2568	60.1977
2552	60.1366
2536	60.097
2520	59.9905
2504	60.1017
2488	59.6405
2472	59.7669
2456	59.6736
2440	59.864
2424	59.6815
2408	59.3176
2392	59.4594
2376	59.4497
2360	59.3156
2344	59.2275
2328	59.1142
2312	58.8678
2296	58.8678
2280	58.8881
2264	58.8174
2248	58.7813
2232	58.6084
2216	58.6035
2200	58.5519
2184	58.3556
2168	58.2532
2152	58.0967
2136	58.0796
2120	58.1022
2104	57.9947
2088	58.0014
2072	57.7532
2056	57.6425
2040	57.5673
2024	57.4628
2008	57.6153
1992	57.3801
1976	57.164
1960	57.1394
1944	57.1719
1928	56.832
1912	56.9174
1896	56.7967
1880	56.6465
1864	56.6433
1848	56.5737
1832	56.3847
1816	56.4338
1800	56.3556
1784	56.3057
1768	56.2728
1752	56.0704
1736	56.057
1720	55.8227
1704	55.9911
1688	55.7353
1672	55.7772
1656	55.7354
1640	55.4689
1624	55.1628
1608	55.1252
1592	54.8967
1576	54.9943
1560	55.2373
1544	55.0285
1528	54.7166
1512	54.6099
1496	54.4311
1480	54.1495
1464	54.2182
1448	53.8978
1432	53.8604
1416	53.7866
1400	53.6611
1384	53.6436
1368	53.4838
1352	53.2378
1336	53.2504
1320	53.1562
1304	52.9765
1288	52.9029
1272	52.5766
1256	52.5939
1240	52.4312
1224	52.4508
1208	52.4165
1192	52.1593
1176	52.1137
1160	52.0516
1144	52.0032
1128	51.7991
1112	51.669
1096	51.3539
1080	51.2068
1064	51.241
1048	51.2348
1032	51.0561
1016	51.0427
1000	50.5229
984	 50.7095
968	 50.6464
952	 50.3644
936	 50.2451
920	 49.5588
904	 49.4529
888	 49.6278
872	 49.5352
856	 49.4314
840	 49.1767
824	 48.8077
808	 48.6593
792	 48.8193
776	 48.7268
760	 48.1777
744	 48.0134
728	 47.9139
712	 47.6678
696	 47.0149
680	 46.8848
664	 46.7821
648	 46.7803
632	 46.3198
616	 45.6677
600	 45.4958
584	 45.3542
568	 45.2074
552	 43.8448
536	 43.8834
520	 42.8348
504	 42.3021
488	 43.2836
472	 42.3072
456	 40.0442
440	 39.7327
424	 38.2769
408	 38.1531
392	 35.9694
376	 32.1401
370	 67.1461