File: Bakgrunnsmateriale/MATLAB/FTIR/ftir_data/subBb/Mapping_121/C-4040-8_t91_cm-1.asc
PE IR       SPECTRUM    SPECTRUM    ASCII       PEDS        1.60
  -1
C-1EE4~1.ASC
17/03/27
22:00:38.00
17/03/27
22:00:38.00
tln
$C-4040-8_t0091$<tbV0>[7.8,7.8,8.0,0.0,27,1,0]
370
64

2002,4.07
MIRTGS : RIGHTBACK : INTERNAL 2
MIR : ON : INTERNAL 2
OPTKBR

0.200000
8
8.000000
FILLER
RATIO
SPECTRUM
UNLOCKED 256

DOUBLE
64
COMBINED
1
0
0

1.000000
RATIO

1
0
TRUE
51149
0
LEFT NOT FITTED RIGHT NOT FITTED 0
NONE
NONE
15600
12
4.427000
51148
TRUE
1 0 8 72 0 0 0 0

15798

#HDR
-1
-1
#GR
CM-1
%T
2.38419e-05
0.0
5000
-1.000000
4631
8
123.647
45.4567
#DATA
5000	65.3317
4984	64.9285
4968	64.8705
4952	64.873
4936	65.0259
4920	64.7332
4904	64.9195
4888	65.3121
4872	65.4819
4856	65.3906
4840	64.9928
4824	64.8198
4808	65.4565
4792	65.3066
4776	64.7625
4760	65.0507
4744	64.6438
4728	65.0474
4712	64.7941
4696	65.1267
4680	65.2183
4664	65.0357
4648	65.2849
4632	65.4737
4616	65.4356
4600	65.0343
4584	65.3997
4568	65.0239
4552	65.3033
4536	64.7909
4520	65.5854
4504	64.8583
4488	65.0594
4472	64.8603
4456	64.7886
4440	64.7427
4424	64.5193
4408	65.4384
4392	62.5037
4376	66.3022
4360	64.802
4344	65.3583
4328	64.9765
4312	65.2181
4296	64.8404
4280	65.042
4264	65.4319
4248	65.0547
4232	65.5338
4216	64.8903
4200	64.7221
4184	65.359
4168	64.5211
4152	65.2881
4136	65.235
4120	65.3343
4104	65.0342
4088	65.0645
4072	64.8874
4056	65.224
4040	65.0031
4024	65.5153
4008	65.0405
3992	65.1995
3976	65.2172
3960	65.122
3944	65.0374
3928	64.9496
3912	65.407
3896	65.1479
3880	65.1838
3864	65.1952
3848	65.073
3832	64.9496
3816	65.3625
3800	65.0327
3784	65.2846
3768	65.4035
3752	65.2582
3736	65.2811
3720	65.2442
3704	65.1364
3688	65.2428
3672	65.1334
3656	65.2095
3640	65.3593
3624	65.1799
3608	65.2387
3592	65.2327
3576	65.363
3560	65.3797
3544	65.0468
3528	65.3146
3512	65.2167
3496	65.0953
3480	65.0302
3464	65.3258
3448	65.0889
3432	65.2565
3416	65.3446
3400	65.1278
3384	65.145
3368	65.1074
3352	65.3465
3336	65.1819
3320	65.0778
3304	65.119
3288	65.2293
3272	65.1229
3256	65.4022
3240	65.3181
3224	65.2991
3208	65.2972
3192	64.9903
3176	65.341
3160	65.4187
3144	65.3632
3128	65.4151
3112	65.293
3096	65.3832
3080	65.1182
3064	65.2003
3048	65.2906
3032	65.4426
3016	65.4323
3000	65.3108
2984	65.1737
2968	65.2358
2952	65.1593
2936	65.1664
2920	64.8422
2904	65.1453
2888	65.0906
2872	65.1633
2856	65.2211
2840	65.2287
2824	65.1594
2808	65.242
2792	65.5061
2776	65.3414
2760	65.2516
2744	65.2993
2728	65.3255
2712	65.2789
2696	65.4181
2680	65.2604
2664	65.5231
2648	65.2517
2632	65.2709
2616	65.3878
2600	65.1361
2584	65.3844
2568	65.2995
2552	65.2652
2536	65.3317
2520	65.3572
2504	65.1673
2488	65.5734
2472	65.5173
2456	65.3375
2440	65.1699
2424	65.3532
2408	65.4932
2392	65.295
2376	65.3955
2360	65.3929
2344	65.2658
2328	65.3629
2312	65.3426
2296	65.2126
2280	65.3687
2264	65.3921
2248	65.3047
2232	65.2919
2216	65.3473
2200	65.3969
2184	65.4056
2168	65.3644
2152	65.5585
2136	65.3215
2120	65.1783
2104	65.4958
2088	65.3355
2072	65.7777
2056	65.2575
2040	65.4316
2024	65.2654
2008	65.3496
1992	65.3843
1976	65.4827
1960	65.4162
1944	65.4131
1928	65.4037
1912	65.3068
1896	65.3268
1880	65.4407
1864	65.3712
1848	65.3012
1832	65.4966
1816	65.3493
1800	65.2629
1784	65.2361
1768	65.4433
1752	65.3912
1736	65.1778
1720	65.2754
1704	65.2989
1688	65.2683
1672	65.361
1656	65.2139
1640	65.356
1624	65.1754
1608	65.181
1592	65.2615
1576	65.1352
1560	65.0033
1544	65.2835
1528	65.1912
1512	65.1227
1496	65.3364
1480	65.101
1464	65.1706
1448	65.1159
1432	65.182
1416	65.1359
1400	65.2744
1384	65.3005
1368	65.2094
1352	65.2627
1336	64.9467
1320	65.2184
1304	65.1272
1288	65.1365
1272	64.9823
1256	65.0713
1240	65.0351
1224	65.1157
1208	65.1282
1192	65.0299
1176	64.9165
1160	65.0066
1144	64.8174
1128	64.8165
1112	64.9025
1096	64.5493
1080	64.5557
1064	64.8728
1048	65.3442
1032	64.57
1016	64.5196
1000	64.6912
984	 64.6513
968	 65.0723
952	 64.5598
936	 64.4211
920	 65.3431
904	 65.1289
888	 64.1744
872	 64.5386
856	 64.4883
840	 64.6269
824	 64.2152
808	 64.0518
792	 64.1718
776	 63.8885
760	 64.0765
744	 63.5218
728	 63.4416
712	 63.2566
696	 63.2743
680	 63.3614
664	 62.933
648	 63.2874
632	 62.5575
616	 62.7618
600	 62.1893
584	 62.3569
568	 62.2531
552	 62.6861
536	 61.9082
520	 60.7686
504	 61.0672
488	 61.4056
472	 60.6952
456	 59.3892
440	 58.8626
424	 59.363
408	 57.1585
392	 45.4567
376	 91.1644
370	 122.695