File: Bakgrunnsmateriale/MATLAB/FTIR/ftir_data/subBb/Mapping_121/C-4040-8_t30_cm-1.asc
PE IR       SPECTRUM    SPECTRUM    ASCII       PEDS        1.60
  -1
C-1B61~1.ASC
17/03/27
16:57:08.00
17/03/27
16:57:08.00
tln
$C-4040-8_t0030$<tbV0>[-5.2,-7.8,8.0,0.0,27,1,0]
370
64

2002,4.07
MIRTGS : RIGHTBACK : INTERNAL 2
MIR : ON : INTERNAL 2
OPTKBR

0.200000
8
8.000000
FILLER
RATIO
SPECTRUM
UNLOCKED 256

DOUBLE
64
COMBINED
1
0
0

1.000000
RATIO

1
0
TRUE
51149
0
LEFT NOT FITTED RIGHT NOT FITTED 0
NONE
NONE
15600
12
4.427000
51148
TRUE
1 0 8 72 0 0 0 0

15798

#HDR
-1
-1
#GR
CM-1
%T
2.38419e-05
0.0
5000
-1.000000
4631
8
66.6715
11.1813
#DATA
5000	63.8222
4984	64.188
4968	64.1217
4952	64.3986
4936	64.4284
4920	64.3484
4904	64.4103
4888	64.5389
4872	63.7206
4856	64.366
4840	64.0043
4824	64.1154
4808	63.8845
4792	64.113
4776	63.7759
4760	64.056
4744	63.7638
4728	64.008
4712	64.1955
4696	64.1188
4680	63.8644
4664	64.0151
4648	63.6938
4632	64.0654
4616	64.0587
4600	63.9041
4584	64.3395
4568	63.6571
4552	63.9823
4536	63.4316
4520	64.6857
4504	63.9956
4488	64.4442
4472	64.2239
4456	63.8875
4440	63.6709
4424	63.9917
4408	63.2492
4392	64.5827
4376	64.5024
4360	57.4727
4344	65.8446
4328	64.1289
4312	64.0735
4296	64.033
4280	63.9982
4264	63.92
4248	63.7799
4232	63.6901
4216	63.7876
4200	63.7762
4184	63.8811
4168	63.7867
4152	63.3752
4136	63.6948
4120	63.3878
4104	63.2424
4088	63.4181
4072	63.318
4056	63.1162
4040	63.531
4024	63.1598
4008	63.2879
3992	63.2007
3976	63.3131
3960	63.1296
3944	63.111
3928	63.3192
3912	63.1628
3896	63.3293
3880	63.3263
3864	63.0331
3848	63.2637
3832	62.943
3816	63.1741
3800	62.9983
3784	62.8752
3768	62.945
3752	62.8386
3736	63.0243
3720	62.8746
3704	62.7772
3688	62.7761
3672	62.7147
3656	62.5081
3640	62.7273
3624	62.5832
3608	62.529
3592	62.5156
3576	62.3451
3560	62.2799
3544	62.2867
3528	62.2636
3512	62.4082
3496	62.2731
3480	62.1526
3464	62.077
3448	62.1314
3432	62.0902
3416	61.8027
3400	61.657
3384	61.738
3368	61.7344
3352	61.8097
3336	61.7888
3320	61.7221
3304	61.4762
3288	61.4103
3272	61.513
3256	61.1386
3240	61.3944
3224	60.9832
3208	61.0511
3192	60.9729
3176	60.9369
3160	60.8178
3144	60.5951
3128	60.5754
3112	60.8391
3096	60.5041
3080	60.4343
3064	60.4268
3048	60.3222
3032	60.2788
3016	60.1725
3000	60.1088
2984	60.1555
2968	59.9248
2952	59.7008
2936	59.7433
2920	59.4495
2904	59.4679
2888	59.5225
2872	59.4328
2856	59.084
2840	59.4189
2824	59.2414
2808	59.2153
2792	58.9262
2776	58.961
2760	58.8505
2744	58.7691
2728	58.3661
2712	58.3857
2696	58.3513
2680	58.2235
2664	58.0805
2648	58.1206
2632	57.9087
2616	57.8018
2600	57.8407
2584	57.6283
2568	57.502
2552	57.5966
2536	57.4079
2520	57.2337
2504	56.9592
2488	56.8474
2472	56.6827
2456	56.7898
2440	56.5625
2424	56.3402
2408	56.5228
2392	56.3757
2376	56.173
2360	56.1187
2344	55.9247
2328	55.7225
2312	55.6857
2296	55.5296
2280	55.3886
2264	55.3493
2248	55.2248
2232	55.0253
2216	54.8031
2200	54.7754
2184	54.6959
2168	54.6322
2152	54.2923
2136	54.3264
2120	54.0866
2104	54.0134
2088	53.8989
2072	53.9251
2056	53.7798
2040	53.4134
2024	53.3248
2008	53.2038
1992	53.0438
1976	52.9293
1960	52.7627
1944	52.5013
1928	52.4238
1912	52.3444
1896	52.1562
1880	52.072
1864	51.8624
1848	51.6875
1832	51.731
1816	51.4016
1800	51.318
1784	51.113
1768	51.0165
1752	50.9703
1736	50.6348
1720	50.515
1704	50.3672
1688	50.3163
1672	50.1171
1656	50.0142
1640	49.8945
1624	49.608
1608	49.4738
1592	49.4021
1576	49.0108
1560	48.964
1544	48.8176
1528	48.738
1512	48.7573
1496	48.5383
1480	48.2223
1464	48.0258
1448	47.7737
1432	47.6717
1416	47.5812
1400	47.459
1384	47.2386
1368	47.0324
1352	46.9844
1336	46.9175
1320	46.6998
1304	46.3896
1288	46.4128
1272	46.2704
1256	46.0345
1240	46.0146
1224	45.7688
1208	45.5576
1192	45.4504
1176	45.2813
1160	44.9173
1144	44.885
1128	44.5816
1112	44.4336
1096	44.6153
1080	44.238
1064	43.4613
1048	43.7483
1032	43.9805
1016	43.552
1000	43.2505
984	 43.4034
968	 42.9142
952	 42.7056
936	 42.527
920	 42.3567
904	 42.1484
888	 41.8256
872	 41.7088
856	 41.366
840	 41.151
824	 40.941
808	 40.3422
792	 40.4718
776	 40.0547
760	 39.6352
744	 39.3121
728	 39.2087
712	 38.7596
696	 38.2873
680	 38.1526
664	 38.1068
648	 37.3478
632	 36.5421
616	 36.5026
600	 36.2304
584	 35.7394
568	 35.2075
552	 34.9563
536	 33.9947
520	 33.2382
504	 33.079
488	 31.2629
472	 31.1706
456	 29.9675
440	 29.415
424	 28.8108
408	 22.117
392	 49.5927
376	 32.0782
370	 11.1813