File: Bakgrunnsmateriale/MATLAB/FTIR/ftir_data/subBb/Mapping_121/C-4040-8_t68_cm-1.asc
PE IR       SPECTRUM    SPECTRUM    ASCII       PEDS        1.60
  -1
C-9C65~1.ASC
17/03/27
20:07:25.00
17/03/27
20:07:25.00
tln
$C-4040-8_t0068$<tbV0>[10.4,2.6,8.0,0.0,27,1,0]
370
64

2002,4.07
MIRTGS : RIGHTBACK : INTERNAL 2
MIR : ON : INTERNAL 2
OPTKBR

0.200000
8
8.000000
FILLER
RATIO
SPECTRUM
UNLOCKED 256

DOUBLE
64
COMBINED
1
0
0

1.000000
RATIO

1
0
TRUE
51149
0
LEFT NOT FITTED RIGHT NOT FITTED 0
NONE
NONE
15600
12
4.427000
51148
TRUE
1 0 8 72 0 0 0 0

15798

#HDR
-1
-1
#GR
CM-1
%T
2.38419e-05
0.0
5000
-1.000000
4631
8
94.3375
25.4335
#DATA
5000	65.355
4984	64.9666
4968	64.9265
4952	65.053
4936	64.4293
4920	64.662
4904	64.7692
4888	63.9538
4872	64.7993
4856	64.778
4840	64.6541
4824	64.8706
4808	64.7863
4792	64.7873
4776	65.164
4760	65.2206
4744	65.0723
4728	65.2345
4712	65.2406
4696	65.1914
4680	65.574
4664	65.5805
4648	65.6573
4632	65.5837
4616	65.2894
4600	64.6201
4584	64.6974
4568	65.1093
4552	64.7543
4536	64.6454
4520	64.8849
4504	64.5035
4488	64.6259
4472	63.9557
4456	64.0967
4440	64.2741
4424	63.9298
4408	63.1273
4392	61.4055
4376	91.2822
4360	65.1791
4344	64.3555
4328	64.721
4312	64.4098
4296	64.419
4280	64.6791
4264	64.3659
4248	64.5887
4232	64.7235
4216	64.7638
4200	64.8654
4184	65.1355
4168	65.3005
4152	64.9755
4136	65.1784
4120	65.1391
4104	65.3205
4088	65.2487
4072	65.0965
4056	65.1305
4040	65.2875
4024	65.3481
4008	65.4351
3992	65.2942
3976	65.0942
3960	65.381
3944	65.2266
3928	65.1843
3912	65.2139
3896	64.9515
3880	64.9672
3864	65.4795
3848	65.0874
3832	65.3736
3816	65.142
3800	65.1135
3784	65.112
3768	65.2141
3752	65.2699
3736	64.936
3720	65.149
3704	65.2023
3688	65.1432
3672	65.2252
3656	65.5319
3640	65.4872
3624	65.3625
3608	65.2013
3592	65.135
3576	65.5448
3560	65.2931
3544	65.0416
3528	65.2198
3512	65.1536
3496	65.2939
3480	65.2791
3464	65.289
3448	65.0085
3432	65.1113
3416	65.5341
3400	64.9121
3384	65.2716
3368	65.0966
3352	65.0298
3336	65.0654
3320	65.1959
3304	65.258
3288	65.1037
3272	65.196
3256	65.3831
3240	65.2099
3224	64.9156
3208	65.1227
3192	65.3457
3176	65.0664
3160	65.3216
3144	65.3975
3128	65.0434
3112	65.0864
3096	65.2213
3080	65.163
3064	65.1362
3048	65.2195
3032	65.1047
3016	65.1102
3000	65.1451
2984	65.0372
2968	64.9709
2952	65.0504
2936	64.9565
2920	64.8324
2904	65.1813
2888	65.0999
2872	64.9686
2856	64.9918
2840	65.1986
2824	65.182
2808	65.2764
2792	65.3033
2776	65.4323
2760	65.3902
2744	65.3721
2728	65.1299
2712	65.4324
2696	65.4719
2680	65.2161
2664	65.3699
2648	65.2905
2632	65.4214
2616	65.3029
2600	65.2629
2584	65.2181
2568	65.2003
2552	65.3629
2536	65.2277
2520	65.2667
2504	65.2753
2488	65.1844
2472	65.3359
2456	65.3347
2440	65.4758
2424	65.2205
2408	65.5017
2392	65.2725
2376	65.4513
2360	65.3083
2344	65.3274
2328	65.2352
2312	65.375
2296	65.2752
2280	65.4309
2264	65.279
2248	65.4448
2232	65.3514
2216	65.2404
2200	65.2115
2184	65.3701
2168	65.2929
2152	65.3689
2136	65.2927
2120	65.3115
2104	65.2991
2088	65.3155
2072	65.4809
2056	65.1348
2040	65.4314
2024	65.3264
2008	65.3158
1992	65.2995
1976	65.3146
1960	65.4025
1944	65.3721
1928	65.401
1912	65.2926
1896	65.3321
1880	65.3583
1864	65.3534
1848	65.1679
1832	65.3658
1816	65.4442
1800	65.2682
1784	65.3787
1768	65.3341
1752	65.2
1736	65.2082
1720	65.161
1704	65.1281
1688	65.2273
1672	65.2453
1656	65.2279
1640	65.1462
1624	65.02
1608	65.0255
1592	65.1182
1576	65.0787
1560	65.0227
1544	65.012
1528	65.1252
1512	65.0888
1496	65.1569
1480	65.0598
1464	65.0657
1448	64.796
1432	65.3192
1416	65.1497
1400	65.1377
1384	65.0666
1368	65.1022
1352	65.042
1336	65.1839
1320	65.0765
1304	64.8631
1288	64.874
1272	64.9395
1256	64.897
1240	64.8513
1224	64.7666
1208	65.0807
1192	64.7736
1176	64.5952
1160	64.6558
1144	64.6976
1128	64.6271
1112	64.6261
1096	64.6559
1080	64.4818
1064	64.7355
1048	64.493
1032	64.7163
1016	64.1556
1000	64.9345
984	 64.766
968	 64.4028
952	 64.9479
936	 64.4039
920	 64.623
904	 64.3138
888	 64.5861
872	 64.5279
856	 64.0388
840	 64.1981
824	 64.2404
808	 64.1821
792	 63.9882
776	 63.734
760	 63.9871
744	 63.3489
728	 63.619
712	 63.2638
696	 63.2221
680	 62.987
664	 62.669
648	 62.5195
632	 62.633
616	 61.9112
600	 62.0407
584	 62.1063
568	 60.7907
552	 61.0594
536	 60.8391
520	 59.8077
504	 59.9179
488	 59.9732
472	 59.4258
456	 57.7542
440	 57.6382
424	 54.4981
408	 51.0856
392	 52.7995
376	 60.0452
370	 72.8691