File: Bakgrunnsmateriale/MATLAB/FTIR/ftir_data/subBb/Mapping_121/C-4040-8_t56.asc
PE IR       SPECTRUM    SPECTRUM    ASCII       PEDS        1.60
  -1
C-B932~1.ASC
17/03/27
19:05:18.00
17/03/27
19:05:44.00
tln
$C-4040-8_t0056$<tbV0>[13.0,0.0,8.0,0.0,27,1,0]
27.028
64

2002,4.07
MIRTGS : RIGHTBACK : INTERNAL 2
MIR : ON : INTERNAL 2
OPTKBR

0.200000
8
8.000000
FILLER
RATIO
SPECTRUM
UNLOCKED 256

DOUBLE
64
COMBINED
1
0
0

0.002000
RATIO

1
0
TRUE
51149
0
LEFT NOT FITTED RIGHT NOT FITTED 0
NONE
NONE
15600
12
4.427000
51148
TRUE
1 0 8 72 0 0 0 0

15798

#HDR
-1
-1
#GR
µM
%T
2.38419e-05
0.0
2.000000
0.002000
12515
8
92.4374
22.924
#DATA
2.000000	 64.7402
2.084000	 65.2097
2.168000	 64.7925
2.252000	 65.7057
2.336000	 66.0495
2.420000	 65.0518
2.504000	 64.895
2.588000	 65.3502
2.672000	 65.1259
2.756000	 65.0049
2.840000	 65.0795
2.924000	 65.2392
3.008000	 65.1781
3.092000	 65.1641
3.176000	 65.197
3.260000	 65.1356
3.344000	 65.1556
3.428000	 64.7943
3.512000	 65.0153
3.596000	 65.0064
3.680000	 65.0919
3.764000	 65.3292
3.848000	 65.1953
3.932000	 65.2456
4.016000	 65.0885
4.100000	 65.2214
4.184000	 65.3637
4.268000	 65.2805
4.352000	 65.2904
4.436000	 65.3467
4.520000	 65.2776
4.604000	 65.2813
4.688000	 65.227
4.772000	 65.2931
4.856000	 65.0875
4.940000	 65.2548
5.024000	 65.2801
5.108000	 65.1901
5.192000	 65.2677
5.276000	 65.3771
5.359999	 65.1339
5.444000	 65.2736
5.528000	 65.3215
5.612000	 65.1533
5.696000	 65.2296
5.780000	 64.919
5.864000	 65.1322
5.948000	 65.2374
6.032000	 65.2166
6.116000	 65.1795
6.200000	 65.0339
6.284000	 64.9772
6.368000	 65.1546
6.452000	 65.1579
6.536000	 65.009
6.620000	 65.0356
6.704000	 65.2512
6.788000	 64.9706
6.872000	 64.9901
6.956000	 64.7682
7.040000	 64.9366
7.124000	 65.2365
7.208000	 65.0701
7.292000	 65.1218
7.376000	 64.9015
7.460000	 64.7907
7.544000	 65.0749
7.628000	 65.2018
7.712000	 65.009
7.796000	 65.0559
7.880000	 64.8213
7.964000	 65.0085
8.048000	 65.0847
8.132000	 64.8341
8.216000	 64.8153
8.300000	 64.8094
8.384000	 64.9056
8.468000	 64.9751
8.552000	 64.8053
8.635999	 64.8885
8.719999	 64.9157
8.804000	 64.4185
8.888000	 64.4883
8.972000	 64.4937
9.056000	 65.0712
9.140000	 64.6025
9.224000	 65.2027
9.308000	 64.8918
9.391999	 65.0999
9.475999	 64.8066
9.560000	 64.6066
9.644000	 64.5988
9.728000	 64.398
9.812000	 64.5885
9.896000	 64.7738
9.980000	 64.5903
10.064	64.466
10.148	64.5241
10.232	64.507
10.316	64.414
10.4	64.5087
10.484	64.6002
10.568	64.4957
10.652	64.3116
10.736	64.5308
10.82	64.4565
10.904	64.3773
10.988	64.3622
11.072	64.1428
11.156	63.9641
11.24	64.0625
11.324	64.2017
11.408	64.1562
11.492	64.1541
11.576	64.1796
11.66	64.2372
11.744	64.2564
11.828	64.1722
11.912	64.2886
11.996	64.099
12.08	63.8554
12.164	63.9059
12.248	63.984
12.332	64.0478
12.416	63.9608
12.5	64.0149
12.584	64.0542
12.668	63.5998
12.752	63.7146
12.836	63.9302
12.92	63.9129
13.004	63.9237
13.088	63.8925
13.172	63.5738
13.256	63.2067
13.34	63.5844
13.424	63.49
13.508	63.1073
13.592	63.0247
13.676	62.9713
13.76	62.9609
13.844	62.9432
13.928	63.0483
14.012	63.2365
14.096	63.2665
14.18	63.1936
14.264	63.008
14.348	62.84
14.432	62.8213
14.516	62.6912
14.6	62.5229
14.684	62.4465
14.768	62.5145
14.852	62.6028
14.936	62.3446
15.02	62.087
15.104	62.3684
15.188	62.8154
15.272	62.8986
15.356	62.6606
15.44	62.3357
15.524	62.1182
15.608	62.0604
15.692	61.9974
15.776	61.9593
15.86	62.1419
15.944	62.4109
16.028	62.5188
16.112	62.5174
16.196	62.5346
16.28	62.4731
16.364	62.1689
16.448	61.7216
16.532	61.4045
16.616	61.2932
16.7	61.2689
16.784	61.2672
16.868	61.2567
16.952	61.1927
17.036	61.1203
17.12	61.1116
17.204	61.1258
17.288	61.1107
17.372	61.1218
17.456	61.2064
17.54	61.3013
17.624	61.3548
17.708	61.3885
17.792	61.3914
17.876	61.2948
17.96	61.081
18.044	60.8475
18.128	60.7479
18.212	60.8467
18.296	61.0209
18.38	61.0608
18.464	60.9049
18.548	60.72
18.632	60.6775
18.716	60.7583
18.8	60.8363
18.884	60.8596
18.968	60.8566
19.052	60.8141
19.136	60.6535
19.22	60.3607
19.304	60.0846
19.388	60.0306
19.472	60.2588
19.556	60.5945
19.64	60.7681
19.724	60.6475
19.808	60.3276
19.892	60.0014
19.976	59.7872
20.06	59.6741
20.144	59.5843
20.228	59.4497
20.312	59.2515
20.396	59.0095
20.48	58.7621
20.564	58.5551
20.648	58.4259
20.732	58.3999
20.816	58.4675
20.9	58.5752
20.984	58.6584
21.068	58.675
21.152	58.6035
21.236	58.4464
21.32	58.2095
21.404	57.8857
21.488	57.4538
21.572	56.9278
21.656	56.4242
21.74	56.1562
21.824	56.3179
21.908	56.9065
21.992	57.6632
22.076	58.2199
22.16	58.3437
22.244	58.132
22.328	57.9395
22.412	58.0983
22.496	58.6593
22.58	59.3549
22.664	59.8169
22.748	59.8323
22.832	59.4648
22.916	58.9679
23	58.5782
23.084	58.3572
23.168	58.1872
23.252	57.9191
23.336	57.5191
23.42	57.1825
23.504	57.1999
23.588	57.8135
23.672	59.0515
23.756	60.6303
23.84	62.1972
23.924	63.4666
24.008	64.3318
24.092	64.8698
24.176	65.2481
24.26	65.6333
24.344	66.1353
24.428	66.7275
24.512	67.1706
24.596	67.2363
24.68	66.7834
24.764	65.7834
24.848	64.3634
24.932	62.6379
25.016	60.5557
25.1	57.8533
25.184	54.1007
25.268	49.0059
25.352	42.6649
25.436	35.7881
25.52	29.5468
25.604	25.0944
25.688	23.0797
25.772	23.29
25.856	24.8815
25.94	27.0123
26.024	29.3321
26.108	32.1908
26.192	36.4949
26.276	43.1582
26.36	52.5116
26.444	63.8334
26.528	75.4139
26.612	85.1224
26.696	91.0586
26.78	92.2826
26.864	89.1369
26.948	82.9855
27.028	75.9145