File: Bakgrunnsmateriale/MATLAB/FTIR/ftir_data/subBb/Mapping_121/C-4040-8_t23.asc
PE IR       SPECTRUM    SPECTRUM    ASCII       PEDS        1.60
  -1
C-AD26~1.ASC
17/03/27
16:24:49.00
17/03/27
16:25:15.00
tln
$C-4040-8_t0023$<tbV0>[13.0,-7.8,8.0,0.0,27,1,0]
27.028
64

2002,4.07
MIRTGS : RIGHTBACK : INTERNAL 2
MIR : ON : INTERNAL 2
OPTKBR

0.200000
8
8.000000
FILLER
RATIO
SPECTRUM
UNLOCKED 256

DOUBLE
64
COMBINED
1
0
0

0.002000
RATIO

1
0
TRUE
51149
0
LEFT NOT FITTED RIGHT NOT FITTED 0
NONE
NONE
15600
12
4.427000
51148
TRUE
1 0 8 72 0 0 0 0

15798

#HDR
-1
-1
#GR
µM
%T
2.38419e-05
0.0
2.000000
0.002000
12515
8
86.7836
39.1683
#DATA
2.000000	 64.341
2.084000	 64.7404
2.168000	 65.0187
2.252000	 63.5687
2.336000	 64.4077
2.420000	 64.8209
2.504000	 64.7761
2.588000	 64.9753
2.672000	 64.836
2.756000	 65.314
2.840000	 65.1028
2.924000	 64.8478
3.008000	 64.9883
3.092000	 65.2051
3.176000	 65.0059
3.260000	 65.1604
3.344000	 64.9047
3.428000	 64.6753
3.512000	 64.9077
3.596000	 65.108
3.680000	 65.0697
3.764000	 64.9665
3.848000	 65.0241
3.932000	 65.1856
4.016000	 65.2345
4.100000	 65.0855
4.184000	 65.123
4.268000	 65.238
4.352000	 65.2494
4.436000	 65.1715
4.520000	 65.0913
4.604000	 65.2314
4.688000	 65.2737
4.772000	 65.1458
4.856000	 65.4448
4.940000	 65.1554
5.024000	 65.1899
5.108000	 65.2485
5.192000	 65.2997
5.276000	 65.0837
5.359999	 65.152
5.444000	 65.1322
5.528000	 65.1742
5.612000	 65.1784
5.696000	 65.1748
5.780000	 64.9835
5.864000	 65.1263
5.948000	 65.0953
6.032000	 65.065
6.116000	 65.0199
6.200000	 64.9882
6.284000	 65.1078
6.368000	 64.9103
6.452000	 64.8802
6.536000	 65.0428
6.620000	 65.0307
6.704000	 65.0373
6.788000	 65.0472
6.872000	 64.965
6.956000	 64.9339
7.040000	 64.8989
7.124000	 65.0094
7.208000	 65.0671
7.292000	 64.9049
7.376000	 65.0067
7.460000	 64.8663
7.544000	 64.963
7.628000	 64.8105
7.712000	 64.8993
7.796000	 64.8666
7.880000	 64.8954
7.964000	 64.8926
8.048000	 64.9199
8.132000	 64.7994
8.216000	 64.9813
8.300000	 64.6879
8.384000	 64.7132
8.468000	 64.7472
8.552000	 64.8267
8.635999	 64.8274
8.719999	 64.8038
8.804000	 64.8156
8.888000	 64.635
8.972000	 64.6845
9.056000	 64.9032
9.140000	 64.7987
9.224000	 64.8883
9.308000	 64.3214
9.391999	 64.5938
9.475999	 64.7474
9.560000	 64.8138
9.644000	 64.3695
9.728000	 64.6392
9.812000	 65.0623
9.896000	 65.4277
9.980000	 64.4764
10.064	64.3598
10.148	65.1134
10.232	64.6552
10.316	64.541
10.4	64.2937
10.484	64.7004
10.568	64.5687
10.652	64.4409
10.736	64.6025
10.82	64.3485
10.904	64.5773
10.988	64.4329
11.072	64.4091
11.156	64.5301
11.24	64.4845
11.324	64.4661
11.408	64.5313
11.492	64.3127
11.576	64.5054
11.66	64.4371
11.744	64.373
11.828	64.4058
11.912	64.1634
11.996	64.2145
12.08	64.135
12.164	64.0583
12.248	63.9265
12.332	63.7456
12.416	63.7408
12.5	63.7981
12.584	63.8599
12.668	63.8013
12.752	63.8305
12.836	63.9631
12.92	63.9001
13.004	63.8147
13.088	63.9655
13.172	64.1261
13.256	63.8638
13.34	63.5881
13.424	63.5049
13.508	63.4528
13.592	63.3658
13.676	63.3249
13.76	63.3125
13.844	63.3608
13.928	63.4365
14.012	63.4273
14.096	63.3927
14.18	63.4057
14.264	63.428
14.348	63.2309
14.432	62.879
14.516	62.8034
14.6	62.9258
14.684	62.8331
14.768	62.6108
14.852	62.6177
14.936	62.9255
15.02	63.1852
15.104	63.1203
15.188	62.9174
15.272	62.7142
15.356	62.4734
15.44	62.3557
15.524	62.4248
15.608	62.5377
15.692	62.6689
15.776	62.8316
15.86	62.9522
15.944	62.9642
16.028	62.8452
16.112	62.5903
16.196	62.2734
16.28	62.0641
16.364	62.0138
16.448	61.9815
16.532	61.9517
16.616	62.064
16.7	62.2903
16.784	62.4477
16.868	62.4509
16.952	62.358
17.036	62.2674
17.12	62.2505
17.204	62.3055
17.288	62.3692
17.372	62.3551
17.456	62.2172
17.54	62.0199
17.624	61.8872
17.708	61.8798
17.792	61.9826
17.876	62.1484
17.96	62.2945
18.044	62.3235
18.128	62.2208
18.212	62.0748
18.296	61.9466
18.38	61.7741
18.464	61.4895
18.548	61.1576
18.632	60.9102
18.716	60.8042
18.8	60.797
18.884	60.8258
18.968	60.873
19.052	60.9654
19.136	61.1124
19.22	61.2506
19.304	61.2738
19.388	61.1516
19.472	60.9954
19.556	60.9562
19.64	61.0579
19.724	61.1779
19.808	61.1897
19.892	61.0764
19.976	60.9055
20.06	60.7255
20.144	60.525
20.228	60.2881
20.312	60.0634
20.396	59.9492
20.48	60.0208
20.564	60.2556
20.648	60.5431
20.732	60.7465
20.816	60.7766
20.9	60.6344
20.984	60.3993
21.068	60.1767
21.152	60.0203
21.236	59.9153
21.32	59.812
21.404	59.6805
21.488	59.5041
21.572	59.2592
21.656	58.9138
21.74	58.4551
21.824	57.9245
21.908	57.4139
21.992	57.0287
22.076	56.8531
22.16	56.922
22.244	57.2329
22.328	57.7385
22.412	58.3641
22.496	59.0127
22.58	59.6025
22.664	60.0954
22.748	60.5004
22.832	60.8351
22.916	61.0877
23	61.1997
23.084	61.0747
23.168	60.6504
23.252	59.9592
23.336	59.1033
23.42	58.1975
23.504	57.3291
23.588	56.5164
23.672	55.7444
23.756	55.0277
23.84	54.3532
23.924	53.7622
24.008	53.339
24.092	53.1591
24.176	53.2538
24.26	53.5927
24.344	54.0261
24.428	54.2699
24.512	53.9029
24.596	52.5388
24.68	50.0633
24.764	46.8156
24.848	43.4551
24.932	40.7658
25.016	39.337
25.1	39.3965
25.184	41.014
25.268	44.2498
25.352	49.2763
25.436	55.9918
25.52	63.8924
25.604	72.1722
25.688	79.5888
25.772	84.7824
25.856	86.7749
25.94	85.4122
26.024	81.5567
26.108	76.8634
26.192	72.7125
26.276	69.6492
26.36	66.9744
26.444	64.0144
26.528	60.6674
26.612	58.0312
26.696	56.9852
26.78	57.2733
26.864	57.2189
26.948	55.2882
27.028	52.574