File: Bakgrunnsmateriale/MATLAB/FTIR/ftir_data/subBb/Mapping_121/C-4040-8_t07.asc
PE IR       SPECTRUM    SPECTRUM    ASCII       PEDS        1.60
  -1
C-B526~1.ASC
17/03/27
15:03:15.00
17/03/27
15:03:42.00
tln
$C-4040-8_t0007$<tbV0>[-2.6,-13.0,8.0,0.0,27,1,0]
27.028
64

2002,4.07
MIRTGS : RIGHTBACK : INTERNAL 2
MIR : ON : INTERNAL 2
OPTKBR

0.200000
8
8.000000
FILLER
RATIO
SPECTRUM
UNLOCKED 256

DOUBLE
64
COMBINED
1
0
0

0.002000
RATIO

1
0
TRUE
51149
0
LEFT NOT FITTED RIGHT NOT FITTED 0
NONE
NONE
15600
12
4.427000
51148
TRUE
1 0 8 72 0 0 0 0

15798

#HDR
-1
-1
#GR
µM
%T
2.38419e-05
0.0
2.000000
0.002000
12515
8
70.5944
15.7247
#DATA
2.000000	 64.2411
2.084000	 63.9572
2.168000	 64.3195
2.252000	 67.8285
2.336000	 64.4479
2.420000	 64.0239
2.504000	 64.0329
2.588000	 63.948
2.672000	 63.9813
2.756000	 63.5435
2.840000	 63.1711
2.924000	 62.9352
3.008000	 62.9166
3.092000	 62.4486
3.176000	 62.437
3.260000	 62.2317
3.344000	 61.9758
3.428000	 61.5335
3.512000	 61.4873
3.596000	 61.334
3.680000	 61.1248
3.764000	 60.9056
3.848000	 60.7655
3.932000	 60.5492
4.016000	 60.2545
4.100000	 60.2739
4.184000	 59.9783
4.268000	 59.6062
4.352000	 59.5115
4.436000	 59.3472
4.520000	 59.1365
4.604000	 58.9896
4.688000	 58.7875
4.772000	 58.5829
4.856000	 58.2407
4.940000	 58.2111
5.024000	 58.1429
5.108000	 57.9658
5.192000	 57.9146
5.276000	 57.7639
5.359999	 57.5091
5.444000	 57.2687
5.528000	 57.2328
5.612000	 57.1025
5.696000	 57.1335
5.780000	 56.8185
5.864000	 56.8317
5.948000	 56.763
6.032000	 56.7056
6.116000	 56.4275
6.200000	 56.3123
6.284000	 56.1336
6.368000	 55.9307
6.452000	 56.0356
6.536000	 55.8124
6.620000	 55.8473
6.704000	 55.5443
6.788000	 55.4956
6.872000	 55.3797
6.956000	 54.9874
7.040000	 55.106
7.124000	 54.9946
7.208000	 54.8711
7.292000	 54.6952
7.376000	 54.5618
7.460000	 54.6225
7.544000	 54.4943
7.628000	 54.2932
7.712000	 54.1972
7.796000	 54.1537
7.880000	 53.9804
7.964000	 53.9907
8.048000	 53.8253
8.132000	 53.9311
8.216000	 53.7903
8.300000	 53.7151
8.384000	 53.7479
8.468000	 53.5516
8.552000	 53.37
8.635999	 53.5988
8.719999	 53.3293
8.804000	 53.0334
8.888000	 53.1912
8.972000	 53.1846
9.056000	 53.1974
9.140000	 53.0179
9.224000	 52.7627
9.308000	 52.8114
9.391999	 52.7511
9.475999	 52.6886
9.560000	 52.5628
9.644000	 52.5462
9.728000	 52.5693
9.812000	 52.811
9.896000	 52.5402
9.980000	 52.4759
10.064	52.3475
10.148	52.3573
10.232	52.2134
10.316	52.1165
10.4	51.9536
10.484	51.9773
10.568	51.9592
10.652	51.9127
10.736	51.9413
10.82	51.6883
10.904	51.4696
10.988	51.7372
11.072	51.4503
11.156	51.8558
11.24	51.297
11.324	50.5459
11.408	50.6519
11.492	50.9285
11.576	51.0098
11.66	51.0622
11.744	51.1889
11.828	50.9375
11.912	50.7513
11.996	50.6784
12.08	50.5618
12.164	50.1294
12.248	50.3673
12.332	50.6122
12.416	50.3444
12.5	50.1517
12.584	50.2098
12.668	50.5513
12.752	50.7048
12.836	50.7519
12.92	50.604
13.004	50.2985
13.088	50.1495
13.172	50.0631
13.256	50.0692
13.34	50.1634
13.424	50.2873
13.508	49.9674
13.592	49.5404
13.676	49.5354
13.76	49.7009
13.844	49.5522
13.928	49.3066
14.012	49.3931
14.096	49.5319
14.18	49.371
14.264	49.1422
14.348	49.1311
14.432	49.1924
14.516	49.2235
14.6	49.191
14.684	48.9967
14.768	48.7427
14.852	48.5197
14.936	48.4373
15.02	48.4572
15.104	48.3951
15.188	48.4083
15.272	48.6221
15.356	48.7615
15.44	48.6793
15.524	48.4888
15.608	48.3163
15.692	48.3282
15.776	48.4737
15.86	48.4504
15.944	48.2501
16.028	48.1027
16.112	48.0228
16.196	47.9762
16.28	48.0359
16.364	48.0793
16.448	47.8276
16.532	47.3123
16.616	46.902
16.7	46.8843
16.784	47.1972
16.868	47.5179
16.952	47.6174
17.036	47.5677
17.12	47.5084
17.204	47.4114
17.288	47.2544
17.372	47.1516
17.456	47.1431
17.54	47.0955
17.624	46.9287
17.708	46.7563
17.792	46.704
17.876	46.7436
17.96	46.7544
18.044	46.6698
18.128	46.5197
18.212	46.3636
18.296	46.2365
18.38	46.1473
18.464	46.086
18.548	46.0391
18.632	46.023
18.716	46.084
18.8	46.2173
18.884	46.2927
18.968	46.1503
19.052	45.7844
19.136	45.3663
19.22	45.0842
19.304	45.0032
19.388	45.0812
19.472	45.2424
19.556	45.3962
19.64	45.4421
19.724	45.3375
19.808	45.1541
19.892	45.0363
19.976	45.0767
20.06	45.2459
20.144	45.4439
20.228	45.5993
20.312	45.6974
20.396	45.7427
20.48	45.7312
20.564	45.6551
20.648	45.5016
20.732	45.2559
20.816	44.9272
20.9	44.5626
20.984	44.2397
21.068	44.0271
21.152	43.9495
21.236	43.9886
21.32	44.1112
21.404	44.2728
21.488	44.4094
21.572	44.4502
21.656	44.3623
21.74	44.1818
21.824	43.9928
21.908	43.8525
21.992	43.734
22.076	43.5609
22.16	43.3042
22.244	43.0527
22.328	42.9553
22.412	43.0786
22.496	43.3112
22.58	43.447
22.664	43.3481
22.748	43.0678
22.832	42.7944
22.916	42.7084
23	42.8186
23.084	42.9607
23.168	42.9181
23.252	42.6071
23.336	42.1264
23.42	41.7297
23.504	41.6582
23.588	41.9927
23.672	42.6264
23.756	43.3236
23.84	43.8562
23.924	44.1155
24.008	44.1295
24.092	44.0252
24.176	43.992
24.26	44.161
24.344	44.5829
24.428	45.2012
24.512	45.8282
24.596	46.1819
24.68	45.9548
24.764	44.9433
24.848	43.0945
24.932	40.6206
25.016	37.9759
25.1	35.6667
25.184	34.1142
25.268	33.5043
25.352	33.8071
25.436	34.8238
25.52	36.3175
25.604	38.1508
25.688	40.4072
25.772	43.3089
25.856	47.0052
25.94	51.4217
26.024	56.148
26.108	60.4661
26.192	63.6743
26.276	65.1729
26.36	64.6278
26.444	61.8583
26.528	56.874
26.612	49.8581
26.696	41.3485
26.78	32.281
26.864	24.0088
26.948	18.0434
27.028	15.7247