File: Bakgrunnsmateriale/MATLAB/FTIR/ftir_data/subBb/Mapping_121/C-4040-8_t45.asc
PE IR       SPECTRUM    SPECTRUM    ASCII       PEDS        1.60
  -1
C-B53E~1.ASC
17/03/27
18:13:55.00
17/03/27
18:14:21.00
tln
$C-4040-8_t0045$<tbV0>[13.0,-2.6,8.0,0.0,27,1,0]
27.028
64

2002,4.07
MIRTGS : RIGHTBACK : INTERNAL 2
MIR : ON : INTERNAL 2
OPTKBR

0.200000
8
8.000000
FILLER
RATIO
SPECTRUM
UNLOCKED 256

DOUBLE
64
COMBINED
1
0
0

0.002000
RATIO

1
0
TRUE
51149
0
LEFT NOT FITTED RIGHT NOT FITTED 0
NONE
NONE
15600
12
4.427000
51148
TRUE
1 0 8 72 0 0 0 0

15798

#HDR
-1
-1
#GR
µM
%T
2.38419e-05
0.0
2.000000
0.002000
12515
8
75.8802
-14.9779
#DATA
2.000000	 64.9082
2.084000	 64.6505
2.168000	 64.4477
2.252000	 64.9819
2.336000	 65.5262
2.420000	 65.0171
2.504000	 64.929
2.588000	 65.158
2.672000	 65.2544
2.756000	 65.1547
2.840000	 65.0663
2.924000	 65.1053
3.008000	 65.5314
3.092000	 65.125
3.176000	 65.3533
3.260000	 65.1487
3.344000	 65.1968
3.428000	 64.9052
3.512000	 65.0332
3.596000	 65.1287
3.680000	 65.2062
3.764000	 65.332
3.848000	 65.2735
3.932000	 65.4087
4.016000	 65.0717
4.100000	 65.3674
4.184000	 65.1532
4.268000	 65.1492
4.352000	 65.3363
4.436000	 65.3261
4.520000	 65.3529
4.604000	 65.1255
4.688000	 65.3192
4.772000	 65.3936
4.856000	 65.2128
4.940000	 65.4608
5.024000	 65.343
5.108000	 65.1694
5.192000	 65.2919
5.276000	 65.312
5.359999	 65.3049
5.444000	 65.414
5.528000	 65.3885
5.612000	 65.2922
5.696000	 65.0909
5.780000	 64.9259
5.864000	 65.1945
5.948000	 65.3079
6.032000	 65.1973
6.116000	 64.9828
6.200000	 65.1205
6.284000	 65.0307
6.368000	 65.2188
6.452000	 65.0772
6.536000	 64.9974
6.620000	 65.0468
6.704000	 65.0398
6.788000	 65.046
6.872000	 64.5379
6.956000	 64.8414
7.040000	 65.1041
7.124000	 64.8656
7.208000	 65.143
7.292000	 64.8855
7.376000	 64.9595
7.460000	 64.9193
7.544000	 64.9072
7.628000	 64.9995
7.712000	 65.0913
7.796000	 64.9852
7.880000	 64.9925
7.964000	 64.938
8.048000	 64.9546
8.132000	 64.8565
8.216000	 64.9694
8.300000	 64.9196
8.384000	 65.0478
8.468000	 64.8868
8.552000	 64.8113
8.635999	 64.8997
8.719999	 64.8118
8.804000	 64.1876
8.888000	 64.9597
8.972000	 65.1728
9.056000	 64.506
9.140000	 64.4507
9.224000	 65.0496
9.308000	 64.3061
9.391999	 65.0751
9.475999	 65.0197
9.560000	 64.8811
9.644000	 64.7914
9.728000	 65.0426
9.812000	 64.0397
9.896000	 64.7076
9.980000	 64.6605
10.064	64.8133
10.148	64.6765
10.232	64.5406
10.316	64.446
10.4	64.6872
10.484	64.7171
10.568	64.5683
10.652	64.4238
10.736	64.4614
10.82	64.5199
10.904	64.5941
10.988	64.3393
11.072	64.2889
11.156	64.1988
11.24	64.3109
11.324	64.4983
11.408	64.2481
11.492	64.3704
11.576	64.5943
11.66	64.3462
11.744	64.1834
11.828	63.8349
11.912	64.0621
11.996	64.3839
12.08	64.0992
12.164	64.0833
12.248	64.1805
12.332	64.3629
12.416	64.1652
12.5	63.8081
12.584	63.5919
12.668	63.4926
12.752	63.7024
12.836	64.0132
12.92	64.1136
13.004	63.8978
13.088	63.8073
13.172	63.758
13.256	63.7811
13.34	64.3088
13.424	63.97
13.508	63.5108
13.592	63.9157
13.676	64.117
13.76	63.6157
13.844	63.2119
13.928	63.3884
14.012	63.6173
14.096	63.4488
14.18	63.3244
14.264	63.4369
14.348	63.3629
14.432	63.1038
14.516	62.9064
14.6	62.8259
14.684	62.8225
14.768	62.8217
14.852	62.8043
14.936	62.7553
15.02	62.5934
15.104	62.4836
15.188	62.6776
15.272	62.9659
15.356	62.9375
15.44	62.5458
15.524	62.1333
15.608	61.9947
15.692	62.0892
15.776	62.2594
15.86	62.4071
15.944	62.4777
16.028	62.4876
16.112	62.5084
16.196	62.5775
16.28	62.6638
16.364	62.7388
16.448	62.8153
16.532	62.8318
16.616	62.6704
16.7	62.3768
16.784	62.1327
16.868	61.9871
16.952	61.8562
17.036	61.7686
17.12	61.786
17.204	61.7625
17.288	61.5679
17.372	61.3686
17.456	61.3804
17.54	61.5481
17.624	61.6882
17.708	61.7352
17.792	61.7036
17.876	61.6112
17.96	61.4969
18.044	61.4302
18.128	61.4633
18.212	61.5511
18.296	61.5439
18.38	61.336
18.464	61.0134
18.548	60.783
18.632	60.7366
18.716	60.7791
18.8	60.8003
18.884	60.8054
18.968	60.8212
19.052	60.7798
19.136	60.6041
19.22	60.3621
19.304	60.2318
19.388	60.3072
19.472	60.501
19.556	60.6316
19.64	60.5884
19.724	60.4065
19.808	60.2032
19.892	60.0663
19.976	60.0148
20.06	60.0375
20.144	60.1298
20.228	60.2787
20.312	60.4289
20.396	60.491
20.48	60.3974
20.564	60.1527
20.648	59.8304
20.732	59.5245
20.816	59.3045
20.9	59.1924
20.984	59.1806
21.068	59.239
21.152	59.3227
21.236	59.3867
21.32	59.4002
21.404	59.3639
21.488	59.2962
21.572	59.2104
21.656	59.1098
21.74	58.9931
21.824	58.8673
21.908	58.74
21.992	58.5928
22.076	58.3791
22.16	58.0498
22.244	57.6058
22.328	57.1399
22.412	56.8081
22.496	56.7587
22.58	57.0455
22.664	57.6042
22.748	58.2525
22.832	58.779
22.916	59.0342
23	58.9522
23.084	58.56
23.168	57.9604
23.252	57.2686
23.336	56.5862
23.42	56.0376
23.504	55.7483
23.588	55.8167
23.672	56.2626
23.756	56.9639
23.84	57.6815
23.924	58.1515
24.008	58.1969
24.092	57.8348
24.176	57.3552
24.26	57.2721
24.344	58.1653
24.428	60.298
24.512	63.3941
24.596	66.5488
24.68	68.597
24.764	68.6921
24.848	66.6209
24.932	62.7963
25.016	58.064
25.1	53.3037
25.184	49.3405
25.268	46.7483
25.352	45.8483
25.436	46.6366
25.52	48.8165
25.604	51.9601
25.688	55.5699
25.772	59.2874
25.856	62.9448
25.94	66.4324
26.024	69.4142
26.108	71.172
26.192	70.7052
26.276	66.9625
26.36	59.2353
26.444	47.5829
26.528	33.0486
26.612	17.4309
26.696	3.021464
26.78	-7.926987
26.864	-13.9339
26.948	-14.6698
27.028	-11.3379