File: Bakgrunnsmateriale/MATLAB/FTIR/ftir_data/subBb/Mapping_121/C-4040-8_t102.asc
PE IR       SPECTRUM    SPECTRUM    ASCII       PEDS        1.60
  -1
C-84C6~1.ASC
17/03/27
22:52:01.00
17/03/27
22:52:27.00
tln
$C-4040-8_t0102$<tbV0>[7.8,10.4,8.0,0.0,27,1,0]
27.028
64

2002,4.07
MIRTGS : RIGHTBACK : INTERNAL 2
MIR : ON : INTERNAL 2
OPTKBR

0.200000
8
8.000000
FILLER
RATIO
SPECTRUM
UNLOCKED 256

DOUBLE
64
COMBINED
1
0
0

0.002000
RATIO

1
0
TRUE
51149
0
LEFT NOT FITTED RIGHT NOT FITTED 0
NONE
NONE
15600
12
4.427000
51148
TRUE
1 0 8 72 0 0 0 0

15798

#HDR
-1
-1
#GR
µM
%T
2.38419e-05
0.0
2.000000
0.002000
12515
8
201.568
47.6807
#DATA
2.000000	 65.0988
2.084000	 65.2364
2.168000	 64.835
2.252000	 63.8302
2.336000	 64.3995
2.420000	 64.7506
2.504000	 65.0892
2.588000	 65.0613
2.672000	 65.1868
2.756000	 65.1646
2.840000	 65.2536
2.924000	 65.118
3.008000	 64.9665
3.092000	 65.0349
3.176000	 65.0711
3.260000	 65.2264
3.344000	 65.2163
3.428000	 64.794
3.512000	 64.8344
3.596000	 65.2883
3.680000	 65.2435
3.764000	 65.2419
3.848000	 65.0815
3.932000	 65.2892
4.016000	 65.2479
4.100000	 65.2567
4.184000	 65.2554
4.268000	 65.3665
4.352000	 65.1997
4.436000	 65.209
4.520000	 65.1676
4.604000	 65.0492
4.688000	 65.099
4.772000	 65.1628
4.856000	 65.4806
4.940000	 65.1452
5.024000	 65.1181
5.108000	 65.14
5.192000	 65.3201
5.276000	 65.2405
5.359999	 65.0866
5.444000	 65.2749
5.528000	 65.0854
5.612000	 65.1094
5.696000	 65.0772
5.780000	 64.8826
5.864000	 65.0126
5.948000	 65.0375
6.032000	 65.1182
6.116000	 65.2608
6.200000	 64.9302
6.284000	 65.0303
6.368000	 64.8667
6.452000	 65.086
6.536000	 65.0185
6.620000	 64.9833
6.704000	 65.1748
6.788000	 64.9421
6.872000	 65.0246
6.956000	 64.8062
7.040000	 65.0884
7.124000	 65.0666
7.208000	 64.9757
7.292000	 64.8445
7.376000	 65.0559
7.460000	 64.9854
7.544000	 64.9511
7.628000	 64.766
7.712000	 65.1355
7.796000	 65.0429
7.880000	 64.8939
7.964000	 64.9817
8.048000	 64.957
8.132000	 64.9521
8.216000	 65.0094
8.300000	 64.935
8.384000	 64.8643
8.468000	 64.848
8.552000	 64.9169
8.635999	 64.8228
8.719999	 64.7821
8.804000	 64.8637
8.888000	 64.8662
8.972000	 65.0007
9.056000	 65.0626
9.140000	 64.5895
9.224000	 64.3796
9.308000	 64.8444
9.391999	 64.7553
9.475999	 64.8791
9.560000	 64.8014
9.644000	 64.6998
9.728000	 64.7051
9.812000	 64.9001
9.896000	 64.1444
9.980000	 64.334
10.064	64.5504
10.148	64.7061
10.232	64.7313
10.316	64.6349
10.4	64.8436
10.484	64.6621
10.568	64.2979
10.652	64.1925
10.736	64.3654
10.82	65.0137
10.904	64.6733
10.988	64.3552
11.072	64.2959
11.156	64.2533
11.24	64.6217
11.324	64.4297
11.408	64.5571
11.492	64.1817
11.576	64.0487
11.66	64.3104
11.744	64.0881
11.828	63.9075
11.912	64.0257
11.996	64.034
12.08	63.9431
12.164	63.8965
12.248	64.1204
12.332	64.0186
12.416	63.788
12.5	63.7648
12.584	63.8528
12.668	63.8446
12.752	63.9328
12.836	64.0953
12.92	63.9967
13.004	63.8769
13.088	63.9083
13.172	63.6765
13.256	63.4264
13.34	63.8717
13.424	64.119
13.508	63.2745
13.592	63.0531
13.676	63.4686
13.76	63.4655
13.844	63.1205
13.928	62.8659
14.012	62.8602
14.096	63.1539
14.18	63.5339
14.264	63.6172
14.348	63.3068
14.432	63.1794
14.516	63.3959
14.6	63.4683
14.684	63.3268
14.768	63.1344
14.852	62.9505
14.936	62.9128
15.02	63.0113
15.104	62.9491
15.188	62.7483
15.272	62.7632
15.356	63.0236
15.44	63.2647
15.524	63.2041
15.608	62.898
15.692	62.7763
15.776	62.9046
15.86	62.9766
15.944	63.0145
16.028	63.1304
16.112	63.0527
16.196	62.6283
16.28	62.203
16.364	62.0979
16.448	62.2188
16.532	62.304
16.616	62.2846
16.7	62.3048
16.784	62.4489
16.868	62.5985
16.952	62.5994
17.036	62.4695
17.12	62.323
17.204	62.1978
17.288	62.1128
17.372	62.1323
17.456	62.2376
17.54	62.2951
17.624	62.2284
17.708	62.0958
17.792	62.012
17.876	62.1134
17.96	62.4379
18.044	62.814
18.128	62.9918
18.212	62.8907
18.296	62.6149
18.38	62.308
18.464	62.1024
18.548	62.0813
18.632	62.1636
18.716	62.1535
18.8	61.9879
18.884	61.8213
18.968	61.8147
19.052	61.9423
19.136	62.0577
19.22	62.0851
19.304	62.0672
19.388	62.0599
19.472	62.0564
19.556	62.0066
19.64	61.8788
19.724	61.6829
19.808	61.4419
19.892	61.1596
19.976	60.8509
20.06	60.5965
20.144	60.5282
20.228	60.7185
20.312	61.0809
20.396	61.3931
20.48	61.4557
20.564	61.2397
20.648	60.8772
20.732	60.5482
20.816	60.3738
20.9	60.3764
20.984	60.4831
21.068	60.5712
21.152	60.5187
21.236	60.2448
21.32	59.7271
21.404	59.0142
21.488	58.2245
21.572	57.5309
21.656	57.1212
21.74	57.107
21.824	57.442
21.908	57.9237
21.992	58.3302
22.076	58.5663
22.16	58.6955
22.244	58.8246
22.328	58.9752
22.412	59.0656
22.496	58.9983
22.58	58.7847
22.664	58.5484
22.748	58.4388
22.832	58.4951
22.916	58.6129
23	58.6043
23.084	58.3575
23.168	57.897
23.252	57.3625
23.336	56.9473
23.42	56.7945
23.504	56.9269
23.588	57.2764
23.672	57.7479
23.756	58.2277
23.84	58.5963
23.924	58.7462
24.008	58.6124
24.092	58.1942
24.176	57.5567
24.26	56.7838
24.344	55.9938
24.428	55.3528
24.512	55.0646
24.596	55.4772
24.68	56.7908
24.764	58.7368
24.848	60.8951
24.932	62.5491
25.016	62.8999
25.1	61.2823
25.184	57.7898
25.268	53.432
25.352	49.7259
25.436	47.8466
25.52	47.9445
25.604	49.2328
25.688	50.9076
25.772	52.7293
25.856	55.0477
25.94	57.6739
26.024	59.7021
26.108	59.911
26.192	59.0956
26.276	60.4214
26.36	69.0982
26.444	88.8725
26.528	119.579
26.612	155.999
26.696	189.23
26.78	201.06
26.864	200
26.948	200.194
27.028	194.538