File: Bakgrunnsmateriale/MATLAB/FTIR/ftir_data/subBb/Mapping_121/C-4040-8_t89_cm-1.asc
PE IR       SPECTRUM    SPECTRUM    ASCII       PEDS        1.60
  -1
C-9DE0~1.ASC
17/03/27
21:51:24.00
17/03/27
21:51:24.00
tln
$C-4040-8_t0089$<tbV0>[13.0,7.8,8.0,0.0,27,1,0]
370
64

2002,4.07
MIRTGS : RIGHTBACK : INTERNAL 2
MIR : ON : INTERNAL 2
OPTKBR

0.200000
8
8.000000
FILLER
RATIO
SPECTRUM
UNLOCKED 256

DOUBLE
64
COMBINED
1
0
0

1.000000
RATIO

1
0
TRUE
51149
0
LEFT NOT FITTED RIGHT NOT FITTED 0
NONE
NONE
15600
12
4.427000
51148
TRUE
1 0 8 72 0 0 0 0

15798

#HDR
-1
-1
#GR
CM-1
%T
2.38419e-05
0.0
5000
-1.000000
4631
8
173.319
24.2702
#DATA
5000	64.8829
4984	65.1941
4968	65.7302
4952	65.3676
4936	64.6605
4920	64.9222
4904	65.2645
4888	65.8897
4872	65.3024
4856	64.7674
4840	64.536
4824	64.9385
4808	65.2589
4792	64.8337
4776	65.1408
4760	65.0059
4744	65.3794
4728	64.7264
4712	64.8809
4696	65.284
4680	65.2448
4664	65.7001
4648	65.5811
4632	65.0053
4616	65.4723
4600	64.565
4584	65.069
4568	64.4835
4552	64.8456
4536	63.5022
4520	64.7492
4504	64.2706
4488	64.1883
4472	64.3858
4456	64.3068
4440	64.0534
4424	64.6184
4408	63.7461
4392	73.2851
4376	66.0935
4360	64.7019
4344	64.0233
4328	64.7357
4312	64.3442
4296	64.095
4280	64.5154
4264	64.6501
4248	64.2466
4232	64.3697
4216	64.8188
4200	64.8717
4184	64.4389
4168	64.9045
4152	65.3987
4136	65.2802
4120	65.0481
4104	65.1713
4088	64.9708
4072	64.8464
4056	65.0651
4040	65.155
4024	65.314
4008	65.1144
3992	65.0951
3976	65.1477
3960	65.2331
3944	65.0193
3928	64.9256
3912	65.0354
3896	64.9566
3880	65.0924
3864	65.2594
3848	65.1905
3832	64.9265
3816	65.2731
3800	65.03
3784	64.8809
3768	65.3982
3752	65.3338
3736	65.2042
3720	65.2733
3704	65.2951
3688	65.2562
3672	65.3037
3656	65.0202
3640	65.151
3624	65.429
3608	65.2061
3592	65.2474
3576	65.341
3560	65.6459
3544	64.9975
3528	65.28
3512	65.0489
3496	65.1203
3480	65.0946
3464	65.2998
3448	64.8828
3432	65.3313
3416	65.1091
3400	65.1764
3384	65.2134
3368	65.181
3352	65.1505
3336	65.017
3320	65.1861
3304	65.0706
3288	65.1141
3272	65.2579
3256	65.0883
3240	64.9773
3224	65.1627
3208	65.0551
3192	64.9446
3176	65.2774
3160	65.3547
3144	64.9861
3128	65.13
3112	65.2639
3096	65.2889
3080	65.2055
3064	65.1303
3048	65.2689
3032	65.1376
3016	65.119
3000	65.0518
2984	64.9107
2968	65.0574
2952	64.9572
2936	65.2429
2920	64.8791
2904	65.1979
2888	65.2223
2872	65.2166
2856	65.1069
2840	65.0218
2824	65.1241
2808	65.2264
2792	65.3781
2776	65.1574
2760	65.2242
2744	65.3431
2728	65.1429
2712	65.1612
2696	65.1025
2680	65.1082
2664	65.3185
2648	65.178
2632	65.1572
2616	65.2292
2600	65.2132
2584	65.2662
2568	65.2493
2552	65.2677
2536	65.1763
2520	65.2802
2504	65.1824
2488	65.3216
2472	65.2444
2456	65.1234
2440	65.3091
2424	65.2003
2408	65.25
2392	65.2067
2376	65.3475
2360	65.3287
2344	65.2066
2328	65.3613
2312	65.3589
2296	65.2052
2280	65.3087
2264	65.3946
2248	65.3007
2232	65.2129
2216	65.3832
2200	65.2552
2184	65.3372
2168	65.4254
2152	65.5333
2136	65.5052
2120	65.289
2104	65.3614
2088	65.4224
2072	65.9018
2056	65.1297
2040	65.2806
2024	65.2433
2008	65.4307
1992	65.47
1976	65.4651
1960	65.2991
1944	65.2565
1928	65.2629
1912	65.2028
1896	65.2447
1880	65.3773
1864	65.3336
1848	65.3343
1832	65.3254
1816	65.2943
1800	65.2437
1784	65.3085
1768	65.2804
1752	65.033
1736	64.8698
1720	65.2115
1704	65.2042
1688	65.1697
1672	65.2356
1656	65.1405
1640	65.2562
1624	65.1937
1608	65.0175
1592	65.1087
1576	64.936
1560	64.9337
1544	65.1518
1528	65.0947
1512	64.9495
1496	65.1693
1480	65.1622
1464	65.1666
1448	65.2622
1432	64.9537
1416	65.098
1400	65.1604
1384	65.1085
1368	65.0523
1352	65.1768
1336	64.9267
1320	65.0473
1304	64.9929
1288	65.0158
1272	64.9454
1256	64.9259
1240	64.9233
1224	64.9794
1208	64.8994
1192	64.9557
1176	64.896
1160	64.9537
1144	64.9339
1128	64.8414
1112	65.1875
1096	64.6885
1080	64.4437
1064	64.7599
1048	65.3015
1032	64.7969
1016	64.3884
1000	64.4887
984	 64.918
968	 64.8346
952	 64.715
936	 64.338
920	 64.6738
904	 64.3722
888	 64.6832
872	 65.0486
856	 64.574
840	 64.3708
824	 64.3131
808	 64.1917
792	 63.8866
776	 63.5424
760	 64.1482
744	 63.8885
728	 63.3287
712	 63.8292
696	 63.3923
680	 63.6187
664	 62.6854
648	 63.1761
632	 62.8542
616	 62.7689
600	 62.9246
584	 62.4425
568	 62.3687
552	 62.0198
536	 62.123
520	 60.8001
504	 60.4432
488	 61.5231
472	 59.2868
456	 58.5584
440	 58.7427
424	 57.0781
408	 58.424
392	 40.2701
376	 34.3725
370	 173.319