File: Bakgrunnsmateriale/MATLAB/FTIR/ftir_data/subBb/Mapping_121/C-4040-8_t118_cm-1.asc
PE IR       SPECTRUM    SPECTRUM    ASCII       PEDS        1.60
  -1
C-4D09~1.ASC
17/03/28
00:26:33.00
17/03/28
00:26:33.00
tln
$C-4040-8_t0118$<tbV0>[-5.2,13.0,8.0,0.0,27,1,0]
370
64

2002,4.07
MIRTGS : RIGHTBACK : INTERNAL 2
MIR : ON : INTERNAL 2
OPTKBR

0.200000
8
8.000000
FILLER
RATIO
SPECTRUM
UNLOCKED 256

DOUBLE
64
COMBINED
1
0
0

1.000000
RATIO

1
0
TRUE
51149
0
LEFT NOT FITTED RIGHT NOT FITTED 0
NONE
NONE
15600
12
4.427000
51148
TRUE
1 0 8 72 0 0 0 0

15798

#HDR
-1
-1
#GR
CM-1
%T
2.38419e-05
0.0
5000
-1.000000
4631
8
100.869
9.752011
#DATA
5000	64.909
4984	64.8893
4968	65.792
4952	64.1928
4936	64.3583
4920	64.5712
4904	64.6362
4888	64.6864
4872	63.9433
4856	65.1219
4840	64.7633
4824	64.5894
4808	64.4368
4792	65.145
4776	64.5727
4760	64.2192
4744	65.0731
4728	64.4413
4712	64.8786
4696	64.4744
4680	64.7245
4664	65.0852
4648	64.8683
4632	64.3529
4616	64.5036
4600	64.9403
4584	65.2113
4568	65.3453
4552	65.7044
4536	65.516
4520	65.8281
4504	65.2374
4488	65.4292
4472	65.1267
4456	66.0699
4440	65.4601
4424	65.8753
4408	60.5262
4392	46.8682
4376	66.8121
4360	66.635
4344	65.4899
4328	65.3113
4312	65.7079
4296	65.2094
4280	65.1245
4264	65.0827
4248	64.8447
4232	65.072
4216	65.1958
4200	65.3017
4184	65.1904
4168	64.6508
4152	64.4535
4136	64.5374
4120	64.8112
4104	64.6563
4088	64.7465
4072	64.9499
4056	64.7147
4040	64.7423
4024	64.4784
4008	64.7419
3992	64.6831
3976	65.2384
3960	64.7342
3944	64.902
3928	65.0936
3912	64.6812
3896	65.1299
3880	64.9089
3864	65.1078
3848	64.8688
3832	65.0971
3816	65.2225
3800	64.9118
3784	65.3534
3768	64.7632
3752	64.9794
3736	64.9612
3720	65.0553
3704	64.937
3688	64.8924
3672	64.9367
3656	64.6397
3640	64.985
3624	64.9074
3608	65.0096
3592	65.1988
3576	64.9529
3560	65.0633
3544	64.8854
3528	64.7006
3512	64.8515
3496	64.9057
3480	64.8114
3464	65.2661
3448	65.0473
3432	64.9183
3416	64.7243
3400	64.8618
3384	65.0219
3368	65.0207
3352	64.9634
3336	64.7803
3320	64.8983
3304	64.5632
3288	65.0842
3272	64.8185
3256	65.0565
3240	64.8332
3224	64.9492
3208	65.0134
3192	64.8791
3176	64.9808
3160	65.2024
3144	64.8692
3128	65.1345
3112	65.5532
3096	65.0141
3080	65.3061
3064	64.9714
3048	64.8958
3032	65.0689
3016	64.9846
3000	64.9339
2984	64.9942
2968	64.9459
2952	64.9057
2936	64.8736
2920	64.6716
2904	64.9159
2888	64.7516
2872	64.8781
2856	64.4646
2840	64.5529
2824	64.9307
2808	64.9996
2792	64.8775
2776	64.8879
2760	64.9223
2744	64.9229
2728	64.8995
2712	64.9888
2696	64.9031
2680	64.9085
2664	64.9488
2648	64.9459
2632	64.9429
2616	64.8461
2600	64.9062
2584	64.8459
2568	65.0203
2552	65.0298
2536	64.9718
2520	65.0071
2504	64.6166
2488	64.7607
2472	65.003
2456	65.043
2440	65.1563
2424	65.0889
2408	65.2836
2392	64.9609
2376	64.8748
2360	64.9539
2344	65.118
2328	65.0966
2312	64.9499
2296	64.9931
2280	64.7968
2264	65.0325
2248	64.9395
2232	64.9081
2216	65.0092
2200	65.1027
2184	65.109
2168	64.8929
2152	64.8525
2136	64.8513
2120	65.0716
2104	65.0421
2088	64.9573
2072	65.6703
2056	65.0807
2040	64.9341
2024	65.022
2008	64.9695
1992	64.9313
1976	65.1238
1960	64.9893
1944	64.9822
1928	64.9488
1912	65.0883
1896	64.9356
1880	65.0444
1864	64.8045
1848	64.912
1832	64.8826
1816	64.8521
1800	65.0065
1784	64.8023
1768	64.9124
1752	64.8962
1736	64.6345
1720	64.851
1704	64.8074
1688	64.8587
1672	64.9172
1656	64.7483
1640	64.859
1624	64.7791
1608	64.8603
1592	64.7794
1576	64.579
1560	64.7822
1544	64.8451
1528	64.8458
1512	64.9014
1496	64.7594
1480	64.7933
1464	64.6594
1448	64.8051
1432	64.8946
1416	64.7062
1400	64.6667
1384	64.659
1368	64.6322
1352	64.6827
1336	64.6022
1320	64.6874
1304	64.5876
1288	64.275
1272	64.4887
1256	64.4808
1240	64.5437
1224	64.7774
1208	64.5116
1192	64.4345
1176	64.3712
1160	64.538
1144	64.2816
1128	64.367
1112	64.5858
1096	64.3961
1080	64.2277
1064	64.0224
1048	64.2378
1032	64.2615
1016	63.9267
1000	64.2238
984	 64.2201
968	 64.0719
952	 64.1128
936	 63.943
920	 64.0428
904	 64.3069
888	 63.7653
872	 63.5106
856	 63.2017
840	 64.4076
824	 63.1078
808	 63.7484
792	 62.8908
776	 63.6802
760	 62.6589
744	 63.3026
728	 62.337
712	 62.3347
696	 62.7598
680	 62.1271
664	 62.6373
648	 62.2023
632	 61.9993
616	 61.7471
600	 62.0131
584	 60.6581
568	 61.1296
552	 60.6753
536	 60.7973
520	 60.7269
504	 59.1617
488	 58.0862
472	 59.3117
456	 60.0146
440	 58.0058
424	 58.8237
408	 43.27
392	 47.0119
376	 81.1301
370	 9.752011