File: Bakgrunnsmateriale/MATLAB/FTIR/ftir_data/subBb/Mapping_121/C-4040-8_t100_cm-1.asc
PE IR       SPECTRUM    SPECTRUM    ASCII       PEDS        1.60
  -1
C-458C~1.ASC
17/03/27
22:42:47.00
17/03/27
22:42:47.00
tln
$C-4040-8_t0100$<tbV0>[13.0,10.4,8.0,0.0,27,1,0]
370
64

2002,4.07
MIRTGS : RIGHTBACK : INTERNAL 2
MIR : ON : INTERNAL 2
OPTKBR

0.200000
8
8.000000
FILLER
RATIO
SPECTRUM
UNLOCKED 256

DOUBLE
64
COMBINED
1
0
0

1.000000
RATIO

1
0
TRUE
51149
0
LEFT NOT FITTED RIGHT NOT FITTED 0
NONE
NONE
15600
12
4.427000
51148
TRUE
1 0 8 72 0 0 0 0

15798

#HDR
-1
-1
#GR
CM-1
%T
2.38419e-05
0.0
5000
-1.000000
4631
8
185.515
49.7656
#DATA
5000	64.9681
4984	64.8911
4968	65.4936
4952	65.2546
4936	64.4109
4920	65.084
4904	64.8912
4888	65.6969
4872	65.0697
4856	64.8806
4840	64.4089
4824	64.5675
4808	65.3017
4792	65.3433
4776	65.6767
4760	65.5361
4744	65.0678
4728	65.391
4712	65.4835
4696	65.5117
4680	65.1739
4664	65.6439
4648	65.8465
4632	65.1089
4616	65.323
4600	64.9499
4584	65.3177
4568	65.2329
4552	65.0038
4536	64.4944
4520	64.3268
4504	64.0875
4488	64.1808
4472	64.1606
4456	63.848
4440	64.2077
4424	64.0464
4408	63.7631
4392	64.1408
4376	70.667
4360	63.8002
4344	63.5109
4328	64.3352
4312	64.3183
4296	64.2781
4280	64.334
4264	65.0409
4248	63.953
4232	64.7512
4216	65.0049
4200	64.6345
4184	64.3409
4168	65.185
4152	64.9445
4136	65.1812
4120	65.2315
4104	65.1536
4088	64.9831
4072	65.1417
4056	65.1803
4040	65.1457
4024	65.3909
4008	65.1013
3992	65.2986
3976	65.2422
3960	65.0096
3944	64.9752
3928	64.6007
3912	65.2215
3896	64.9385
3880	65.106
3864	64.8248
3848	65.0023
3832	64.8059
3816	65.262
3800	65.0528
3784	65.1527
3768	65.2308
3752	65.2103
3736	65.0247
3720	65.5204
3704	65.1848
3688	65.315
3672	65.3313
3656	65.3971
3640	65.1802
3624	65.3704
3608	65.0425
3592	65.4135
3576	65.3054
3560	65.5413
3544	65.0863
3528	65.2465
3512	65.5158
3496	64.9574
3480	64.9571
3464	65.7212
3448	65.0953
3432	65.3619
3416	65.2052
3400	65.0578
3384	64.9123
3368	64.9355
3352	65.1616
3336	65.2182
3320	65.2176
3304	65.1241
3288	65.1107
3272	65.2765
3256	65.0628
3240	65.0139
3224	65.0771
3208	65.3356
3192	64.8452
3176	65.2684
3160	65.352
3144	65.1748
3128	65.7322
3112	65.3625
3096	65.0607
3080	65.1186
3064	65.1311
3048	65.3535
3032	65.4404
3016	65.3206
3000	65.3606
2984	65.0953
2968	65.2572
2952	65.1654
2936	65.2328
2920	65.0284
2904	65.0481
2888	65.0962
2872	65.1813
2856	65.184
2840	65.1217
2824	65.3561
2808	65.2756
2792	65.3664
2776	65.3153
2760	65.2024
2744	65.233
2728	65.4037
2712	65.2531
2696	65.2468
2680	65.284
2664	65.471
2648	65.3525
2632	65.2585
2616	65.2753
2600	65.2309
2584	65.4217
2568	65.2338
2552	65.3594
2536	65.3733
2520	65.2889
2504	65.3271
2488	65.4781
2472	65.3022
2456	65.3419
2440	65.2937
2424	65.4858
2408	65.1162
2392	65.388
2376	65.2617
2360	65.3995
2344	65.2795
2328	65.4371
2312	65.3927
2296	65.3586
2280	65.4076
2264	65.3496
2248	65.322
2232	65.3347
2216	65.4179
2200	65.3344
2184	65.4428
2168	65.3541
2152	65.309
2136	65.3642
2120	65.432
2104	65.4193
2088	65.364
2072	65.6203
2056	64.9888
2040	65.364
2024	65.4458
2008	65.4457
1992	65.2491
1976	65.3234
1960	65.3751
1944	65.318
1928	65.4817
1912	65.2038
1896	65.4564
1880	65.4577
1864	65.4467
1848	65.4936
1832	65.3803
1816	65.2902
1800	65.3158
1784	65.3321
1768	65.3729
1752	65.1228
1736	65.1059
1720	65.2172
1704	65.3783
1688	65.3621
1672	65.3206
1656	65.3154
1640	65.2332
1624	65.2254
1608	65.1896
1592	65.2369
1576	65.2925
1560	65.1172
1544	65.2443
1528	65.1533
1512	65.1591
1496	65.3025
1480	65.1488
1464	65.2132
1448	65.2017
1432	64.9294
1416	65.4014
1400	65.2649
1384	65.2157
1368	65.1643
1352	65.2256
1336	64.9711
1320	65.0766
1304	65.1112
1288	65.1183
1272	65.0773
1256	65.1261
1240	65.0202
1224	65.0915
1208	65.0938
1192	65.0896
1176	65.1377
1160	65.1051
1144	64.9925
1128	64.8761
1112	65.0538
1096	64.9932
1080	64.6779
1064	64.7886
1048	65.2256
1032	64.6555
1016	64.6786
1000	64.7297
984	 65.1527
968	 64.9034
952	 64.8089
936	 64.9613
920	 65.5339
904	 64.5319
888	 64.6554
872	 64.7662
856	 64.9376
840	 64.0495
824	 64.338
808	 64.7752
792	 64.6949
776	 64.3455
760	 63.9731
744	 63.8198
728	 64.0121
712	 63.9785
696	 63.9878
680	 64.0303
664	 63.2859
648	 63.5167
632	 63.3693
616	 63.2522
600	 63.0147
584	 62.6887
568	 62.9816
552	 63.2545
536	 62.7805
520	 61.8018
504	 62.0651
488	 62.7698
472	 61.2048
456	 60.8735
440	 59.481
424	 59.0732
408	 52.1459
392	 51.8339
376	 126.66
370	 166.323