File: Bakgrunnsmateriale/MATLAB/FTIR/ftir_data/subBb/Mapping_121/C-4040-8_t50_cm-1.asc
PE IR       SPECTRUM    SPECTRUM    ASCII       PEDS        1.60
  -1
C-1C61~1.ASC
17/03/27
18:36:59.00
17/03/27
18:36:59.00
tln
$C-4040-8_t0050$<tbV0>[0.0,-2.6,8.0,0.0,27,1,0]
370
64

2002,4.07
MIRTGS : RIGHTBACK : INTERNAL 2
MIR : ON : INTERNAL 2
OPTKBR

0.200000
8
8.000000
FILLER
RATIO
SPECTRUM
UNLOCKED 256

DOUBLE
64
COMBINED
1
0
0

1.000000
RATIO

1
0
TRUE
51149
0
LEFT NOT FITTED RIGHT NOT FITTED 0
NONE
NONE
15600
12
4.427000
51148
TRUE
1 0 8 72 0 0 0 0

15798

#HDR
-1
-1
#GR
CM-1
%T
2.38419e-05
0.0
5000
-1.000000
4631
8
76.9396
24.6443
#DATA
5000	63.8391
4984	64.4315
4968	63.6801
4952	64.3757
4936	64.6834
4920	64.3069
4904	64.2363
4888	63.707
4872	63.8118
4856	63.6731
4840	63.5128
4824	63.8253
4808	63.8378
4792	64.5213
4776	64.0599
4760	63.4376
4744	63.6989
4728	63.5592
4712	63.9201
4696	63.7734
4680	63.6086
4664	63.7256
4648	63.7787
4632	63.7212
4616	63.7856
4600	63.8405
4584	63.4722
4568	63.5969
4552	63.3663
4536	63.5074
4520	63.3939
4504	63.9072
4488	63.9626
4472	63.9669
4456	63.7914
4440	63.7912
4424	63.9997
4408	64.4793
4392	64.2079
4376	64.6618
4360	50.1631
4344	71.433
4328	64.1668
4312	64.1303
4296	63.6028
4280	63.988
4264	63.6181
4248	63.4921
4232	63.664
4216	63.3741
4200	63.1388
4184	63.6752
4168	63.2972
4152	63.2924
4136	63.372
4120	62.8592
4104	63.5762
4088	63.3488
4072	63.4882
4056	63.2993
4040	63.2695
4024	62.993
4008	63.2652
3992	63.0579
3976	62.9229
3960	63.2268
3944	63.1264
3928	62.9876
3912	62.9988
3896	62.8699
3880	63.0924
3864	63.0656
3848	63.2303
3832	62.7107
3816	62.676
3800	62.8592
3784	62.7611
3768	62.8037
3752	62.79
3736	62.6532
3720	62.6217
3704	62.4775
3688	62.7111
3672	62.4457
3656	62.5654
3640	62.4235
3624	62.2847
3608	62.2964
3592	62.4472
3576	62.2998
3560	62.2049
3544	62.3366
3528	62.1072
3512	62.2126
3496	61.8541
3480	62.1643
3464	62.2272
3448	62.1227
3432	61.9757
3416	61.8534
3400	61.7601
3384	61.7697
3368	61.5533
3352	61.5992
3336	61.5786
3320	61.527
3304	61.2792
3288	61.2401
3272	61.3023
3256	61.4756
3240	60.9015
3224	61.0115
3208	61.0018
3192	60.9223
3176	60.947
3160	60.8406
3144	60.5749
3128	60.5847
3112	60.6887
3096	60.6072
3080	60.5075
3064	60.4393
3048	60.3992
3032	60.2704
3016	60.1906
3000	60.0959
2984	60.0874
2968	60.0553
2952	59.6829
2936	59.7925
2920	59.4341
2904	59.6121
2888	59.5459
2872	59.3926
2856	59.0181
2840	59.2791
2824	59.167
2808	59.1725
2792	59.0233
2776	58.9895
2760	58.9392
2744	58.7595
2728	58.751
2712	58.5692
2696	58.6187
2680	58.4753
2664	58.4511
2648	58.2445
2632	58.1714
2616	58.0418
2600	57.9964
2584	57.8984
2568	57.773
2552	57.6615
2536	57.6128
2520	57.5077
2504	57.3342
2488	57.4114
2472	57.1871
2456	57.0657
2440	56.8018
2424	56.9458
2408	56.8861
2392	56.7473
2376	56.6382
2360	56.479
2344	56.2708
2328	56.1027
2312	56.0563
2296	56.0193
2280	55.9254
2264	55.7378
2248	55.9269
2232	55.7475
2216	55.5348
2200	55.3193
2184	55.2761
2168	54.9825
2152	55.1299
2136	54.9025
2120	54.8408
2104	54.6263
2088	54.669
2072	54.2804
2056	54.4613
2040	54.2176
2024	54.1359
2008	54.0004
1992	53.9361
1976	53.8633
1960	53.5921
1944	53.6169
1928	53.4547
1912	53.373
1896	53.3206
1880	53.1108
1864	52.8793
1848	52.7343
1832	52.6628
1816	52.5087
1800	52.346
1784	52.301
1768	52.1456
1752	52.0347
1736	51.8445
1720	51.5921
1704	51.708
1688	51.5769
1672	51.5239
1656	51.3234
1640	51.1953
1624	50.9562
1608	50.8725
1592	50.7458
1576	50.7454
1560	50.5149
1544	50.5093
1528	50.2605
1512	50.175
1496	50.2273
1480	50.0365
1464	49.8578
1448	49.7618
1432	49.8084
1416	49.5875
1400	49.3042
1384	49.2159
1368	49.2777
1352	49.0309
1336	48.8464
1320	48.6757
1304	48.5565
1288	48.3559
1272	48.2593
1256	48.28
1240	48.1033
1224	47.7813
1208	47.6629
1192	48.0474
1176	47.6916
1160	48.2176
1144	47.5042
1128	47.0679
1112	47.2285
1096	46.9515
1080	46.9212
1064	46.6533
1048	46.2853
1032	46.1446
1016	46.4323
1000	45.9443
984	 45.9995
968	 45.8843
952	 45.5605
936	 45.6143
920	 45.4175
904	 45.1355
888	 44.7497
872	 44.9068
856	 44.6841
840	 44.4988
824	 44.4667
808	 44.1624
792	 43.9428
776	 43.985
760	 43.4271
744	 43.6332
728	 42.954
712	 42.6684
696	 42.5969
680	 42.0252
664	 41.5921
648	 41.5284
632	 40.8777
616	 40.8075
600	 40.143
584	 39.354
568	 39.2368
552	 38.1704
536	 37.9685
520	 37.7041
504	 37.8204
488	 36.9482
472	 36.5558
456	 35.3435
440	 35.9018
424	 36.2999
408	 38.936
392	 26.324
376	 50.0359
370	 62.9719