File: Bakgrunnsmateriale/MATLAB/FTIR/ftir_data/subBb/Mapping_121/C-4040-8_t16_cm-1.asc
PE IR       SPECTRUM    SPECTRUM    ASCII       PEDS        1.60
  -1
C-1A6E~1.ASC
17/03/27
15:45:23.00
17/03/27
15:45:23.00
tln
$C-4040-8_t0016$<tbV0>[2.6,-10.4,8.0,0.0,27,1,0]
370
64

2002,4.07
MIRTGS : RIGHTBACK : INTERNAL 2
MIR : ON : INTERNAL 2
OPTKBR

0.200000
8
8.000000
FILLER
RATIO
SPECTRUM
UNLOCKED 256

DOUBLE
64
COMBINED
1
0
0

1.000000
RATIO

1
0
TRUE
51149
0
LEFT NOT FITTED RIGHT NOT FITTED 0
NONE
NONE
15600
12
4.427000
51148
TRUE
1 0 8 72 0 0 0 0

15798

#HDR
-1
-1
#GR
CM-1
%T
2.38419e-05
0.0
5000
-1.000000
4631
8
70.3482
6.412982
#DATA
5000	63.7287
4984	63.8809
4968	63.7287
4952	63.646
4936	63.058
4920	63.2587
4904	64.7751
4888	63.7637
4872	63.8204
4856	63.8246
4840	64.2658
4824	63.7334
4808	63.7856
4792	63.5473
4776	63.557
4760	63.54
4744	63.7826
4728	63.5432
4712	62.9499
4696	63.1126
4680	63.8439
4664	63.8374
4648	63.5046
4632	63.6384
4616	63.3419
4600	63.92
4584	63.742
4568	63.6169
4552	63.4782
4536	62.9818
4520	63.8914
4504	64.0887
4488	63.5527
4472	64.1382
4456	65.1426
4440	66.844
4424	63.0294
4408	62.8646
4392	63.333
4376	62.4165
4360	66.3183
4344	63.9209
4328	63.4907
4312	63.3018
4296	63.7522
4280	63.4809
4264	63.4251
4248	63.38
4232	63.3342
4216	63.4942
4200	63.0881
4184	62.7156
4168	63.4864
4152	63.0611
4136	63.0662
4120	63.0827
4104	62.8826
4088	63.1898
4072	63.011
4056	63.0819
4040	62.9931
4024	63.1739
4008	62.8583
3992	63.1142
3976	62.8208
3960	62.8908
3944	63.0793
3928	62.8132
3912	62.8461
3896	62.8726
3880	62.9043
3864	62.9184
3848	62.9424
3832	62.7282
3816	62.8205
3800	63.0119
3784	62.4993
3768	62.8906
3752	62.9519
3736	62.9173
3720	62.6454
3704	62.6006
3688	62.5015
3672	62.7752
3656	62.5198
3640	62.2016
3624	62.3252
3608	62.2639
3592	62.3539
3576	62.1223
3560	62.2401
3544	61.9826
3528	61.878
3512	61.8332
3496	61.8678
3480	61.7915
3464	61.7717
3448	61.6148
3432	61.6188
3416	61.6207
3400	61.3974
3384	61.4185
3368	61.3597
3352	61.2545
3336	61.184
3320	61.1807
3304	61.1774
3288	61.0702
3272	61.1167
3256	60.8659
3240	60.7193
3224	60.811
3208	60.8498
3192	60.4875
3176	60.6103
3160	60.5941
3144	60.5834
3128	60.3214
3112	60.6157
3096	60.3233
3080	60.2322
3064	60.1974
3048	60.1874
3032	60.0399
3016	59.8858
3000	60.0301
2984	59.705
2968	59.5105
2952	59.4763
2936	59.4863
2920	59.2441
2904	59.2129
2888	59.3363
2872	59.1742
2856	59.1194
2840	59.0694
2824	59.0377
2808	58.9955
2792	58.7742
2776	58.7917
2760	58.5994
2744	58.6316
2728	58.441
2712	58.3365
2696	58.3205
2680	58.0661
2664	58.0859
2648	57.8193
2632	57.8936
2616	57.6392
2600	57.7359
2584	57.5397
2568	57.5028
2552	57.2792
2536	57.2296
2520	57.1845
2504	57.0204
2488	56.9898
2472	56.846
2456	56.654
2440	56.7074
2424	56.5127
2408	56.2174
2392	56.2819
2376	56.2598
2360	56.1352
2344	55.8089
2328	55.9174
2312	55.6841
2296	55.5386
2280	55.513
2264	55.4049
2248	55.3576
2232	55.0818
2216	54.943
2200	54.8241
2184	54.7606
2168	54.6718
2152	54.3964
2136	54.2985
2120	54.2532
2104	54.1158
2088	54.0818
2072	53.7814
2056	53.7389
2040	53.7443
2024	53.4916
2008	53.3379
1992	53.3507
1976	53.1098
1960	52.959
1944	52.8722
1928	52.7807
1912	52.7059
1896	52.5115
1880	52.3724
1864	52.214
1848	52.0789
1832	51.9553
1816	51.7682
1800	51.7767
1784	51.7002
1768	51.4289
1752	51.4293
1736	51.2445
1720	51.1765
1704	51.1146
1688	50.9693
1672	50.7064
1656	50.6838
1640	50.4355
1624	50.1441
1608	50.0072
1592	49.8336
1576	49.7663
1560	49.8732
1544	49.6696
1528	49.4186
1512	49.33
1496	48.9164
1480	48.8013
1464	48.8019
1448	48.317
1432	48.192
1416	48.3183
1400	48.0382
1384	47.9303
1368	47.7555
1352	47.6596
1336	47.3891
1320	47.3979
1304	47.2775
1288	47.1629
1272	46.7942
1256	46.7327
1240	46.4398
1224	46.5482
1208	46.34
1192	46.1693
1176	45.9199
1160	45.8001
1144	45.6061
1128	45.4635
1112	45.3226
1096	44.9206
1080	44.8136
1064	44.7922
1048	44.6973
1032	44.4631
1016	44.1393
1000	44.2334
984	 43.9222
968	 43.6327
952	 43.5244
936	 43.4437
920	 42.6086
904	 42.5867
888	 42.2657
872	 42.1866
856	 42.1881
840	 42.1117
824	 41.8611
808	 41.4224
792	 41.0371
776	 41.2068
760	 40.7449
744	 40.3168
728	 39.94
712	 39.4695
696	 39.4806
680	 38.9049
664	 39.1255
648	 38.5071
632	 38.1527
616	 37.6427
600	 37.3952
584	 36.8371
568	 35.903
552	 35.722
536	 35.0521
520	 34.2095
504	 33.4325
488	 32.8564
472	 33.0271
456	 31.6534
440	 31.2568
424	 31.5618
408	 29.9582
392	 23.4986
376	 7.458066
370	 22.7838