File: Bakgrunnsmateriale/MATLAB/FTIR/ftir_data/subBb/Mapping_121/C-4040-8_t47_cm-1.asc
PE IR       SPECTRUM    SPECTRUM    ASCII       PEDS        1.60
  -1
C-9BEF~1.ASC
17/03/27
18:23:09.00
17/03/27
18:23:09.00
tln
$C-4040-8_t0047$<tbV0>[7.8,-2.6,8.0,0.0,27,1,0]
370
64

2002,4.07
MIRTGS : RIGHTBACK : INTERNAL 2
MIR : ON : INTERNAL 2
OPTKBR

0.200000
8
8.000000
FILLER
RATIO
SPECTRUM
UNLOCKED 256

DOUBLE
64
COMBINED
1
0
0

1.000000
RATIO

1
0
TRUE
51149
0
LEFT NOT FITTED RIGHT NOT FITTED 0
NONE
NONE
15600
12
4.427000
51148
TRUE
1 0 8 72 0 0 0 0

15798

#HDR
-1
-1
#GR
CM-1
%T
2.38419e-05
0.0
5000
-1.000000
4631
8
92.2904
40.6772
#DATA
5000	64.7907
4984	64.4882
4968	65.218
4952	64.9904
4936	64.6588
4920	64.781
4904	65.0139
4888	64.7459
4872	63.9641
4856	64.3978
4840	64.6812
4824	64.6821
4808	64.6393
4792	64.6036
4776	64.729
4760	64.6724
4744	64.4131
4728	64.7478
4712	65.0747
4696	64.8472
4680	64.5082
4664	64.4783
4648	64.9888
4632	64.5145
4616	64.8347
4600	64.753
4584	64.4968
4568	64.8778
4552	64.0814
4536	64.7007
4520	64.9234
4504	64.7382
4488	64.6117
4472	65.0764
4456	64.9691
4440	64.7788
4424	65.5261
4408	65.1771
4392	64.7221
4376	66.6021
4360	63.574
4344	62.2986
4328	65.4565
4312	65.1459
4296	64.4403
4280	65.4598
4264	64.7475
4248	65.0709
4232	64.7419
4216	65.0764
4200	64.8174
4184	63.6404
4168	65.2129
4152	64.8198
4136	65.1233
4120	64.9452
4104	65.043
4088	64.7593
4072	64.9378
4056	64.8113
4040	65.1343
4024	64.7963
4008	65.027
3992	64.8915
3976	64.9622
3960	64.8559
3944	65.0302
3928	64.6771
3912	65.0487
3896	64.9867
3880	64.895
3864	65.1251
3848	65.0291
3832	64.8141
3816	65.0837
3800	65.0891
3784	64.9523
3768	64.9253
3752	65.1839
3736	64.9815
3720	64.9561
3704	64.9204
3688	65.0552
3672	64.9026
3656	64.9635
3640	65.1251
3624	64.9217
3608	64.8619
3592	64.7582
3576	65.0399
3560	65.0809
3544	65.1132
3528	65.1545
3512	64.9479
3496	64.9248
3480	65.0142
3464	65.2542
3448	64.8904
3432	64.8848
3416	65.1563
3400	65.1715
3384	65.0061
3368	65.141
3352	64.9715
3336	65.0249
3320	65.0903
3304	65.0259
3288	64.9121
3272	65.1875
3256	65.1758
3240	64.9234
3224	64.9612
3208	64.9996
3192	65.0593
3176	65.1983
3160	65.0017
3144	64.7215
3128	65.164
3112	65.1024
3096	65.2755
3080	65.021
3064	65.198
3048	65.0801
3032	65.217
3016	65.0504
3000	64.991
2984	65.1122
2968	65.1232
2952	65.2126
2936	64.8016
2920	64.8507
2904	65.1171
2888	65.0332
2872	65.013
2856	64.7983
2840	64.9929
2824	64.9892
2808	65.0892
2792	64.93
2776	65.0211
2760	65.0325
2744	65.164
2728	65.0785
2712	64.952
2696	65.0755
2680	65.0402
2664	65.2014
2648	65.1345
2632	65.0819
2616	65.2431
2600	65.2221
2584	65.2034
2568	65.0503
2552	65.0992
2536	65.1204
2520	65.1057
2504	65.1895
2488	64.8908
2472	65.0414
2456	64.9973
2440	65.1536
2424	65.4493
2408	65.0534
2392	65.1192
2376	64.9951
2360	65.0943
2344	65.0428
2328	65.1417
2312	65.0851
2296	65.1739
2280	65.0728
2264	65.1525
2248	65.2779
2232	65.2229
2216	65.1136
2200	64.9506
2184	65.1623
2168	65.0525
2152	65.2381
2136	65.2319
2120	65.0834
2104	65.1325
2088	65.1753
2072	64.802
2056	65.0306
2040	65.1484
2024	65.1513
2008	65.1295
1992	65.0899
1976	65.1991
1960	64.9946
1944	65.1585
1928	65.0807
1912	65.1381
1896	65.1648
1880	65.1181
1864	65.0826
1848	65.0677
1832	65.202
1816	65.0979
1800	65.1125
1784	65.123
1768	65.1583
1752	65.03
1736	64.8181
1720	65.0589
1704	64.9843
1688	64.9979
1672	65.0343
1656	64.9576
1640	64.9472
1624	64.9004
1608	64.8211
1592	64.8719
1576	65.0243
1560	64.9018
1544	65.0067
1528	64.7673
1512	64.8347
1496	64.9158
1480	64.956
1464	64.8919
1448	64.7896
1432	64.7418
1416	64.8732
1400	64.8699
1384	64.9637
1368	64.7445
1352	64.7686
1336	64.6106
1320	64.8855
1304	64.7048
1288	64.7459
1272	64.7928
1256	64.7526
1240	64.6724
1224	64.7142
1208	64.7917
1192	64.9762
1176	64.5329
1160	64.7655
1144	65.0423
1128	64.4681
1112	64.7012
1096	64.4427
1080	65.0136
1064	64.6128
1048	64.422
1032	64.2636
1016	64.4467
1000	64.5591
984	 64.2934
968	 64.2712
952	 64.4954
936	 64.4155
920	 64.4354
904	 64.322
888	 64.1743
872	 64.1431
856	 64.3797
840	 64.0778
824	 64.0883
808	 64.0256
792	 63.9297
776	 63.7064
760	 63.9431
744	 63.7567
728	 63.5404
712	 63.6874
696	 63.2044
680	 62.7612
664	 62.9761
648	 62.6363
632	 62.4863
616	 62.7133
600	 61.7471
584	 62.3314
568	 61.5827
552	 60.9517
536	 61.5474
520	 61.2467
504	 60.3581
488	 60.0517
472	 59.2504
456	 59.6791
440	 61.2578
424	 56.6045
408	 62.6774
392	 86.6776
376	 81.8385
370	 45.8357