File: Bakgrunnsmateriale/MATLAB/FTIR/ftir_data/subBb/Mapping_121/C-4040-8_t27.asc
PE IR       SPECTRUM    SPECTRUM    ASCII       PEDS        1.60
  -1
C-BD26~1.ASC
17/03/27
16:43:17.00
17/03/27
16:43:43.00
tln
$C-4040-8_t0027$<tbV0>[2.6,-7.8,8.0,0.0,27,1,0]
27.028
64

2002,4.07
MIRTGS : RIGHTBACK : INTERNAL 2
MIR : ON : INTERNAL 2
OPTKBR

0.200000
8
8.000000
FILLER
RATIO
SPECTRUM
UNLOCKED 256

DOUBLE
64
COMBINED
1
0
0

0.002000
RATIO

1
0
TRUE
51149
0
LEFT NOT FITTED RIGHT NOT FITTED 0
NONE
NONE
15600
12
4.427000
51148
TRUE
1 0 8 72 0 0 0 0

15798

#HDR
-1
-1
#GR
µM
%T
2.38419e-05
0.0
2.000000
0.002000
12515
8
64.636
15.3113
#DATA
2.000000	 63.2913
2.084000	 63.3462
2.168000	 63.4747
2.252000	 63.393
2.336000	 63.1294
2.420000	 62.9927
2.504000	 62.6418
2.588000	 62.2859
2.672000	 62.0019
2.756000	 61.7307
2.840000	 61.1506
2.924000	 60.7026
3.008000	 60.3732
3.092000	 59.8382
3.176000	 59.289
3.260000	 58.934
3.344000	 58.4583
3.428000	 57.7312
3.512000	 57.5871
3.596000	 57.1889
3.680000	 56.5757
3.764000	 56.0089
3.848000	 55.6846
3.932000	 55.261
4.016000	 54.5581
4.100000	 54.3537
4.184000	 53.7551
4.268000	 53.3653
4.352000	 52.9365
4.436000	 52.6314
4.520000	 52.2694
4.604000	 51.8876
4.688000	 51.4546
4.772000	 51.0898
4.856000	 50.76
4.940000	 50.2584
5.024000	 49.9819
5.108000	 49.6593
5.192000	 49.3538
5.276000	 48.8526
5.359999	 48.7052
5.444000	 48.3686
5.528000	 47.9354
5.612000	 47.6658
5.696000	 47.4057
5.780000	 47.0518
5.864000	 46.9229
5.948000	 46.5789
6.032000	 46.3767
6.116000	 46.1646
6.200000	 45.8074
6.284000	 45.5075
6.368000	 45.3267
6.452000	 45.1292
6.536000	 44.8583
6.620000	 44.6759
6.704000	 44.409
6.788000	 44.2608
6.872000	 44.0744
6.956000	 44.0091
7.040000	 43.5115
7.124000	 43.4261
7.208000	 43.289
7.292000	 43.0776
7.376000	 42.9632
7.460000	 42.6665
7.544000	 42.5527
7.628000	 42.2994
7.712000	 42.258
7.796000	 42.0257
7.880000	 41.9096
7.964000	 41.8186
8.048000	 41.7122
8.132000	 41.4719
8.216000	 41.3636
8.300000	 41.0834
8.384000	 41.084
8.468000	 40.884
8.552000	 40.9059
8.635999	 40.7334
8.719999	 40.5224
8.804000	 40.5713
8.888000	 40.2442
8.972000	 40.153
9.056000	 40.2803
9.140000	 39.9462
9.224000	 39.4842
9.308000	 39.3546
9.391999	 39.5458
9.475999	 39.4974
9.560000	 39.3655
9.644000	 39.0342
9.728000	 38.8406
9.812000	 39.3078
9.896000	 38.6107
9.980000	 38.273
10.064	38.4951
10.148	38.5312
10.232	38.3026
10.316	38.0495
10.4	37.9018
10.484	38.0969
10.568	38.0047
10.652	37.7567
10.736	37.5673
10.82	37.3663
10.904	37.5227
10.988	37.5911
11.072	37.3123
11.156	37.0895
11.24	37.1847
11.324	37.0467
11.408	36.9573
11.492	36.7697
11.576	36.5383
11.66	36.5059
11.744	36.504
11.828	36.3962
11.912	36.2894
11.996	36.2341
12.08	35.9366
12.164	36.0812
12.248	36.0228
12.332	35.8582
12.416	35.7911
12.5	35.5376
12.584	35.3737
12.668	35.4385
12.752	35.3352
12.836	35.1047
12.92	34.8387
13.004	34.6969
13.088	34.7827
13.172	34.8178
13.256	34.6978
13.34	34.6349
13.424	34.6301
13.508	34.535
13.592	34.3471
13.676	34.2798
13.76	34.1686
13.844	33.9731
13.928	33.8333
14.012	33.6547
14.096	33.5045
14.18	33.5412
14.264	33.6141
14.348	33.5065
14.432	33.1918
14.516	32.8741
14.6	32.7637
14.684	32.7709
14.768	32.6926
14.852	32.5468
14.936	32.6394
15.02	32.9322
15.104	32.9746
15.188	32.7193
15.272	32.4683
15.356	32.3335
15.44	32.2723
15.524	32.1866
15.608	31.9685
15.692	31.6885
15.776	31.548
15.86	31.6112
15.944	31.6938
16.028	31.6121
16.112	31.4586
16.196	31.3828
16.28	31.2967
16.364	31.0849
16.448	30.8259
16.532	30.6363
16.616	30.5323
16.7	30.4803
16.784	30.4388
16.868	30.3861
16.952	30.3462
17.036	30.3254
17.12	30.2691
17.204	30.1525
17.288	30.0305
17.372	29.9629
17.456	29.9464
17.54	29.9306
17.624	29.8721
17.708	29.7635
17.792	29.6088
17.876	29.4029
17.96	29.1874
18.044	29.062
18.128	29.0668
18.212	29.1216
18.296	29.1325
18.38	29.084
18.464	28.9791
18.548	28.7898
18.632	28.5321
18.716	28.3095
18.8	28.2071
18.884	28.1817
18.968	28.1132
19.052	27.9425
19.136	27.7228
19.22	27.5456
19.304	27.4529
19.388	27.4365
19.472	27.4839
19.556	27.5847
19.64	27.7058
19.724	27.7888
19.808	27.7774
19.892	27.644
19.976	27.4015
20.06	27.1056
20.144	26.8439
20.228	26.6909
20.312	26.6496
20.396	26.6409
20.48	26.5732
20.564	26.4183
20.648	26.2211
20.732	26.0383
20.816	25.8845
20.9	25.7405
20.984	25.6046
21.068	25.5134
21.152	25.5065
21.236	25.5811
21.32	25.6947
21.404	25.7933
21.488	25.8296
21.572	25.7685
21.656	25.5954
21.74	25.3311
21.824	25.0393
21.908	24.8007
21.992	24.6701
22.076	24.6544
22.16	24.7142
22.244	24.7997
22.328	24.8691
22.412	24.8876
22.496	24.8149
22.58	24.6288
22.664	24.3431
22.748	24.0206
22.832	23.7516
22.916	23.6055
23	23.5775
23.084	23.5904
23.168	23.5295
23.252	23.3131
23.336	22.9177
23.42	22.3765
23.504	21.7597
23.588	21.1527
23.672	20.6317
23.756	20.2426
23.84	19.9569
23.924	19.6678
24.008	19.2385
24.092	18.5722
24.176	17.6817
24.26	16.7047
24.344	15.8757
24.428	15.3972
24.512	15.331
24.596	15.5803
24.68	15.9416
24.764	16.2017
24.848	16.2685
24.932	16.1757
25.016	16.0468
25.1	16.0095
25.184	16.1801
25.268	16.6236
25.352	17.3577
25.436	18.2914
25.52	19.2467
25.604	20.0394
25.688	20.5042
25.772	20.6393
25.856	20.6576
25.94	20.8126
26.024	21.3124
26.108	22.2331
26.192	23.6638
26.276	25.6824
26.36	28.3396
26.444	31.4707
26.528	34.6775
26.612	37.3459
26.696	38.9432
26.78	39.2338
26.864	38.5822
26.948	37.6844
27.028	37.011