File: Bakgrunnsmateriale/MATLAB/FTIR/ftir_data/subBb/Mapping_121/C-4040-8_t06_cm-1.asc
PE IR       SPECTRUM    SPECTRUM    ASCII       PEDS        1.60
  -1
C-996E~1.ASC
17/03/27
14:58:38.00
17/03/27
14:58:38.00
tln
$C-4040-8_t0006$<tbV0>[0.0,-13.0,8.0,0.0,27,1,0]
370
64

2002,4.07
MIRTGS : RIGHTBACK : INTERNAL 2
MIR : ON : INTERNAL 2
OPTKBR

0.200000
8
8.000000
FILLER
RATIO
SPECTRUM
UNLOCKED 256

DOUBLE
64
COMBINED
1
0
0

1.000000
RATIO

1
0
TRUE
51149
0
LEFT NOT FITTED RIGHT NOT FITTED 0
NONE
NONE
15600
12
4.427000
51148
TRUE
1 0 8 72 0 0 0 0

15798

#HDR
-1
-1
#GR
CM-1
%T
2.38419e-05
0.0
5000
-1.000000
4631
8
70.9394
-7.819414
#DATA
5000	64.118
4984	64.4188
4968	64.0641
4952	63.1017
4936	62.8245
4920	64.2244
4904	65.0022
4888	64.1827
4872	63.7682
4856	63.9366
4840	64.4838
4824	63.6964
4808	63.7848
4792	63.8373
4776	63.7686
4760	63.5713
4744	63.8488
4728	63.5486
4712	63.6686
4696	63.6375
4680	63.4466
4664	63.6292
4648	63.7193
4632	63.9141
4616	63.9436
4600	63.9733
4584	63.9951
4568	63.6273
4552	63.2262
4536	63.469
4520	63.9173
4504	64.364
4488	63.6733
4472	64.4767
4456	65.8272
4440	67.1381
4424	62.0206
4408	60.017
4392	53.9749
4376	65.731
4360	65.1255
4344	64.6999
4328	64.0813
4312	63.7007
4296	64.1293
4280	63.5365
4264	63.9927
4248	63.6716
4232	63.3705
4216	63.7803
4200	63.2024
4184	62.9524
4168	63.1714
4152	63.3674
4136	63.4776
4120	63.6075
4104	63.3595
4088	63.5142
4072	63.4598
4056	63.4464
4040	63.4276
4024	63.6648
4008	63.5216
3992	63.4262
3976	63.2059
3960	63.4489
3944	63.6969
3928	63.3837
3912	63.295
3896	63.7207
3880	63.1141
3864	63.495
3848	63.4813
3832	63.3125
3816	63.1521
3800	63.2689
3784	63.1938
3768	63.3509
3752	63.6394
3736	63.408
3720	63.4734
3704	63.0412
3688	63.1963
3672	63.2201
3656	63.0958
3640	62.9176
3624	63.0205
3608	62.9629
3592	62.966
3576	62.878
3560	62.6274
3544	62.7327
3528	62.5724
3512	62.5291
3496	62.7177
3480	62.8198
3464	62.8176
3448	62.8592
3432	62.4966
3416	62.4694
3400	62.2324
3384	62.3788
3368	62.2695
3352	62.3108
3336	62.2476
3320	62.1151
3304	62.0951
3288	62.0808
3272	62.047
3256	61.8922
3240	62.0367
3224	62.0348
3208	62.0689
3192	61.8444
3176	61.7502
3160	61.8151
3144	61.6796
3128	61.5378
3112	61.6113
3096	61.496
3080	61.5489
3064	61.5833
3048	61.4995
3032	61.3134
3016	61.4193
3000	61.1783
2984	61.2005
2968	61.044
2952	60.9442
2936	60.7866
2920	60.8617
2904	60.6531
2888	60.858
2872	60.6319
2856	60.6767
2840	60.7677
2824	60.6294
2808	60.5943
2792	60.474
2776	60.3765
2760	60.4225
2744	60.3445
2728	60.2187
2712	60.161
2696	60.1864
2680	60.1415
2664	59.9903
2648	59.9166
2632	59.8554
2616	59.7653
2600	59.6329
2584	59.7385
2568	59.531
2552	59.6339
2536	59.4972
2520	59.3637
2504	59.3005
2488	59.3226
2472	59.2323
2456	59.0716
2440	59.2029
2424	59.0617
2408	58.7667
2392	58.7632
2376	58.8012
2360	58.6773
2344	58.4821
2328	58.5012
2312	58.3674
2296	58.3421
2280	58.2352
2264	58.2582
2248	58.1278
2232	57.9264
2216	57.8242
2200	57.7404
2184	57.5109
2168	57.5897
2152	57.7058
2136	57.3734
2120	57.3019
2104	57.2041
2088	57.3087
2072	57.1402
2056	56.9086
2040	56.9769
2024	56.673
2008	56.7495
1992	56.6401
1976	56.5041
1960	56.4698
1944	56.4631
1928	56.2923
1912	56.3012
1896	56.1342
1880	55.9345
1864	55.8323
1848	55.7883
1832	55.6375
1816	55.6249
1800	55.527
1784	55.4622
1768	55.452
1752	55.2796
1736	55.2004
1720	55.1678
1704	55.1034
1688	55.059
1672	54.8782
1656	55.0166
1640	54.5554
1624	54.3876
1608	54.2598
1592	54.2019
1576	54.232
1560	54.3429
1544	54.0909
1528	53.9063
1512	53.9115
1496	53.5845
1480	53.5649
1464	53.3912
1448	53.3795
1432	53.0218
1416	53.0195
1400	52.8737
1384	52.7385
1368	52.6522
1352	52.5156
1336	52.4034
1320	52.3813
1304	52.172
1288	52.2003
1272	51.8327
1256	51.8887
1240	51.6164
1224	51.5848
1208	51.5395
1192	51.3839
1176	51.3283
1160	51.2365
1144	51.1297
1128	50.9993
1112	50.6615
1096	50.6854
1080	50.483
1064	50.439
1048	50.3992
1032	50.1708
1016	50.1536
1000	49.9328
984	 50.0141
968	 49.5854
952	 49.4736
936	 49.2809
920	 49.0042
904	 48.9412
888	 49.2324
872	 48.8043
856	 48.7683
840	 48.252
824	 47.7249
808	 47.5322
792	 47.5588
776	 47.9747
760	 47.6322
744	 47.1717
728	 46.8927
712	 46.5295
696	 46.2883
680	 45.9379
664	 46.0256
648	 45.4832
632	 45.2508
616	 44.9939
600	 44.5016
584	 44.3117
568	 44.0454
552	 43.5334
536	 42.9814
520	 42.4796
504	 42.3205
488	 41.348
472	 41.7353
456	 40.7405
440	 38.9091
424	 38.6327
408	 36.7161
392	 30.5955
376	 -5.220746
370	 29.0739