File: Bakgrunnsmateriale/MATLAB/FTIR/ftir_data/subBb/Mapping_121/C-4040-8_t96.asc
PE IR       SPECTRUM    SPECTRUM    ASCII       PEDS        1.60
  -1
C-B942~1.ASC
17/03/27
22:23:43.00
17/03/27
22:24:09.00
tln
$C-4040-8_t0096$<tbV0>[-5.2,7.8,8.0,0.0,27,1,0]
27.028
64

2002,4.07
MIRTGS : RIGHTBACK : INTERNAL 2
MIR : ON : INTERNAL 2
OPTKBR

0.200000
8
8.000000
FILLER
RATIO
SPECTRUM
UNLOCKED 256

DOUBLE
64
COMBINED
1
0
0

0.002000
RATIO

1
0
TRUE
51149
0
LEFT NOT FITTED RIGHT NOT FITTED 0
NONE
NONE
15600
12
4.427000
51148
TRUE
1 0 8 72 0 0 0 0

15798

#HDR
-1
-1
#GR
µM
%T
2.38419e-05
0.0
2.000000
0.002000
12515
8
115.538
48.9121
#DATA
2.000000	 65.5339
2.084000	 65.0908
2.168000	 64.9491
2.252000	 64.2079
2.336000	 65.0413
2.420000	 64.8494
2.504000	 65.1777
2.588000	 65.0331
2.672000	 65.2233
2.756000	 65.2556
2.840000	 65.2467
2.924000	 64.9767
3.008000	 65.2699
3.092000	 65.1273
3.176000	 65.0935
3.260000	 65.2887
3.344000	 65.331
3.428000	 64.8546
3.512000	 64.7973
3.596000	 65.3538
3.680000	 65.3111
3.764000	 65.2052
3.848000	 65.2448
3.932000	 65.3609
4.016000	 65.3868
4.100000	 65.3454
4.184000	 65.3162
4.268000	 65.2609
4.352000	 65.2558
4.436000	 65.1998
4.520000	 65.3115
4.604000	 65.3114
4.688000	 65.5342
4.772000	 65.3003
4.856000	 65.2455
4.940000	 65.2089
5.024000	 65.3547
5.108000	 65.2644
5.192000	 65.4041
5.276000	 65.3619
5.359999	 65.2882
5.444000	 65.4649
5.528000	 65.3118
5.612000	 65.2588
5.696000	 65.2289
5.780000	 64.9553
5.864000	 65.3648
5.948000	 65.2025
6.032000	 65.2102
6.116000	 65.3499
6.200000	 65.0682
6.284000	 65.1447
6.368000	 65.0245
6.452000	 64.9918
6.536000	 65.1398
6.620000	 65.2063
6.704000	 65.0844
6.788000	 65.1291
6.872000	 65.1082
6.956000	 65.364
7.040000	 65.0322
7.124000	 65.2475
7.208000	 65.07
7.292000	 64.8864
7.376000	 65.1055
7.460000	 64.9957
7.544000	 65.0407
7.628000	 64.8766
7.712000	 65.065
7.796000	 65.0948
7.880000	 64.8403
7.964000	 65.0206
8.048000	 64.9463
8.132000	 64.9443
8.216000	 65.0715
8.300000	 65.0739
8.384000	 64.9662
8.468000	 64.9067
8.552000	 64.8163
8.635999	 64.7581
8.719999	 64.7415
8.804000	 64.8469
8.888000	 64.7565
8.972000	 64.7359
9.056000	 64.7489
9.140000	 64.2532
9.224000	 64.6594
9.308000	 64.6621
9.391999	 64.7977
9.475999	 64.7324
9.560000	 64.964
9.644000	 64.8121
9.728000	 64.9159
9.812000	 64.6226
9.896000	 64.3531
9.980000	 64.493
10.064	64.6874
10.148	64.7315
10.232	64.746
10.316	64.4916
10.4	64.4181
10.484	64.4771
10.568	64.5674
10.652	64.17
10.736	63.9706
10.82	64.9934
10.904	64.6618
10.988	64.5665
11.072	64.3966
11.156	64.3054
11.24	64.7513
11.324	64.7844
11.408	64.6066
11.492	64.7149
11.576	64.5739
11.66	64.6023
11.744	64.6044
11.828	64.3343
11.912	63.9989
11.996	64.1043
12.08	64.0885
12.164	63.8329
12.248	63.9959
12.332	64.0342
12.416	63.988
12.5	63.9444
12.584	64.119
12.668	64.1521
12.752	63.9946
12.836	64.0534
12.92	64.0039
13.004	63.9178
13.088	63.9135
13.172	63.9051
13.256	64.1062
13.34	64.2908
13.424	64.392
13.508	63.8641
13.592	63.4207
13.676	63.5948
13.76	63.5775
13.844	63.4279
13.928	63.3355
14.012	63.1641
14.096	63.1391
14.18	63.1746
14.264	63.0468
14.348	62.9051
14.432	62.9968
14.516	63.2064
14.6	63.365
14.684	63.499
14.768	63.5023
14.852	63.2829
14.936	62.964
15.02	62.7974
15.104	62.8357
15.188	62.8406
15.272	62.8079
15.356	62.9151
15.44	63.0414
15.524	63.0038
15.608	62.8635
15.692	62.7751
15.776	62.8114
15.86	62.9093
15.944	62.9892
16.028	63.0596
16.112	63.0309
16.196	62.7609
16.28	62.4199
16.364	62.3446
16.448	62.5367
16.532	62.7017
16.616	62.7056
16.7	62.6697
16.784	62.681
16.868	62.6565
16.952	62.4998
17.036	62.2852
17.12	62.2013
17.204	62.3178
17.288	62.517
17.372	62.6471
17.456	62.6534
17.54	62.5767
17.624	62.4516
17.708	62.2758
17.792	62.0861
17.876	61.9869
17.96	62.0436
18.044	62.1901
18.128	62.2727
18.212	62.1693
18.296	61.8778
18.38	61.5463
18.464	61.3721
18.548	61.4258
18.632	61.5875
18.716	61.6848
18.8	61.6467
18.884	61.5088
18.968	61.309
19.052	61.0644
19.136	60.8346
19.22	60.729
19.304	60.8158
19.388	61.0612
19.472	61.3872
19.556	61.7354
19.64	62.0423
19.724	62.1843
19.808	62.0396
19.892	61.6363
19.976	61.1983
20.06	60.9869
20.144	61.0827
20.228	61.3339
20.312	61.5051
20.396	61.4635
20.48	61.2443
20.564	60.9659
20.648	60.7175
20.732	60.5272
20.816	60.4036
20.9	60.3575
20.984	60.3739
21.068	60.382
21.152	60.2961
21.236	60.0841
21.32	59.792
21.404	59.5012
21.488	59.2542
21.572	59.0379
21.656	58.8252
21.74	58.627
21.824	58.5009
21.908	58.5092
21.992	58.6513
22.076	58.8417
22.16	58.962
22.244	58.941
22.328	58.7865
22.412	58.5585
22.496	58.3107
22.58	58.0852
22.664	57.9224
22.748	57.854
22.832	57.8858
22.916	57.9863
23	58.135
23.084	58.3494
23.168	58.6799
23.252	59.1707
23.336	59.8247
23.42	60.5301
23.504	61.1193
23.588	61.4206
23.672	61.3122
23.756	60.7475
23.84	59.7413
23.924	58.4016
24.008	56.8838
24.092	55.3409
24.176	53.9126
24.26	52.6785
24.344	51.6645
24.428	50.8425
24.512	50.095
24.596	49.3864
24.68	48.9305
24.764	49.1843
24.848	50.6664
24.932	53.5766
25.016	57.4833
25.1	61.3383
25.184	64.0202
25.268	64.9933
25.352	64.5594
25.436	63.631
25.52	63.1674
25.604	63.6578
25.688	65.1854
25.772	67.5756
25.856	70.64
25.94	73.9583
26.024	77.0094
26.108	79.3805
26.192	81.4431
26.276	84.1714
26.36	88.9163
26.444	96.0434
26.528	104.47
26.612	111.78
26.696	115.404
26.78	113.84
26.864	107.548
26.948	98.5828
27.028	89.869