File: Bakgrunnsmateriale/MATLAB/FTIR/ftir_data/subBb/Mapping_121/C-4040-8_t55.asc
PE IR       SPECTRUM    SPECTRUM    ASCII       PEDS        1.60
  -1
C-B93E~1.ASC
17/03/27
19:00:04.00
17/03/27
19:00:30.00
tln
$C-4040-8_t0055$<tbV0>[-13.0,-2.6,8.0,0.0,27,1,0]
27.028
64

2002,4.07
MIRTGS : RIGHTBACK : INTERNAL 2
MIR : ON : INTERNAL 2
OPTKBR

0.200000
8
8.000000
FILLER
RATIO
SPECTRUM
UNLOCKED 256

DOUBLE
64
COMBINED
1
0
0

0.002000
RATIO

1
0
TRUE
51149
0
LEFT NOT FITTED RIGHT NOT FITTED 0
NONE
NONE
15600
12
4.427000
51148
TRUE
1 0 8 72 0 0 0 0

15798

#HDR
-1
-1
#GR
µM
%T
2.38419e-05
0.0
2.000000
0.002000
12515
8
78.5889
41.6477
#DATA
2.000000	 64.7503
2.084000	 65.0577
2.168000	 64.4425
2.252000	 65.0415
2.336000	 65.5237
2.420000	 64.7501
2.504000	 65.0953
2.588000	 65.3634
2.672000	 65.3475
2.756000	 65.0913
2.840000	 65.0562
2.924000	 65.187
3.008000	 65.3792
3.092000	 65.1619
3.176000	 65.2211
3.260000	 65.2141
3.344000	 65.164
3.428000	 64.8507
3.512000	 64.9023
3.596000	 65.1053
3.680000	 65.204
3.764000	 65.2596
3.848000	 65.3077
3.932000	 65.3536
4.016000	 65.0911
4.100000	 65.3529
4.184000	 65.3678
4.268000	 65.2341
4.352000	 65.281
4.436000	 65.4301
4.520000	 65.2742
4.604000	 65.391
4.688000	 65.2601
4.772000	 65.4086
4.856000	 65.3135
4.940000	 65.3846
5.024000	 65.2984
5.108000	 65.3491
5.192000	 65.2868
5.276000	 65.4465
5.359999	 65.3239
5.444000	 65.3253
5.528000	 65.2801
5.612000	 65.2866
5.696000	 65.2054
5.780000	 65.0099
5.864000	 65.3444
5.948000	 65.3727
6.032000	 65.2125
6.116000	 65.2412
6.200000	 65.1941
6.284000	 65.1318
6.368000	 65.2972
6.452000	 65.1953
6.536000	 65.1625
6.620000	 65.184
6.704000	 65.1662
6.788000	 65.1097
6.872000	 64.883
6.956000	 65.3187
7.040000	 65.1919
7.124000	 65.1692
7.208000	 65.2918
7.292000	 65.1848
7.376000	 65.1369
7.460000	 65.022
7.544000	 65.047
7.628000	 65.2332
7.712000	 65.034
7.796000	 65.1325
7.880000	 65.0619
7.964000	 65.0635
8.048000	 65.1698
8.132000	 64.89
8.216000	 64.8585
8.300000	 64.9631
8.384000	 65.1415
8.468000	 65.0764
8.552000	 64.7323
8.635999	 65.1264
8.719999	 65.6261
8.804000	 64.9414
8.888000	 65.1084
8.972000	 65.0414
9.056000	 65.0867
9.140000	 64.3887
9.224000	 65.3837
9.308000	 65.1564
9.391999	 65.0526
9.475999	 65.1958
9.560000	 64.9819
9.644000	 65.0393
9.728000	 64.9561
9.812000	 64.7894
9.896000	 65.1331
9.980000	 64.9314
10.064	65.0081
10.148	64.9598
10.232	65.0638
10.316	64.5973
10.4	64.8005
10.484	64.8463
10.568	64.8497
10.652	64.8626
10.736	64.8396
10.82	65.0399
10.904	64.9685
10.988	64.7903
11.072	64.8829
11.156	64.5736
11.24	64.6574
11.324	64.7003
11.408	64.6111
11.492	64.758
11.576	64.7616
11.66	64.5816
11.744	64.71
11.828	64.8046
11.912	64.6678
11.996	64.6246
12.08	64.5953
12.164	64.7673
12.248	64.5372
12.332	64.4819
12.416	64.4668
12.5	64.5345
12.584	64.5407
12.668	64.3352
12.752	64.2895
12.836	64.3535
12.92	64.5968
13.004	64.636
13.088	64.5763
13.172	64.4017
13.256	64.1013
13.34	64.3812
13.424	64.372
13.508	64.0925
13.592	64.1834
13.676	64.1323
13.76	63.8956
13.844	63.9318
13.928	64.3215
14.012	64.4294
14.096	64.1706
14.18	64.1244
14.264	64.2913
14.348	64.3069
14.432	64.0975
14.516	63.7605
14.6	63.4501
14.684	63.4338
14.768	63.5858
14.852	63.5464
14.936	63.3893
15.02	63.3183
15.104	63.3838
15.188	63.6017
15.272	63.8029
15.356	63.7693
15.44	63.4832
15.524	63.1437
15.608	62.9847
15.692	62.9435
15.776	62.8682
15.86	62.8782
15.944	63.0981
16.028	63.3356
16.112	63.3894
16.196	63.3825
16.28	63.4574
16.364	63.4808
16.448	63.37
16.532	63.2441
16.616	63.127
16.7	62.969
16.784	62.8304
16.868	62.7114
16.952	62.5511
17.036	62.4565
17.12	62.5452
17.204	62.6632
17.288	62.6364
17.372	62.5791
17.456	62.6835
17.54	62.9048
17.624	63.0223
17.708	62.9201
17.792	62.7079
17.876	62.6022
17.96	62.6764
18.044	62.8081
18.128	62.8863
18.212	62.9376
18.296	62.982
18.38	62.9511
18.464	62.8334
18.548	62.7521
18.632	62.7762
18.716	62.8023
18.8	62.7219
18.884	62.5914
18.968	62.5204
19.052	62.4638
19.136	62.2765
19.22	61.9299
19.304	61.5785
19.388	61.4116
19.472	61.5074
19.556	61.7943
19.64	62.1099
19.724	62.3167
19.808	62.3757
19.892	62.3303
19.976	62.2293
20.06	62.0722
20.144	61.8384
20.228	61.556
20.312	61.3143
20.396	61.1952
20.48	61.1851
20.564	61.1772
20.648	61.0535
20.732	60.7811
20.816	60.4485
20.9	60.1926
20.984	60.1101
21.068	60.1997
21.152	60.3695
21.236	60.5027
21.32	60.5363
21.404	60.4893
21.488	60.4439
21.572	60.4916
21.656	60.6784
21.74	60.9803
21.824	61.2723
21.908	61.3584
21.992	61.0931
22.076	60.4863
22.16	59.7423
22.244	59.1739
22.328	59.0094
22.412	59.2656
22.496	59.7108
22.58	60.02
22.664	59.9508
22.748	59.4802
22.832	58.8096
22.916	58.2708
23	58.1743
23.084	58.668
23.168	59.6629
23.252	60.8735
23.336	61.924
23.42	62.5125
23.504	62.5459
23.588	62.1496
23.672	61.546
23.756	60.9501
23.84	60.4716
23.924	60.0774
24.008	59.6968
24.092	59.355
24.176	59.2085
24.26	59.4262
24.344	60.0662
24.428	61.0108
24.512	61.998
24.596	62.7771
24.68	63.2053
24.764	63.324
24.848	63.3012
24.932	63.5996
25.016	64.8145
25.1	67.381
25.184	71.1285
25.268	75.1265
25.352	77.9811
25.436	78.4319
25.52	76.1299
25.604	71.8229
25.688	66.8054
25.772	62.4061
25.856	59.5497
25.94	58.7464
26.024	60.0823
26.108	63.2426
26.192	67.5893
26.276	72.175
26.36	75.7561
26.444	77.2117
26.528	75.892
26.612	71.8319
26.696	65.7079
26.78	58.6826
26.864	51.8893
26.948	46.0885
27.028	41.6477