File: Bakgrunnsmateriale/MATLAB/FTIR/ftir_data/subBb/Mapping_121/C-4040-8_t86_cm-1.asc
PE IR       SPECTRUM    SPECTRUM    ASCII       PEDS        1.60
  -1
C-9D6E~1.ASC
17/03/27
21:31:06.00
17/03/27
21:31:06.00
tln
$C-4040-8_t0086$<tbV0>[-7.8,5.2,8.0,0.0,27,1,0]
370
64

2002,4.07
MIRTGS : RIGHTBACK : INTERNAL 2
MIR : ON : INTERNAL 2
OPTKBR

0.200000
8
8.000000
FILLER
RATIO
SPECTRUM
UNLOCKED 256

DOUBLE
64
COMBINED
1
0
0

1.000000
RATIO

1
0
TRUE
51149
0
LEFT NOT FITTED RIGHT NOT FITTED 0
NONE
NONE
15600
12
4.427000
51148
TRUE
1 0 8 72 0 0 0 0

15798

#HDR
-1
-1
#GR
CM-1
%T
2.38419e-05
0.0
5000
-1.000000
4631
8
116.934
-4.198217
#DATA
5000	64.5016
4984	65.0464
4968	64.4185
4952	64.8567
4936	64.2833
4920	64.9266
4904	64.468
4888	64.4591
4872	65.0281
4856	65.0012
4840	65.0852
4824	65.252
4808	65.0675
4792	64.8811
4776	65.3608
4760	65.3857
4744	65.573
4728	65.2174
4712	65.2953
4696	65.5279
4680	65.6265
4664	65.1025
4648	65.4766
4632	65.3212
4616	65.0105
4600	64.5934
4584	65.0396
4568	64.7395
4552	64.4531
4536	64.9281
4520	64.6183
4504	64.4068
4488	64.0706
4472	64.2847
4456	64.2462
4440	64.0589
4424	64.1623
4408	62.4386
4392	63.5258
4376	77.288
4360	64.1936
4344	64.3637
4328	64.4256
4312	64.488
4296	64.6734
4280	64.1322
4264	64.5606
4248	64.3034
4232	64.4756
4216	64.8912
4200	64.6278
4184	65.5267
4168	65.3002
4152	65.106
4136	64.6533
4120	65.4469
4104	65.1053
4088	65.2172
4072	65.4499
4056	65.1319
4040	65.3137
4024	65.5786
4008	65.4083
3992	65.3031
3976	65.3305
3960	65.389
3944	65.3151
3928	65.3342
3912	65.2724
3896	64.9695
3880	65.2277
3864	65.0834
3848	65.1506
3832	65.269
3816	65.2623
3800	65.1586
3784	65.1392
3768	65.0444
3752	65.1607
3736	65.2013
3720	65.4572
3704	65.3253
3688	65.3142
3672	65.1983
3656	65.3198
3640	65.2132
3624	65.5052
3608	65.1641
3592	65.3805
3576	65.4438
3560	65.5069
3544	65.3147
3528	65.2634
3512	65.34
3496	65.1453
3480	65.2563
3464	65.4261
3448	65.45
3432	65.3384
3416	65.395
3400	64.9009
3384	65.4112
3368	65.1029
3352	65.2503
3336	65.4493
3320	65.2095
3304	65.4089
3288	65.1975
3272	65.2189
3256	65.4211
3240	65.2593
3224	65.1834
3208	65.3679
3192	65.2421
3176	65.3999
3160	65.6522
3144	65.5285
3128	65.4923
3112	65.6744
3096	65.2574
3080	65.227
3064	65.4415
3048	65.3842
3032	65.4493
3016	65.2124
3000	65.2092
2984	65.2079
2968	65.0753
2952	65.1642
2936	65.2088
2920	64.9448
2904	65.2114
2888	65.1806
2872	65.2014
2856	65.328
2840	65.1488
2824	65.3695
2808	65.2954
2792	65.2487
2776	65.3973
2760	65.4648
2744	65.5456
2728	65.3966
2712	65.4382
2696	65.3717
2680	65.5046
2664	65.4597
2648	65.3911
2632	65.4037
2616	65.4006
2600	65.3494
2584	65.4785
2568	65.3178
2552	65.3463
2536	65.4015
2520	65.4263
2504	65.1717
2488	65.2138
2472	65.3527
2456	65.3273
2440	65.3581
2424	65.2438
2408	65.3996
2392	65.4373
2376	65.4348
2360	65.3339
2344	65.3662
2328	65.4317
2312	65.4989
2296	65.3428
2280	65.3287
2264	65.4574
2248	65.4157
2232	65.4977
2216	65.4104
2200	65.5175
2184	65.2977
2168	65.4563
2152	65.1294
2136	65.4302
2120	65.3622
2104	65.4985
2088	65.3297
2072	65.6078
2056	65.1497
2040	65.3784
2024	65.5187
2008	65.3419
1992	65.2636
1976	65.4233
1960	65.3298
1944	65.3562
1928	65.4037
1912	65.4033
1896	65.4717
1880	65.361
1864	65.402
1848	65.3286
1832	65.4216
1816	65.5264
1800	65.4809
1784	65.4935
1768	65.3238
1752	65.4222
1736	65.2731
1720	65.4035
1704	65.2716
1688	65.4078
1672	65.2549
1656	65.3244
1640	65.2585
1624	65.182
1608	65.1521
1592	65.0692
1576	65.1845
1560	65.0267
1544	65.0556
1528	65.0684
1512	65.1839
1496	65.1752
1480	65.2006
1464	65.0647
1448	64.8283
1432	65.2112
1416	65.1927
1400	65.2445
1384	65.1823
1368	65.1399
1352	65.0964
1336	65.2894
1320	65.1148
1304	65.0253
1288	65.0589
1272	65.0325
1256	65.0139
1240	64.9925
1224	65.0789
1208	65.1943
1192	64.8975
1176	64.8443
1160	64.9246
1144	64.7667
1128	64.7935
1112	64.8407
1096	64.5962
1080	65.26
1064	64.7873
1048	64.4549
1032	64.7429
1016	64.4284
1000	64.9353
984	 64.8815
968	 64.8121
952	 64.7837
936	 64.9424
920	 65.3053
904	 65.9439
888	 64.752
872	 64.9504
856	 64.2862
840	 64.791
824	 64.6803
808	 64.0427
792	 64.3862
776	 63.8662
760	 63.8997
744	 64.8049
728	 63.9915
712	 63.8477
696	 63.7281
680	 63.4127
664	 63.1679
648	 63.2621
632	 62.6625
616	 62.6415
600	 63.7767
584	 62.9052
568	 62.1658
552	 62.1749
536	 62.003
520	 61.858
504	 61.6912
488	 61.0236
472	 59.9593
456	 60.5557
440	 59.1347
424	 58.6664
408	 55.393
392	 64.5441
376	 50.8477
370	 -4.198217