File: Bakgrunnsmateriale/MATLAB/FTIR/ftir_data/subBb/Mapping_121/C-4040-8_t76_cm-1.asc
PE IR       SPECTRUM    SPECTRUM    ASCII       PEDS        1.60
  -1
C-1D6E~1.ASC
17/03/27
20:44:20.00
17/03/27
20:44:20.00
tln
$C-4040-8_t0076$<tbV0>[-10.4,2.6,8.0,0.0,27,1,0]
370
64

2002,4.07
MIRTGS : RIGHTBACK : INTERNAL 2
MIR : ON : INTERNAL 2
OPTKBR

0.200000
8
8.000000
FILLER
RATIO
SPECTRUM
UNLOCKED 256

DOUBLE
64
COMBINED
1
0
0

1.000000
RATIO

1
0
TRUE
51149
0
LEFT NOT FITTED RIGHT NOT FITTED 0
NONE
NONE
15600
12
4.427000
51148
TRUE
1 0 8 72 0 0 0 0

15798

#HDR
-1
-1
#GR
CM-1
%T
2.38419e-05
0.0
5000
-1.000000
4631
8
83.0847
25.9197
#DATA
5000	65.3125
4984	64.9359
4968	64.763
4952	64.9408
4936	64.5833
4920	64.9686
4904	65.0985
4888	65.0173
4872	65.3591
4856	64.5943
4840	64.8368
4824	64.7799
4808	65.1456
4792	65.2991
4776	65.3221
4760	64.8576
4744	65.0969
4728	65.1994
4712	65.2444
4696	64.8251
4680	65.3791
4664	65.2623
4648	65.6034
4632	65.413
4616	65.2804
4600	64.8429
4584	64.8055
4568	64.8761
4552	65.4191
4536	64.681
4520	64.609
4504	64.6241
4488	64.5629
4472	64.3953
4456	64.3187
4440	64.8238
4424	64.1102
4408	63.0558
4392	60.6751
4376	75.9385
4360	64.3034
4344	64.3874
4328	64.5162
4312	64.5075
4296	64.627
4280	64.619
4264	64.6653
4248	64.7381
4232	64.6437
4216	64.3595
4200	64.5606
4184	65.5199
4168	65.4182
4152	64.871
4136	65.0745
4120	65.2908
4104	65.0986
4088	65.2217
4072	65.2419
4056	65.3185
4040	65.075
4024	65.172
4008	65.2492
3992	65.2392
3976	65.2957
3960	65.2088
3944	64.9797
3928	65.2184
3912	65.1223
3896	65.2029
3880	64.9477
3864	65.3727
3848	64.9924
3832	64.9712
3816	65.1227
3800	65.0061
3784	65.2093
3768	65.196
3752	65.2032
3736	65.154
3720	65.3224
3704	65.176
3688	65.2194
3672	65.2914
3656	65.3887
3640	64.997
3624	65.2237
3608	65.2455
3592	65.2994
3576	65.2709
3560	65.2469
3544	65.2561
3528	65.2791
3512	65.2492
3496	65.1223
3480	65.0979
3464	65.2574
3448	65.5245
3432	65.1779
3416	65.3478
3400	65.0763
3384	65.3512
3368	65.191
3352	65.2757
3336	65.3057
3320	65.2219
3304	65.3355
3288	65.2975
3272	65.3256
3256	65.2663
3240	65.1098
3224	65.3152
3208	65.2716
3192	65.2652
3176	65.0748
3160	65.2935
3144	65.4639
3128	65.2358
3112	65.1698
3096	65.2304
3080	65.1185
3064	65.2629
3048	65.2477
3032	65.2773
3016	65.0572
3000	65.1017
2984	65.0929
2968	64.9276
2952	65.0456
2936	65.0259
2920	64.7706
2904	65.0035
2888	64.9834
2872	65.0928
2856	65.033
2840	65.129
2824	65.2788
2808	65.2575
2792	65.1628
2776	65.3952
2760	65.298
2744	65.346
2728	65.3013
2712	65.2717
2696	65.3887
2680	65.2771
2664	65.2311
2648	65.1889
2632	65.3469
2616	65.2831
2600	65.1654
2584	65.4016
2568	65.2233
2552	65.3205
2536	65.2153
2520	65.0571
2504	65.2367
2488	65.3404
2472	65.2704
2456	65.3859
2440	65.3041
2424	65.1799
2408	65.232
2392	65.2742
2376	65.2661
2360	65.2478
2344	65.2709
2328	65.3944
2312	65.2426
2296	65.3233
2280	65.3661
2264	65.3665
2248	65.3654
2232	65.295
2216	65.2954
2200	65.2054
2184	65.3016
2168	65.2199
2152	65.1372
2136	65.256
2120	65.2647
2104	65.3807
2088	65.27
2072	65.427
2056	65.3194
2040	65.3827
2024	65.2265
2008	65.4098
1992	65.251
1976	65.2275
1960	65.4145
1944	65.2014
1928	65.3863
1912	65.3541
1896	65.2483
1880	65.2203
1864	65.2631
1848	65.1164
1832	65.3757
1816	65.4398
1800	65.2376
1784	65.3857
1768	65.2558
1752	65.3362
1736	65.0067
1720	65.1176
1704	65.2231
1688	65.3623
1672	65.274
1656	65.2937
1640	65.1808
1624	65.0899
1608	65.0368
1592	65.0414
1576	64.9397
1560	64.9161
1544	64.9797
1528	65.1206
1512	65.0115
1496	64.9047
1480	65.1885
1464	64.9733
1448	64.9451
1432	65.1351
1416	65.2156
1400	65.0875
1384	65.2003
1368	65.0996
1352	65.0673
1336	65.1386
1320	65.1337
1304	65.1088
1288	65.055
1272	65.0559
1256	64.9458
1240	65.018
1224	65.0403
1208	65.0846
1192	64.8123
1176	64.9472
1160	64.9148
1144	64.9229
1128	64.8022
1112	64.6966
1096	64.6721
1080	65.0566
1064	64.8255
1048	64.737
1032	64.6099
1016	64.6863
1000	64.6001
984	 64.6899
968	 64.8229
952	 65.1084
936	 64.2494
920	 64.5099
904	 64.9774
888	 64.8466
872	 64.487
856	 64.5151
840	 64.5308
824	 64.4197
808	 64.5705
792	 64.1758
776	 64.4078
760	 64.419
744	 64.115
728	 64.0331
712	 64.0184
696	 63.6633
680	 63.5536
664	 63.2447
648	 63.4408
632	 62.7214
616	 62.6163
600	 63.0342
584	 63.0212
568	 62.3758
552	 62.3148
536	 61.5561
520	 61.8639
504	 60.6603
488	 61.1691
472	 61.1124
456	 60.3812
440	 60.4823
424	 57.8776
408	 59.1917
392	 59.4759
376	 36.3624
370	 25.9197