File: Bakgrunnsmateriale/MATLAB/FTIR/ftir_data/subBb/Mapping_121/C-4040-8_t21.asc
PE IR       SPECTRUM    SPECTRUM    ASCII       PEDS        1.60
  -1
C-AD2E~1.ASC
17/03/27
16:08:27.00
17/03/27
16:08:53.00
tln
$C-4040-8_t0021$<tbV0>[-10.4,-10.4,8.0,0.0,27,1,0]
27.028
64

2002,4.07
MIRTGS : RIGHTBACK : INTERNAL 2
MIR : ON : INTERNAL 2
OPTKBR

0.200000
8
8.000000
FILLER
RATIO
SPECTRUM
UNLOCKED 256

DOUBLE
64
COMBINED
1
0
0

0.002000
RATIO

1
0
TRUE
51149
0
LEFT NOT FITTED RIGHT NOT FITTED 0
NONE
NONE
15600
12
4.427000
51148
TRUE
1 0 8 72 0 0 0 0

15798

#HDR
-1
-1
#GR
µM
%T
2.38419e-05
0.0
2.000000
0.002000
12515
8
75.8881
20.6245
#DATA
2.000000	 63.9439
2.084000	 63.4684
2.168000	 63.927
2.252000	 67.2448
2.336000	 63.0327
2.420000	 63.3947
2.504000	 63.0856
2.588000	 62.7977
2.672000	 62.9822
2.756000	 62.4102
2.840000	 61.7521
2.924000	 61.146
3.008000	 60.7505
3.092000	 60.3508
3.176000	 60.0748
3.260000	 59.6533
3.344000	 59.0359
3.428000	 58.3131
3.512000	 58.0072
3.596000	 57.7419
3.680000	 57.2792
3.764000	 56.8472
3.848000	 56.3067
3.932000	 55.8609
4.016000	 55.367
4.100000	 55.0825
4.184000	 54.7053
4.268000	 54.1929
4.352000	 53.846
4.436000	 53.3743
4.520000	 52.9516
4.604000	 52.5524
4.688000	 52.1326
4.772000	 51.8369
4.856000	 51.4681
4.940000	 51.1281
5.024000	 50.9138
5.108000	 50.5513
5.192000	 50.2461
5.276000	 49.9332
5.359999	 49.5584
5.444000	 49.2512
5.528000	 49.0347
5.612000	 48.8741
5.696000	 48.5448
5.780000	 48.3155
5.864000	 48.1896
5.948000	 47.7992
6.032000	 47.72
6.116000	 47.4472
6.200000	 46.8872
6.284000	 46.6853
6.368000	 46.5734
6.452000	 46.3481
6.536000	 46.0092
6.620000	 46.1436
6.704000	 45.7396
6.788000	 45.5104
6.872000	 45.4428
6.956000	 45.2706
7.040000	 45.0066
7.124000	 44.5488
7.208000	 44.5173
7.292000	 44.3814
7.376000	 44.1966
7.460000	 43.9034
7.544000	 43.7988
7.628000	 43.537
7.712000	 43.3442
7.796000	 43.2857
7.880000	 43.0893
7.964000	 43.055
8.048000	 42.8035
8.132000	 42.6243
8.216000	 42.5004
8.300000	 42.3346
8.384000	 42.3136
8.468000	 42.0397
8.552000	 42.0538
8.635999	 41.8335
8.719999	 41.8077
8.804000	 41.5197
8.888000	 41.4933
8.972000	 41.4853
9.056000	 41.1759
9.140000	 41.1724
9.224000	 40.9508
9.308000	 40.6513
9.391999	 40.6835
9.475999	 40.4597
9.560000	 40.3514
9.644000	 40.3582
9.728000	 40.3379
9.812000	 40.4712
9.896000	 40.2987
9.980000	 39.9897
10.064	40.0256
10.148	39.6952
10.232	39.801
10.316	39.8223
10.4	39.4288
10.484	39.1947
10.568	39.3333
10.652	39.201
10.736	38.8315
10.82	39.0622
10.904	38.752
10.988	38.5363
11.072	38.335
11.156	38.336
11.24	38.3982
11.324	38.4362
11.408	38.3809
11.492	38.0286
11.576	37.9014
11.66	37.8445
11.744	37.6638
11.828	37.6563
11.912	37.4183
11.996	37.2235
12.08	37.3231
12.164	37.3512
12.248	37.1876
12.332	37.1486
12.416	37.0493
12.5	36.7225
12.584	36.6147
12.668	36.5679
12.752	36.5149
12.836	36.3569
12.92	36.4445
13.004	36.4602
13.088	36.3662
13.172	36.2507
13.256	36.1099
13.34	35.9969
13.424	36.0895
13.508	36.0803
13.592	35.7139
13.676	35.4533
13.76	35.3355
13.844	35.1501
13.928	34.9315
14.012	34.8234
14.096	34.8862
14.18	34.7944
14.264	34.6256
14.348	34.5115
14.432	34.2592
14.516	34.0404
14.6	34.0034
14.684	33.9595
14.768	33.9554
14.852	34.1076
14.936	34.2209
15.02	34.1839
15.104	34.1482
15.188	34.107
15.272	34.0174
15.356	33.9366
15.44	33.8127
15.524	33.6383
15.608	33.481
15.692	33.3302
15.776	33.1683
15.86	33.0795
15.944	33.065
16.028	32.9038
16.112	32.5462
16.196	32.2636
16.28	32.1664
16.364	32.147
16.448	32.221
16.532	32.3959
16.616	32.512
16.7	32.5144
16.784	32.4972
16.868	32.4289
16.952	32.2224
17.036	31.9923
17.12	31.9097
17.204	31.9116
17.288	31.8032
17.372	31.5495
17.456	31.26
17.54	30.9863
17.624	30.7548
17.708	30.6722
17.792	30.7901
17.876	30.9569
17.96	30.9707
18.044	30.8291
18.128	30.703
18.212	30.6873
18.296	30.7068
18.38	30.6561
18.464	30.5166
18.548	30.3313
18.632	30.1437
18.716	30.0105
18.8	29.9933
18.884	30.0769
18.968	30.1504
19.052	30.1057
19.136	29.9261
19.22	29.666
19.304	29.4015
19.388	29.2105
19.472	29.1553
19.556	29.2177
19.64	29.2882
19.724	29.276
19.808	29.2199
19.892	29.2416
19.976	29.3978
20.06	29.5956
20.144	29.663
20.228	29.4873
20.312	29.0834
20.396	28.5664
20.48	28.0867
20.564	27.7754
20.648	27.6957
20.732	27.826
20.816	28.0914
20.9	28.392
20.984	28.6114
21.068	28.6286
21.152	28.3652
21.236	27.8462
21.32	27.2066
21.404	26.6296
21.488	26.2508
21.572	26.1019
21.656	26.118
21.74	26.1988
21.824	26.2598
21.908	26.2545
21.992	26.1637
22.076	25.9826
22.16	25.7348
22.244	25.4848
22.328	25.3175
22.412	25.292
22.496	25.3952
22.58	25.5435
22.664	25.6369
22.748	25.63
22.832	25.5644
22.916	25.5344
23	25.6315
23.084	25.8784
23.168	26.218
23.252	26.5635
23.336	26.8446
23.42	27.0256
23.504	27.1274
23.588	27.1831
23.672	27.2056
23.756	27.203
23.84	27.1805
23.924	27.2008
24.008	27.3105
24.092	27.4658
24.176	27.5875
24.26	27.5418
24.344	27.1714
24.428	26.3803
24.512	25.1853
24.596	23.69
24.68	22.1515
24.764	20.9896
24.848	20.6385
24.932	21.4563
25.016	23.5182
25.1	26.5122
25.184	29.8382
25.268	32.8851
25.352	35.2857
25.436	37.1187
25.52	38.9201
25.604	41.4184
25.688	45.3656
25.772	51.1284
25.856	58.404
25.94	66.0794
26.024	72.4173
26.108	75.6837
26.192	74.9394
26.276	70.3352
26.36	63.2147
26.444	55.3548
26.528	48.2696
26.612	42.6445
26.696	38.5119
26.78	35.5489
26.864	33.4974
26.948	32.2913
27.028	31.8628