File: Bakgrunnsmateriale/MATLAB/FTIR/ftir_data/subBb/Mapping_121/C-4040-8_t31.asc
PE IR       SPECTRUM    SPECTRUM    ASCII       PEDS        1.60
  -1
C-A13E~1.ASC
17/03/27
17:01:45.00
17/03/27
17:02:11.00
tln
$C-4040-8_t0031$<tbV0>[-7.8,-7.8,8.0,0.0,27,1,0]
27.028
64

2002,4.07
MIRTGS : RIGHTBACK : INTERNAL 2
MIR : ON : INTERNAL 2
OPTKBR

0.200000
8
8.000000
FILLER
RATIO
SPECTRUM
UNLOCKED 256

DOUBLE
64
COMBINED
1
0
0

0.002000
RATIO

1
0
TRUE
51149
0
LEFT NOT FITTED RIGHT NOT FITTED 0
NONE
NONE
15600
12
4.427000
51148
TRUE
1 0 8 72 0 0 0 0

15798

#HDR
-1
-1
#GR
µM
%T
2.38419e-05
0.0
2.000000
0.002000
12515
8
77.2903
15.0696
#DATA
2.000000	 63.7169
2.084000	 63.7345
2.168000	 64.0652
2.252000	 63.2981
2.336000	 63.4151
2.420000	 63.3347
2.504000	 63.0554
2.588000	 62.7831
2.672000	 62.3304
2.756000	 62.0399
2.840000	 61.5011
2.924000	 60.9918
3.008000	 60.4752
3.092000	 60.2749
3.176000	 59.6877
3.260000	 59.2869
3.344000	 58.8604
3.428000	 58.0628
3.512000	 57.7658
3.596000	 57.3961
3.680000	 56.8942
3.764000	 56.497
3.848000	 55.9565
3.932000	 55.5414
4.016000	 54.9326
4.100000	 54.552
4.184000	 54.1982
4.268000	 53.716
4.352000	 53.3453
4.436000	 52.9154
4.520000	 52.5375
4.604000	 52.0301
4.688000	 51.7277
4.772000	 51.3693
4.856000	 50.9391
4.940000	 50.5272
5.024000	 50.2239
5.108000	 49.9369
5.192000	 49.6181
5.276000	 49.1699
5.359999	 48.9498
5.444000	 48.7099
5.528000	 48.22
5.612000	 48.0181
5.696000	 47.7055
5.780000	 47.274
5.864000	 47.1804
5.948000	 46.8632
6.032000	 46.6022
6.116000	 46.4233
6.200000	 46.0725
6.284000	 45.8637
6.368000	 45.6378
6.452000	 45.4509
6.536000	 45.1754
6.620000	 44.9851
6.704000	 44.7465
6.788000	 44.6137
6.872000	 44.1885
6.956000	 44.2651
7.040000	 43.8935
7.124000	 43.7892
7.208000	 43.5107
7.292000	 43.2904
7.376000	 43.1947
7.460000	 42.8445
7.544000	 42.8009
7.628000	 42.6787
7.712000	 42.3735
7.796000	 42.3184
7.880000	 42.3033
7.964000	 41.9167
8.048000	 41.9355
8.132000	 41.7239
8.216000	 41.6483
8.300000	 41.3525
8.384000	 41.1515
8.468000	 40.9514
8.552000	 41.1096
8.635999	 40.9163
8.719999	 40.7062
8.804000	 40.5073
8.888000	 40.7577
8.972000	 40.7208
9.056000	 39.9312
9.140000	 39.8372
9.224000	 39.6332
9.308000	 39.5282
9.391999	 39.37
9.475999	 39.5561
9.560000	 39.5856
9.644000	 39.125
9.728000	 39.4648
9.812000	 39.3647
9.896000	 38.8576
9.980000	 38.8728
10.064	38.7655
10.148	38.7947
10.232	38.5249
10.316	38.4921
10.4	38.2246
10.484	38.2965
10.568	38.2894
10.652	38.1414
10.736	37.9875
10.82	37.6796
10.904	37.801
10.988	37.5762
11.072	37.5087
11.156	37.347
11.24	37.3375
11.324	37.3074
11.408	37.171
11.492	37.0848
11.576	37.0656
11.66	37.0032
11.744	36.7975
11.828	36.7694
11.912	36.4903
11.996	36.5176
12.08	36.3456
12.164	36.1914
12.248	36.1335
12.332	35.9992
12.416	36.0733
12.5	35.9118
12.584	35.7439
12.668	35.575
12.752	35.4799
12.836	35.5073
12.92	35.2282
13.004	35.1063
13.088	35.1373
13.172	34.7639
13.256	34.4529
13.34	34.3726
13.424	34.2646
13.508	34.3833
13.592	34.3339
13.676	34.3229
13.76	34.3458
13.844	34.1585
13.928	33.9876
14.012	33.8478
14.096	33.847
14.18	33.9309
14.264	33.8366
14.348	33.6065
14.432	33.4342
14.516	33.3908
14.6	33.4419
14.684	33.4826
14.768	33.3756
14.852	33.1204
14.936	32.8258
15.02	32.548
15.104	32.4146
15.188	32.4679
15.272	32.5153
15.356	32.4714
15.44	32.394
15.524	32.255
15.608	32.0385
15.692	31.858
15.776	31.7853
15.86	31.749
15.944	31.6758
16.028	31.5637
16.112	31.4335
16.196	31.3606
16.28	31.3955
16.364	31.4025
16.448	31.2419
16.532	31.02
16.616	30.8672
16.7	30.7299
16.784	30.5761
16.868	30.4894
16.952	30.5101
17.036	30.58
17.12	30.6089
17.204	30.5255
17.288	30.3431
17.372	30.1657
17.456	30.0545
17.54	29.9486
17.624	29.7702
17.708	29.5387
17.792	29.3346
17.876	29.2098
17.96	29.1596
18.044	29.1459
18.128	29.1159
18.212	29.0159
18.296	28.81
18.38	28.516
18.464	28.2268
18.548	28.065
18.632	28.0916
18.716	28.265
18.8	28.492
18.884	28.6867
18.968	28.7786
19.052	28.7144
19.136	28.4916
19.22	28.1782
19.304	27.862
19.388	27.5854
19.472	27.3358
19.556	27.089
19.64	26.8495
19.724	26.6561
19.808	26.5496
19.892	26.5384
19.976	26.5901
20.06	26.6655
20.144	26.7439
20.228	26.8243
20.312	26.9041
20.396	26.9577
20.48	26.9425
20.564	26.83
20.648	26.636
20.732	26.4245
20.816	26.2589
20.9	26.1596
20.984	26.0965
21.068	26.0272
21.152	25.9434
21.236	25.8726
21.32	25.8371
21.404	25.8094
21.488	25.7062
21.572	25.4459
21.656	25.0216
21.74	24.525
21.824	24.1157
21.908	23.9329
21.992	24.013
22.076	24.2767
22.16	24.5664
22.244	24.7254
22.328	24.6734
22.412	24.4326
22.496	24.1161
22.58	23.8652
22.664	23.7906
22.748	23.9234
22.832	24.205
22.916	24.5103
23	24.6799
23.084	24.6003
23.168	24.2462
23.252	23.6931
23.336	23.0894
23.42	22.5909
23.504	22.2898
23.588	22.1821
23.672	22.1948
23.756	22.2233
23.84	22.1906
23.924	22.0751
24.008	21.8686
24.092	21.5479
24.176	21.1317
24.26	20.6647
24.344	20.2662
24.428	20.1114
24.512	20.3718
24.596	21.1174
24.68	22.2197
24.764	23.3308
24.848	24.0621
24.932	24.0747
25.016	23.2446
25.1	21.7302
25.184	19.8445
25.268	17.934
25.352	16.3031
25.436	15.2667
25.52	15.1708
25.604	16.3778
25.688	19.1295
25.772	23.4121
25.856	28.9117
25.94	34.9794
26.024	40.7303
26.108	45.3104
26.192	48.2175
26.276	49.4361
26.36	49.4201
26.444	48.947
26.528	48.8464
26.612	49.6957
26.696	51.7943
26.78	55.1796
26.864	59.5948
26.948	64.5438
27.028	69.06