File: Bakgrunnsmateriale/MATLAB/FTIR/ftir_data/subBb/Mapping_121/C-4040-8_t116_cm-1.asc
PE IR       SPECTRUM    SPECTRUM    ASCII       PEDS        1.60
  -1
C-4B09~1.ASC
17/03/28
00:17:19.00
17/03/28
00:17:19.00
tln
$C-4040-8_t0116$<tbV0>[0.0,13.0,8.0,0.0,27,1,0]
370
64

2002,4.07
MIRTGS : RIGHTBACK : INTERNAL 2
MIR : ON : INTERNAL 2
OPTKBR

0.200000
8
8.000000
FILLER
RATIO
SPECTRUM
UNLOCKED 256

DOUBLE
64
COMBINED
1
0
0

1.000000
RATIO

1
0
TRUE
51149
0
LEFT NOT FITTED RIGHT NOT FITTED 0
NONE
NONE
15600
12
4.427000
51148
TRUE
1 0 8 72 0 0 0 0

15798

#HDR
-1
-1
#GR
CM-1
%T
2.38419e-05
0.0
5000
-1.000000
4631
8
88.4038
32.7728
#DATA
5000	64.556
4984	65.1882
4968	64.5011
4952	64.5028
4936	64.6247
4920	65.171
4904	64.8791
4888	65.064
4872	64.6154
4856	65.0734
4840	64.3902
4824	64.9235
4808	64.4927
4792	64.6822
4776	64.8815
4760	64.8379
4744	65.2611
4728	64.7083
4712	65.0766
4696	64.7735
4680	65.0249
4664	64.9387
4648	64.7205
4632	64.7911
4616	64.5746
4600	64.8685
4584	64.8113
4568	65.2152
4552	65.0534
4536	64.3893
4520	64.5514
4504	65.1901
4488	64.8321
4472	64.4869
4456	65.6154
4440	64.9432
4424	65.4026
4408	68.0399
4392	54.8989
4376	67.1263
4360	65.6238
4344	65.002
4328	65.1038
4312	64.7268
4296	65.0077
4280	65.2114
4264	64.6959
4248	64.9104
4232	64.984
4216	65.1842
4200	65.3571
4184	64.6373
4168	64.5982
4152	64.8122
4136	64.9277
4120	64.7922
4104	64.7802
4088	64.8615
4072	65.2705
4056	64.8919
4040	65.1155
4024	65.1821
4008	65.005
3992	65.006
3976	64.9981
3960	65.0477
3944	64.9766
3928	65.0885
3912	65.0056
3896	65.1886
3880	64.9932
3864	64.9495
3848	64.9319
3832	64.6854
3816	64.9604
3800	64.9077
3784	65.0851
3768	65.0622
3752	65.2654
3736	65.1936
3720	65.0999
3704	65.0032
3688	65.204
3672	65.2422
3656	65.0245
3640	65.2014
3624	65.1392
3608	65.0661
3592	65.0107
3576	65.1072
3560	65.1191
3544	64.8615
3528	65.045
3512	64.9438
3496	65.184
3480	65.2274
3464	65.3404
3448	64.9927
3432	65.129
3416	64.9447
3400	64.9384
3384	65.1631
3368	65.2085
3352	65.0187
3336	65.2251
3320	64.9535
3304	64.8952
3288	65.0938
3272	64.9913
3256	65.1117
3240	64.9017
3224	64.9534
3208	64.9439
3192	65.0041
3176	65.3087
3160	65.0604
3144	64.9921
3128	64.9363
3112	65.4085
3096	65.0413
3080	65.1335
3064	65.0988
3048	65.0908
3032	65.1367
3016	65.1957
3000	65.3167
2984	65.1265
2968	64.8958
2952	65.0958
2936	64.9008
2920	64.7346
2904	65.0207
2888	64.9703
2872	65.0474
2856	65.0146
2840	65.1031
2824	65.0745
2808	65.1624
2792	65.1477
2776	64.9757
2760	65.2091
2744	65.072
2728	65.1661
2712	65.1781
2696	65.316
2680	65.0908
2664	65.2696
2648	65.1645
2632	65.0906
2616	65.1484
2600	65.1242
2584	65.0936
2568	65.1527
2552	65.2601
2536	65.3051
2520	65.2278
2504	65.0374
2488	65.0187
2472	65.0775
2456	65.1537
2440	65.1579
2424	64.9717
2408	65.4235
2392	65.3315
2376	65.1295
2360	65.1639
2344	65.2621
2328	65.1968
2312	65.1634
2296	65.184
2280	65.0841
2264	65.3781
2248	65.3051
2232	65.0866
2216	65.2803
2200	65.319
2184	65.2009
2168	65.271
2152	65.366
2136	65.3302
2120	65.2379
2104	65.2696
2088	65.2547
2072	65.3897
2056	64.9966
2040	65.2902
2024	65.2377
2008	65.25
1992	65.0515
1976	65.2214
1960	65.2612
1944	65.1702
1928	65.0191
1912	65.3452
1896	65.1881
1880	65.3515
1864	65.0984
1848	65.2092
1832	65.1664
1816	65.1548
1800	65.1303
1784	65.0854
1768	65.1081
1752	65.2369
1736	64.8254
1720	65.2161
1704	65.1149
1688	65.068
1672	65.1479
1656	65.0708
1640	65.0019
1624	65.0277
1608	65.0166
1592	65.0248
1576	64.8395
1560	64.749
1544	64.9565
1528	65.0738
1512	65.0229
1496	65.1806
1480	65.1279
1464	65.0607
1448	64.8156
1432	64.9102
1416	64.9117
1400	64.9212
1384	64.8479
1368	64.8956
1352	64.9395
1336	64.7995
1320	64.9049
1304	64.8995
1288	64.5442
1272	64.9417
1256	64.6785
1240	64.7363
1224	64.9249
1208	64.876
1192	64.7989
1176	64.775
1160	64.6092
1144	64.8453
1128	64.8564
1112	64.9199
1096	64.8667
1080	64.9643
1064	64.7856
1048	64.7627
1032	64.5959
1016	64.8567
1000	64.5184
984	 64.6168
968	 64.5221
952	 64.4663
936	 64.5327
920	 64.3491
904	 64.6693
888	 63.8729
872	 64.0855
856	 63.5486
840	 64.2812
824	 63.4336
808	 63.7675
792	 64.3757
776	 64.3152
760	 63.6094
744	 63.8999
728	 63.1611
712	 63.3142
696	 63.3096
680	 62.6014
664	 62.9249
648	 62.2466
632	 62.6491
616	 62.173
600	 62.1315
584	 61.7339
568	 62.0061
552	 61.5393
536	 61.8047
520	 60.747
504	 59.2149
488	 59.5327
472	 59.9859
456	 59.9634
440	 58.0626
424	 57.8753
408	 64.4169
392	 35.0917
376	 51.7543
370	 68.5313