File: Bakgrunnsmateriale/MATLAB/FTIR/ftir_data/subBb/Mapping_121/C-4040-8_t07_cm-1.asc
PE IR       SPECTRUM    SPECTRUM    ASCII       PEDS        1.60
  -1
C-99EF~1.ASC
17/03/27
15:03:15.00
17/03/27
15:03:15.00
tln
$C-4040-8_t0007$<tbV0>[-2.6,-13.0,8.0,0.0,27,1,0]
370
64

2002,4.07
MIRTGS : RIGHTBACK : INTERNAL 2
MIR : ON : INTERNAL 2
OPTKBR

0.200000
8
8.000000
FILLER
RATIO
SPECTRUM
UNLOCKED 256

DOUBLE
64
COMBINED
1
0
0

1.000000
RATIO

1
0
TRUE
51149
0
LEFT NOT FITTED RIGHT NOT FITTED 0
NONE
NONE
15600
12
4.427000
51148
TRUE
1 0 8 72 0 0 0 0

15798

#HDR
-1
-1
#GR
CM-1
%T
2.38419e-05
0.0
5000
-1.000000
4631
8
70.9545
15.7247
#DATA
5000	64.2411
4984	64.4328
4968	63.9436
4952	64.1791
4936	63.309
4920	64.1361
4904	65.0269
4888	65.2035
4872	63.9568
4856	64.0617
4840	64.5613
4824	64.1517
4808	63.904
4792	63.853
4776	63.9901
4760	63.6791
4744	64.0248
4728	63.7397
4712	63.5939
4696	63.8485
4680	64.1124
4664	63.9479
4648	64.0216
4632	64.1333
4616	64.4239
4600	64.0798
4584	64.4464
4568	64.5012
4552	64.0273
4536	63.8011
4520	64.6536
4504	64.9865
4488	64.5707
4472	64.5337
4456	66.2703
4440	67.3343
4424	64.2977
4408	61.0009
4392	53.622
4376	66.9795
4360	65.6812
4344	64.5313
4328	64.2362
4312	64.4693
4296	64.4832
4280	64.4656
4264	64.0882
4248	64.1467
4232	63.9942
4216	64.0878
4200	63.6857
4184	63.6624
4168	63.5991
4152	63.7285
4136	64.0289
4120	63.7099
4104	63.2633
4088	63.951
4072	63.6375
4056	63.9105
4040	63.9193
4024	63.8619
4008	64.2818
3992	63.9794
3976	63.6391
3960	63.8478
3944	63.7602
3928	63.8268
3912	63.81
3896	63.8584
3880	63.7412
3864	63.9482
3848	64.1393
3832	63.8477
3816	63.7356
3800	64.0899
3784	63.5657
3768	63.6765
3752	63.9824
3736	63.9262
3720	63.9364
3704	63.5759
3688	63.5309
3672	63.8141
3656	63.5035
3640	63.2278
3624	63.4981
3608	63.3305
3592	63.5837
3576	63.179
3560	63.3679
3544	63.0589
3528	63.2833
3512	62.9496
3496	63.3058
3480	63.0512
3464	63.3216
3448	63.2999
3432	63.1904
3416	63.006
3400	63.0877
3384	62.9776
3368	62.9568
3352	62.7753
3336	62.9097
3320	62.7762
3304	62.8256
3288	62.9318
3272	62.684
3256	62.5649
3240	62.3173
3224	62.7234
3208	62.6934
3192	62.2646
3176	62.3974
3160	62.3767
3144	62.3391
3128	62.4051
3112	62.4471
3096	62.252
3080	62.2953
3064	62.3165
3048	62.2306
3032	62.1023
3016	62.3705
3000	61.9918
2984	61.9562
2968	61.9097
2952	61.7298
2936	61.7118
2920	61.496
2904	61.5897
2888	61.6333
2872	61.5989
2856	61.5559
2840	61.6251
2824	61.7127
2808	61.4856
2792	61.3825
2776	61.2605
2760	61.3563
2744	61.2998
2728	61.2839
2712	61.1346
2696	61.0203
2680	61.0588
2664	60.9758
2648	60.9206
2632	60.8015
2616	60.6642
2600	60.79
2584	60.584
2568	60.4851
2552	60.5918
2536	60.5012
2520	60.5483
2504	60.3647
2488	60.2633
2472	60.3789
2456	60.086
2440	60.2898
2424	59.8732
2408	59.9787
2392	59.9796
2376	59.8487
2360	59.9315
2344	59.6231
2328	59.6454
2312	59.5676
2296	59.4721
2280	59.4353
2264	59.4346
2248	59.2664
2232	59.2785
2216	59.1977
2200	59.0732
2184	59.0838
2168	58.9389
2152	58.9093
2136	58.8517
2120	58.7179
2104	58.6396
2088	58.7145
2072	58.4659
2056	58.291
2040	58.4542
2024	58.2121
2008	58.2884
1992	58.152
1976	57.9647
1960	57.9965
1944	57.8991
1928	57.9318
1912	57.8002
1896	57.765
1880	57.6061
1864	57.4924
1848	57.4721
1832	57.3632
1816	57.2568
1800	57.2748
1784	57.1381
1768	57.1201
1752	57.1336
1736	56.8803
1720	56.8909
1704	56.8998
1688	56.7868
1672	56.6399
1656	56.8341
1640	56.4966
1624	56.391
1608	56.125
1592	56.135
1576	56.0192
1560	56.1824
1544	56.0676
1528	55.8435
1512	55.7855
1496	55.7427
1480	55.521
1464	55.2577
1448	55.2052
1432	55.0758
1416	54.9649
1400	54.9479
1384	54.7858
1368	54.6598
1352	54.4916
1336	54.6148
1320	54.3961
1304	54.2471
1288	54.187
1272	53.9335
1256	53.9933
1240	53.8061
1224	53.8809
1208	53.6916
1192	53.7431
1176	53.4296
1160	53.6067
1144	53.2629
1128	53.1526
1112	53.2135
1096	53.0567
1080	52.7643
1064	52.747
1048	52.5711
1032	52.3814
1016	52.6704
1000	52.4939
984	 52.3679
968	 52.1137
952	 51.9829
936	 51.9372
920	 51.4683
904	 51.4567
888	 51.0109
872	 50.8191
856	 51.1693
840	 50.7726
824	 50.2532
808	 50.4853
792	 50.378
776	 50.7043
760	 50.0695
744	 50.2645
728	 49.6732
712	 49.4719
696	 49.1482
680	 48.9311
664	 48.4371
648	 48.6937
632	 48.4935
616	 47.9892
600	 46.8399
584	 47.5058
568	 46.9718
552	 46.5428
536	 46.0311
520	 45.0627
504	 45.0918
488	 45.7247
472	 43.9532
456	 43.8225
440	 43.1447
424	 41.9743
408	 45.8145
392	 36.1257
376	 51.3497
370	 15.7247