File: Bakgrunnsmateriale/MATLAB/FTIR/ftir_data/subBb/Mapping_121/C-4040-8_t111.asc
PE IR       SPECTRUM    SPECTRUM    ASCII       PEDS        1.60
  -1
C-80C8~1.ASC
17/03/27
23:39:47.00
17/03/27
23:40:13.00
tln
$C-4040-8_t0111$<tbV0>[13.0,13.0,8.0,0.0,27,1,0]
27.028
64

2002,4.07
MIRTGS : RIGHTBACK : INTERNAL 2
MIR : ON : INTERNAL 2
OPTKBR

0.200000
8
8.000000
FILLER
RATIO
SPECTRUM
UNLOCKED 256

DOUBLE
64
COMBINED
1
0
0

0.002000
RATIO

1
0
TRUE
51149
0
LEFT NOT FITTED RIGHT NOT FITTED 0
NONE
NONE
15600
12
4.427000
51148
TRUE
1 0 8 72 0 0 0 0

15798

#HDR
-1
-1
#GR
µM
%T
2.38419e-05
0.0
2.000000
0.002000
12515
8
117.454
51.8179
#DATA
2.000000	 62.6936
2.084000	 63.2797
2.168000	 62.8355
2.252000	 62.4196
2.336000	 63.2006
2.420000	 63.1222
2.504000	 62.8932
2.588000	 62.9686
2.672000	 63.1388
2.756000	 63.0361
2.840000	 63.3189
2.924000	 62.8946
3.008000	 63.2667
3.092000	 62.9976
3.176000	 63.2543
3.260000	 63.3933
3.344000	 63.0446
3.428000	 62.6895
3.512000	 63.1624
3.596000	 63.2538
3.680000	 63.1741
3.764000	 63.1554
3.848000	 63.5079
3.932000	 63.4356
4.016000	 63.2047
4.100000	 63.306
4.184000	 63.413
4.268000	 63.4696
4.352000	 63.4931
4.436000	 63.1964
4.520000	 63.2899
4.604000	 63.3429
4.688000	 63.4067
4.772000	 63.526
4.856000	 63.6384
4.940000	 63.3334
5.024000	 63.3361
5.108000	 63.2676
5.192000	 63.3305
5.276000	 63.4114
5.359999	 63.3302
5.444000	 63.3957
5.528000	 63.3897
5.612000	 63.3887
5.696000	 63.2757
5.780000	 63.0642
5.864000	 63.4277
5.948000	 63.3053
6.032000	 63.1942
6.116000	 63.2742
6.200000	 63.342
6.284000	 63.2346
6.368000	 63.1507
6.452000	 63.226
6.536000	 63.3691
6.620000	 63.2188
6.704000	 63.29
6.788000	 63.0469
6.872000	 63.1594
6.956000	 63.2346
7.040000	 63.2728
7.124000	 63.4583
7.208000	 63.3049
7.292000	 63.3382
7.376000	 63.4098
7.460000	 63.1404
7.544000	 63.2921
7.628000	 63.206
7.712000	 63.0383
7.796000	 63.0839
7.880000	 62.881
7.964000	 62.9869
8.048000	 62.6636
8.132000	 62.7206
8.216000	 62.8842
8.300000	 62.7624
8.384000	 62.8618
8.468000	 62.89
8.552000	 62.8288
8.635999	 62.6019
8.719999	 62.7602
8.804000	 62.9724
8.888000	 62.6949
8.972000	 62.8168
9.056000	 63.1924
9.140000	 62.4955
9.224000	 62.6326
9.308000	 62.5045
9.391999	 62.538
9.475999	 62.5587
9.560000	 62.485
9.644000	 62.5037
9.728000	 62.2835
9.812000	 62.6677
9.896000	 62.1949
9.980000	 62.5497
10.064	62.3912
10.148	62.6692
10.232	62.4119
10.316	62.4761
10.4	62.4098
10.484	62.4224
10.568	62.5427
10.652	62.3869
10.736	62.3588
10.82	62.3439
10.904	62.469
10.988	62.7326
11.072	62.3314
11.156	61.8684
11.24	61.9311
11.324	61.8767
11.408	62.2604
11.492	62.4306
11.576	62.3605
11.66	61.8499
11.744	61.9857
11.828	62.5456
11.912	62.9156
11.996	62.9738
12.08	62.2984
12.164	62.0862
12.248	62.1049
12.332	62.1921
12.416	61.9585
12.5	61.9862
12.584	62.1116
12.668	61.8535
12.752	62.0995
12.836	62.2017
12.92	62.0074
13.004	61.9381
13.088	61.8013
13.172	61.8738
13.256	62.0943
13.34	62.242
13.424	62.4166
13.508	62.344
13.592	62.1106
13.676	61.8405
13.76	61.7156
13.844	61.7857
13.928	61.7248
14.012	61.5032
14.096	61.456
14.18	61.6714
14.264	61.7751
14.348	61.685
14.432	61.7669
14.516	61.6521
14.6	61.1826
14.684	60.9438
14.768	61.0123
14.852	61.2688
14.936	61.5952
15.02	61.649
15.104	61.4537
15.188	61.3326
15.272	61.3909
15.356	61.4465
15.44	61.2315
15.524	60.9339
15.608	61.0055
15.692	61.2732
15.776	61.2237
15.86	60.9712
15.944	60.9605
16.028	61.1894
16.112	61.3666
16.196	61.3142
16.28	61.0721
16.364	60.9311
16.448	61.1094
16.532	61.3949
16.616	61.422
16.7	61.1467
16.784	60.801
16.868	60.5645
16.952	60.4835
17.036	60.5757
17.12	60.8214
17.204	61.0785
17.288	61.1879
17.372	61.2033
17.456	61.3025
17.54	61.4552
17.624	61.4333
17.708	61.1785
17.792	60.8822
17.876	60.6979
17.96	60.6294
18.044	60.6745
18.128	60.8239
18.212	60.9958
18.296	61.1019
18.38	61.1368
18.464	61.1159
18.548	61.0151
18.632	60.8311
18.716	60.6213
18.8	60.4718
18.884	60.4743
18.968	60.6739
19.052	60.9592
19.136	61.0923
19.22	60.9275
19.304	60.5811
19.388	60.2942
19.472	60.1635
19.556	60.0996
19.64	60.0125
19.724	59.9183
19.808	59.8634
19.892	59.8527
19.976	59.8791
20.06	59.9723
20.144	60.1707
20.228	60.4347
20.312	60.6331
20.396	60.6417
20.48	60.4435
20.564	60.1332
20.648	59.8304
20.732	59.5964
20.816	59.4216
20.9	59.2868
20.984	59.2432
21.068	59.3793
21.152	59.7222
21.236	60.1827
21.32	60.628
21.404	60.9858
21.488	61.2735
21.572	61.53
21.656	61.7416
21.74	61.841
21.824	61.7609
21.908	61.4918
21.992	61.074
22.076	60.5521
22.16	59.9664
22.244	59.3728
22.328	58.8568
22.412	58.497
22.496	58.3086
22.58	58.2352
22.664	58.2043
22.748	58.173
22.832	58.1429
22.916	58.17
23	58.2978
23.084	58.5251
23.168	58.8091
23.252	59.0993
23.336	59.3592
23.42	59.5656
23.504	59.7253
23.588	59.8656
23.672	59.9992
23.756	60.089
23.84	60.0643
23.924	59.8819
24.008	59.631
24.092	59.595
24.176	60.1595
24.26	61.6823
24.344	64.2921
24.428	67.6881
24.512	71.0511
24.596	73.5028
24.68	74.481
24.764	74.0168
24.848	72.7784
24.932	71.7071
25.016	71.4533
25.1	72.0327
25.184	72.944
25.268	73.5206
25.352	73.3282
25.436	72.34
25.52	70.8543
25.604	69.1677
25.688	67.3237
25.772	65.0841
25.856	62.1952
25.94	58.6366
26.024	54.9549
26.108	52.3002
26.192	52.1968
26.276	55.9909
26.36	64.3204
26.444	76.4823
26.528	90.4684
26.612	103.538
26.696	113.029
26.78	117.271
26.864	115.991
26.948	110.181
27.028	102.047