File: Bakgrunnsmateriale/MATLAB/FTIR/ftir_data/subBb/Mapping_121/C-4040-8_t73_cm-1.asc
PE IR       SPECTRUM    SPECTRUM    ASCII       PEDS        1.60
  -1
C-1DE1~1.ASC
17/03/27
20:30:29.00
17/03/27
20:30:29.00
tln
$C-4040-8_t0073$<tbV0>[-2.6,2.6,8.0,0.0,27,1,0]
370
64

2002,4.07
MIRTGS : RIGHTBACK : INTERNAL 2
MIR : ON : INTERNAL 2
OPTKBR

0.200000
8
8.000000
FILLER
RATIO
SPECTRUM
UNLOCKED 256

DOUBLE
64
COMBINED
1
0
0

1.000000
RATIO

1
0
TRUE
51149
0
LEFT NOT FITTED RIGHT NOT FITTED 0
NONE
NONE
15600
12
4.427000
51148
TRUE
1 0 8 72 0 0 0 0

15798

#HDR
-1
-1
#GR
CM-1
%T
2.38419e-05
0.0
5000
-1.000000
4631
8
114.414
39.8467
#DATA
5000	64.7812
4984	65.359
4968	64.6834
4952	65.3261
4936	64.7328
4920	65.2961
4904	65.2799
4888	64.8067
4872	65.1002
4856	64.9036
4840	65.0939
4824	64.7324
4808	65.104
4792	65.2679
4776	64.8215
4760	65.0495
4744	64.9704
4728	64.6701
4712	65.3287
4696	64.6945
4680	65.0223
4664	65.2699
4648	64.8801
4632	65.3136
4616	64.7924
4600	64.853
4584	65.2038
4568	65.0258
4552	65.1372
4536	64.6426
4520	65.0817
4504	65.0649
4488	64.8243
4472	64.6779
4456	64.4647
4440	65.2065
4424	64.7842
4408	64.1158
4392	63.0742
4376	67.589
4360	65.4066
4344	65.6016
4328	65.4639
4312	65.0847
4296	65.158
4280	64.8443
4264	64.8113
4248	65.3444
4232	64.8755
4216	64.8174
4200	65.5827
4184	66.2486
4168	65.3234
4152	65.1837
4136	65.0435
4120	65.1042
4104	65.0814
4088	64.812
4072	64.7758
4056	65.0639
4040	65.3711
4024	65.3827
4008	65.0177
3992	65.0941
3976	65.3454
3960	65.3596
3944	65.1206
3928	65.0356
3912	65.1731
3896	65.1163
3880	64.9246
3864	65.3215
3848	64.8714
3832	65.2938
3816	65.0519
3800	65.3092
3784	65.3993
3768	65.1726
3752	65.0288
3736	65.1099
3720	65.3213
3704	65.0273
3688	65.2197
3672	65.2135
3656	65.2292
3640	65.2746
3624	65.3135
3608	65.2783
3592	65.3928
3576	65.3494
3560	65.1239
3544	65.1589
3528	65.4621
3512	65.3179
3496	65.1664
3480	65.1711
3464	65.0957
3448	65.3552
3432	65.0419
3416	65.5685
3400	64.88
3384	65.1671
3368	65.0724
3352	65.1945
3336	65.1531
3320	65.2494
3304	65.1735
3288	65.1493
3272	65.3298
3256	65.3608
3240	65.1005
3224	65.1093
3208	65.1749
3192	65.1659
3176	65.0541
3160	65.2158
3144	65.2177
3128	65.3698
3112	65.039
3096	65.3084
3080	65.1744
3064	65.2497
3048	65.2312
3032	65.395
3016	65.3088
3000	65.2116
2984	65.1068
2968	64.9039
2952	65.0543
2936	65.1231
2920	65.0046
2904	65.1633
2888	65.179
2872	65.2405
2856	64.9237
2840	65.0943
2824	65.2853
2808	65.1756
2792	65.209
2776	65.2172
2760	65.326
2744	65.3903
2728	65.3459
2712	65.3336
2696	65.4319
2680	65.2275
2664	65.3091
2648	65.3842
2632	65.4052
2616	65.3015
2600	65.2647
2584	65.24
2568	65.1779
2552	65.3434
2536	65.2008
2520	65.2556
2504	65.1572
2488	65.1567
2472	65.419
2456	65.3738
2440	65.4025
2424	65.0774
2408	65.4486
2392	65.3468
2376	65.1973
2360	65.3297
2344	65.3021
2328	65.3774
2312	65.4123
2296	65.267
2280	65.3465
2264	65.3311
2248	65.3265
2232	65.3795
2216	65.2858
2200	65.4233
2184	65.3598
2168	65.4225
2152	65.0228
2136	65.4558
2120	65.3159
2104	65.3662
2088	65.676
2072	65.5106
2056	65.3256
2040	65.3073
2024	65.2432
2008	65.3148
1992	65.2083
1976	65.2951
1960	65.454
1944	65.2607
1928	65.3969
1912	65.3684
1896	65.4447
1880	65.3825
1864	65.3306
1848	65.3096
1832	65.3516
1816	65.4562
1800	65.3481
1784	65.4431
1768	65.3545
1752	65.2439
1736	65.1574
1720	65.1358
1704	65.1877
1688	65.3066
1672	65.3002
1656	65.3137
1640	65.3215
1624	65.1656
1608	65.0849
1592	65.0448
1576	65.1848
1560	64.9482
1544	65.0033
1528	65.1717
1512	65.1833
1496	65.1968
1480	65.1929
1464	65.1512
1448	65.0284
1432	65.1232
1416	65.2781
1400	64.9823
1384	65.0308
1368	65.0038
1352	64.9551
1336	65.222
1320	65.0693
1304	65.1092
1288	65.117
1272	65.0541
1256	65.0194
1240	64.9425
1224	65.0527
1208	65.1271
1192	64.9924
1176	64.9081
1160	64.9913
1144	64.8403
1128	64.9547
1112	64.826
1096	64.9394
1080	64.9329
1064	64.7691
1048	64.654
1032	64.7372
1016	64.8555
1000	65.033
984	 64.6713
968	 65.7499
952	 64.9731
936	 64.9511
920	 64.7364
904	 64.6819
888	 64.5286
872	 64.6565
856	 64.3906
840	 64.6232
824	 64.3787
808	 64.3315
792	 64.1808
776	 64.3884
760	 64.6672
744	 63.9816
728	 63.8799
712	 64.1062
696	 63.7043
680	 63.5115
664	 62.8107
648	 63.2229
632	 63.0596
616	 62.7239
600	 62.8829
584	 63.1158
568	 62.7313
552	 62.7871
536	 62.147
520	 61.8209
504	 61.3201
488	 60.8184
472	 60.6037
456	 60.6617
440	 61.3328
424	 54.6661
408	 51.7799
392	 40.8043
376	 91.5818
370	 114.414