File: Bakgrunnsmateriale/MATLAB/FTIR/ftir_data/subBb/Mapping_121/C-4040-8_t95.asc
PE IR       SPECTRUM    SPECTRUM    ASCII       PEDS        1.60
  -1
C-B94E~1.ASC
17/03/27
22:19:06.00
17/03/27
22:19:32.00
tln
$C-4040-8_t0095$<tbV0>[-2.6,7.8,8.0,0.0,27,1,0]
27.028
64

2002,4.07
MIRTGS : RIGHTBACK : INTERNAL 2
MIR : ON : INTERNAL 2
OPTKBR

0.200000
8
8.000000
FILLER
RATIO
SPECTRUM
UNLOCKED 256

DOUBLE
64
COMBINED
1
0
0

0.002000
RATIO

1
0
TRUE
51149
0
LEFT NOT FITTED RIGHT NOT FITTED 0
NONE
NONE
15600
12
4.427000
51148
TRUE
1 0 8 72 0 0 0 0

15798

#HDR
-1
-1
#GR
µM
%T
2.38419e-05
0.0
2.000000
0.002000
12515
8
101.921
-17.6355
#DATA
2.000000	 65.4427
2.084000	 65.2294
2.168000	 65.5313
2.252000	 65.1585
2.336000	 64.9382
2.420000	 64.9276
2.504000	 65.2358
2.588000	 65.1926
2.672000	 65.2593
2.756000	 65.2708
2.840000	 65.2721
2.924000	 65.2628
3.008000	 65.2754
3.092000	 65.2072
3.176000	 65.1984
3.260000	 65.3031
3.344000	 65.5148
3.428000	 64.9403
3.512000	 64.9611
3.596000	 65.2811
3.680000	 65.1947
3.764000	 65.3393
3.848000	 65.2138
3.932000	 65.6066
4.016000	 65.5061
4.100000	 65.4894
4.184000	 65.2126
4.268000	 65.3332
4.352000	 65.4092
4.436000	 65.3153
4.520000	 65.2816
4.604000	 65.3483
4.688000	 65.5038
4.772000	 65.433
4.856000	 65.7738
4.940000	 65.3579
5.024000	 65.3289
5.108000	 65.487
5.192000	 65.2968
5.276000	 65.3692
5.359999	 65.2887
5.444000	 65.5032
5.528000	 65.3441
5.612000	 65.3241
5.696000	 65.1858
5.780000	 65.0019
5.864000	 65.427
5.948000	 65.2374
6.032000	 65.3283
6.116000	 65.352
6.200000	 65.2428
6.284000	 65.1489
6.368000	 65.0612
6.452000	 65.2012
6.536000	 65.1684
6.620000	 65.2204
6.704000	 65.1903
6.788000	 65.0844
6.872000	 65.2848
6.956000	 65.16
7.040000	 65.1381
7.124000	 65.406
7.208000	 65.2024
7.292000	 64.9212
7.376000	 65.1331
7.460000	 65.0971
7.544000	 65.2839
7.628000	 64.8424
7.712000	 65.1347
7.796000	 65.2408
7.880000	 65.0144
7.964000	 65.0325
8.048000	 64.9839
8.132000	 64.8622
8.216000	 64.9933
8.300000	 64.9315
8.384000	 65.046
8.468000	 64.8954
8.552000	 64.9991
8.635999	 64.9295
8.719999	 64.8957
8.804000	 64.9855
8.888000	 64.8444
8.972000	 64.9068
9.056000	 64.5817
9.140000	 64.6336
9.224000	 64.8511
9.308000	 65.0464
9.391999	 64.6275
9.475999	 64.6768
9.560000	 64.8996
9.644000	 64.5314
9.728000	 64.9522
9.812000	 65.0364
9.896000	 64.605
9.980000	 64.6728
10.064	64.4567
10.148	64.7644
10.232	64.6369
10.316	64.5509
10.4	64.6547
10.484	64.4295
10.568	64.6071
10.652	65.0453
10.736	64.885
10.82	64.5744
10.904	64.0225
10.988	64.2986
11.072	64.8773
11.156	64.7334
11.24	64.6515
11.324	64.2896
11.408	63.9786
11.492	64.2635
11.576	64.5342
11.66	64.5477
11.744	64.6948
11.828	64.4125
11.912	64.2264
11.996	64.4323
12.08	64.5025
12.164	64.1684
12.248	64.1237
12.332	64.1376
12.416	63.9306
12.5	64.0356
12.584	64.233
12.668	64.035
12.752	63.9296
12.836	64.0855
12.92	64.1217
13.004	64.0295
13.088	63.84
13.172	63.7966
13.256	64.1943
13.34	64.4452
13.424	64.5256
13.508	63.8339
13.592	63.3963
13.676	63.6441
13.76	63.6672
13.844	63.5942
13.928	63.6932
14.012	63.5645
14.096	63.4546
14.18	63.5482
14.264	63.4842
14.348	63.278
14.432	63.3645
14.516	63.6735
14.6	63.753
14.684	63.667
14.768	63.6804
14.852	63.6967
14.936	63.5112
15.02	63.1663
15.104	62.8678
15.188	62.7321
15.272	62.7882
15.356	62.9483
15.44	63.0341
15.524	63.0755
15.608	63.1414
15.692	63.0729
15.776	62.94
15.86	63.0173
15.944	63.2291
16.028	63.3352
16.112	63.2848
16.196	63.1576
16.28	63.0752
16.364	63.0218
16.448	62.8576
16.532	62.6459
16.616	62.5775
16.7	62.5987
16.784	62.5581
16.868	62.5159
16.952	62.5499
17.036	62.5721
17.12	62.557
17.204	62.6304
17.288	62.8334
17.372	63.0306
17.456	63.0554
17.54	62.827
17.624	62.4151
17.708	62.0174
17.792	61.823
17.876	61.8956
17.96	62.1174
18.044	62.2452
18.128	62.0939
18.212	61.7026
18.296	61.2874
18.38	61.0415
18.464	61.0376
18.548	61.239
18.632	61.5133
18.716	61.7051
18.8	61.7508
18.884	61.7061
18.968	61.6608
19.052	61.6672
19.136	61.7358
19.22	61.8454
19.304	61.9445
19.388	61.9984
19.472	62.0464
19.556	62.1536
19.64	62.3029
19.724	62.3767
19.808	62.259
19.892	61.9234
19.976	61.4386
20.06	60.9179
20.144	60.4741
20.228	60.1894
20.312	60.063
20.396	59.9942
20.48	59.8606
20.564	59.6363
20.648	59.4227
20.732	59.361
20.816	59.5265
20.9	59.8578
20.984	60.1882
21.068	60.3536
21.152	60.3078
21.236	60.1422
21.32	60.0125
21.404	60.0285
21.488	60.1974
21.572	60.4654
21.656	60.7839
21.74	61.1106
21.824	61.3729
21.908	61.4452
21.992	61.2114
22.076	60.6735
22.16	59.9946
22.244	59.4028
22.328	59.0362
22.412	58.8481
22.496	58.6497
22.58	58.3039
22.664	57.8387
22.748	57.4307
22.832	57.22
22.916	57.18
23	57.0548
23.084	56.5659
23.168	55.565
23.252	54.176
23.336	52.7956
23.42	51.858
23.504	51.6895
23.588	52.3616
23.672	53.6979
23.756	55.3429
23.84	56.896
23.924	58.0385
24.008	58.6098
24.092	58.6216
24.176	58.2552
24.26	57.7892
24.344	57.569
24.428	57.9085
24.512	59.0776
24.596	61.1625
24.68	64.1966
24.764	68.2298
24.848	73.0216
24.932	78.0677
25.016	82.7375
25.1	86.5028
25.184	88.894
25.268	89.6984
25.352	89.0684
25.436	87.7312
25.52	86.7448
25.604	87.0041
25.688	88.6493
25.772	91.0032
25.856	93.0771
25.94	94.5251
26.024	95.8071
26.108	97.7922
26.192	100.388
26.276	101.92
26.36	99.1112
26.444	88.8721
26.528	70.13
26.612	44.9587
26.696	18.2022
26.78	-3.879679
26.864	-16.0899
26.948	-16.1501
27.028	-6.242990