File: Bakgrunnsmateriale/MATLAB/FTIR/ftir_data/subBb/Mapping_121/C-4040-8_t105.asc
PE IR       SPECTRUM    SPECTRUM    ASCII       PEDS        1.60
  -1
C-80D6~1.ASC
17/03/27
23:05:52.00
17/03/27
23:06:18.00
tln
$C-4040-8_t0105$<tbV0>[0.0,10.4,8.0,0.0,27,1,0]
27.028
64

2002,4.07
MIRTGS : RIGHTBACK : INTERNAL 2
MIR : ON : INTERNAL 2
OPTKBR

0.200000
8
8.000000
FILLER
RATIO
SPECTRUM
UNLOCKED 256

DOUBLE
64
COMBINED
1
0
0

0.002000
RATIO

1
0
TRUE
51149
0
LEFT NOT FITTED RIGHT NOT FITTED 0
NONE
NONE
15600
12
4.427000
51148
TRUE
1 0 8 72 0 0 0 0

15798

#HDR
-1
-1
#GR
µM
%T
2.38419e-05
0.0
2.000000
0.002000
12515
8
201.33
41.7127
#DATA
2.000000	 64.6339
2.084000	 65.3553
2.168000	 64.9234
2.252000	 64.1549
2.336000	 63.9198
2.420000	 65.014
2.504000	 65.2314
2.588000	 65.1357
2.672000	 65.3704
2.756000	 65.0483
2.840000	 65.154
2.924000	 65.1975
3.008000	 65.1254
3.092000	 65.1083
3.176000	 65.1549
3.260000	 65.115
3.344000	 65.1745
3.428000	 64.931
3.512000	 64.841
3.596000	 65.232
3.680000	 65.2482
3.764000	 65.3191
3.848000	 65.127
3.932000	 65.2225
4.016000	 65.4994
4.100000	 65.1544
4.184000	 65.2776
4.268000	 65.2978
4.352000	 65.2001
4.436000	 65.2048
4.520000	 65.2575
4.604000	 65.3236
4.688000	 65.3445
4.772000	 65.1843
4.856000	 65.2836
4.940000	 65.2528
5.024000	 65.2009
5.108000	 65.3361
5.192000	 65.3563
5.276000	 65.2085
5.359999	 65.2298
5.444000	 65.416
5.528000	 65.2438
5.612000	 65.1417
5.696000	 65.2031
5.780000	 64.8331
5.864000	 65.2272
5.948000	 65.1675
6.032000	 65.1325
6.116000	 65.285
6.200000	 64.9755
6.284000	 65.1256
6.368000	 64.843
6.452000	 65.1657
6.536000	 65.0464
6.620000	 65.0069
6.704000	 65.0599
6.788000	 65.067
6.872000	 64.939
6.956000	 65.139
7.040000	 65.0636
7.124000	 65.2436
7.208000	 65.0254
7.292000	 65.0797
7.376000	 65.0856
7.460000	 64.955
7.544000	 65.0209
7.628000	 64.7753
7.712000	 65.1732
7.796000	 65.0152
7.880000	 64.87
7.964000	 65.1408
8.048000	 65.1019
8.132000	 64.9532
8.216000	 64.9105
8.300000	 64.9876
8.384000	 64.9558
8.468000	 64.9669
8.552000	 64.9693
8.635999	 64.9218
8.719999	 64.7801
8.804000	 64.6573
8.888000	 64.8385
8.972000	 64.9507
9.056000	 64.6448
9.140000	 64.4649
9.224000	 64.5839
9.308000	 64.7273
9.391999	 64.7863
9.475999	 64.5239
9.560000	 65.0198
9.644000	 64.7284
9.728000	 64.6355
9.812000	 64.582
9.896000	 64.4845
9.980000	 64.6189
10.064	64.5865
10.148	64.6908
10.232	64.6834
10.316	64.7679
10.4	64.6638
10.484	64.7185
10.568	64.7897
10.652	64.6562
10.736	64.6329
10.82	65.011
10.904	64.6846
10.988	64.3363
11.072	64.5678
11.156	64.6572
11.24	64.607
11.324	64.2815
11.408	64.3289
11.492	64.838
11.576	64.4076
11.66	64.2821
11.744	64.488
11.828	64.5024
11.912	64.6194
11.996	64.3027
12.08	64.2374
12.164	64.1197
12.248	64.402
12.332	64.465
12.416	64.117
12.5	64.2314
12.584	64.3974
12.668	64.1355
12.752	63.8673
12.836	63.8503
12.92	64.0636
13.004	64.2252
13.088	63.9881
13.172	63.6951
13.256	63.9396
13.34	63.8804
13.424	63.1999
13.508	62.8823
13.592	63.2789
13.676	63.6926
13.76	63.676
13.844	63.5592
13.928	63.503
14.012	63.3498
14.096	63.3339
14.18	63.3632
14.264	63.1957
14.348	63.1245
14.432	63.2672
14.516	63.2593
14.6	63.3099
14.684	63.5118
14.768	63.4036
14.852	63.0426
14.936	62.8294
15.02	62.9338
15.104	63.1524
15.188	63.2415
15.272	63.2154
15.356	63.1602
15.44	63.072
15.524	62.8831
15.608	62.5582
15.692	62.235
15.776	62.182
15.86	62.4818
15.944	62.9378
16.028	63.1947
16.112	63.0091
16.196	62.5488
16.28	62.2075
16.364	62.1115
16.448	62.0906
16.532	62.0462
16.616	62.0903
16.7	62.298
16.784	62.5133
16.868	62.55
16.952	62.422
17.036	62.2755
17.12	62.1888
17.204	62.1469
17.288	62.189
17.372	62.3566
17.456	62.5298
17.54	62.5347
17.624	62.3982
17.708	62.2738
17.792	62.2069
17.876	62.159
17.96	62.0874
18.044	61.9406
18.128	61.7396
18.212	61.6275
18.296	61.7004
18.38	61.8574
18.464	61.9436
18.548	61.9467
18.632	61.9244
18.716	61.8706
18.8	61.7625
18.884	61.6412
18.968	61.5633
19.052	61.5112
19.136	61.4133
19.22	61.2427
19.304	61.0531
19.388	60.9374
19.472	60.9568
19.556	61.0893
19.64	61.2292
19.724	61.2661
19.808	61.1734
19.892	61.0186
19.976	60.8952
20.06	60.8601
20.144	60.9325
20.228	61.1203
20.312	61.4098
20.396	61.7233
20.48	61.9246
20.564	61.9084
20.648	61.6856
20.732	61.3801
20.816	61.1234
20.9	60.9526
20.984	60.8012
21.068	60.5895
21.152	60.3067
21.236	60.0028
21.32	59.7091
21.404	59.3969
21.488	59.0306
21.572	58.6448
21.656	58.3573
21.74	58.2829
21.824	58.4386
21.908	58.7224
21.992	59.0009
22.076	59.2096
22.16	59.375
22.244	59.5498
22.328	59.737
22.412	59.8838
22.496	59.9358
22.58	59.9015
22.664	59.8374
22.748	59.8003
22.832	59.7947
22.916	59.7482
23	59.5611
23.084	59.193
23.168	58.6744
23.252	58.0985
23.336	57.6081
23.42	57.2663
23.504	57.0719
23.588	56.9963
23.672	57.0118
23.756	57.0807
23.84	57.1807
23.924	57.2505
24.008	57.1675
24.092	56.7435
24.176	55.7576
24.26	54.1118
24.344	51.9785
24.428	49.784
24.512	48.0155
24.596	47.2294
24.68	47.9699
24.764	50.5412
24.848	55.1272
24.932	61.2514
25.016	67.623
25.1	72.4238
25.184	74.217
25.268	72.7515
25.352	68.9842
25.436	64.2439
25.52	59.4359
25.604	54.7359
25.688	50.1077
25.772	45.8478
25.856	42.8258
25.94	41.7135
26.024	42.7435
26.108	45.6474
26.192	50.995
26.276	60.402
26.36	76.2487
26.444	99.8147
26.528	129.923
26.612	162.452
26.696	190.9
26.78	200.899
26.864	200
26.948	200.175
27.028	195.093