File: Bakgrunnsmateriale/MATLAB/FTIR/ftir_data/subBb/Mapping_121/C-4040-8_t106_cm-1.asc
PE IR       SPECTRUM    SPECTRUM    ASCII       PEDS        1.60
  -1
C-4B8C~1.ASC
17/03/27
23:10:29.00
17/03/27
23:10:29.00
tln
$C-4040-8_t0106$<tbV0>[-2.6,10.4,8.0,0.0,27,1,0]
370
64

2002,4.07
MIRTGS : RIGHTBACK : INTERNAL 2
MIR : ON : INTERNAL 2
OPTKBR

0.200000
8
8.000000
FILLER
RATIO
SPECTRUM
UNLOCKED 256

DOUBLE
64
COMBINED
1
0
0

1.000000
RATIO

1
0
TRUE
51149
0
LEFT NOT FITTED RIGHT NOT FITTED 0
NONE
NONE
15600
12
4.427000
51148
TRUE
1 0 8 72 0 0 0 0

15798

#HDR
-1
-1
#GR
CM-1
%T
2.38419e-05
0.0
5000
-1.000000
4631
8
180.946
22.6853
#DATA
5000	65.4725
4984	64.5527
4968	65.224
4952	65.3492
4936	64.9128
4920	64.9634
4904	65.4091
4888	64.8539
4872	65.0355
4856	65.4153
4840	65.235
4824	65.2203
4808	65.0396
4792	65.0513
4776	65.1367
4760	65.2819
4744	64.6748
4728	65.1987
4712	65.2523
4696	65.5842
4680	65.4225
4664	65.0466
4648	65.6935
4632	65.3016
4616	65.253
4600	65.0492
4584	65.1549
4568	65.3171
4552	65.2914
4536	64.3077
4520	64.8556
4504	64.8637
4488	64.67
4472	64.4501
4456	64.2931
4440	64.8798
4424	64.2397
4408	65.4855
4392	61.5105
4376	67.2898
4360	63.8769
4344	65.1213
4328	64.4869
4312	64.8926
4296	64.7174
4280	64.7473
4264	65.1575
4248	64.6945
4232	65.2324
4216	65.078
4200	64.9368
4184	65.0075
4168	64.8417
4152	65.0073
4136	65.2702
4120	65.177
4104	65.345
4088	65.2125
4072	65.0512
4056	65.3479
4040	65.1088
4024	65.0939
4008	65.164
3992	65.1669
3976	65.1184
3960	65.2603
3944	65.0829
3928	65.1281
3912	65.2591
3896	65.0283
3880	65.1669
3864	65.4626
3848	64.916
3832	65.1038
3816	65.322
3800	65.1137
3784	65.1953
3768	65.3916
3752	65.3413
3736	65.2299
3720	65.3498
3704	65.3362
3688	65.4962
3672	65.4128
3656	65.4557
3640	65.2731
3624	65.3056
3608	65.2455
3592	65.3555
3576	65.3925
3560	65.574
3544	65.037
3528	65.3651
3512	65.4541
3496	65.2548
3480	64.9794
3464	65.1238
3448	65.0906
3432	65.5432
3416	65.3319
3400	65.3669
3384	65.1719
3368	65.2106
3352	65.1081
3336	65.301
3320	65.2108
3304	65.1498
3288	65.2053
3272	65.2229
3256	65.2915
3240	65.1534
3224	65.3612
3208	65.3822
3192	65.1423
3176	65.3363
3160	65.3605
3144	65.2553
3128	65.4661
3112	65.5848
3096	65.44
3080	65.0636
3064	65.1629
3048	65.2492
3032	65.5517
3016	65.3794
3000	65.3457
2984	65.1583
2968	65.2027
2952	65.2612
2936	65.4085
2920	64.9785
2904	65.235
2888	65.1569
2872	65.125
2856	65.0516
2840	65.2801
2824	65.1958
2808	65.1714
2792	65.4198
2776	65.3004
2760	65.2443
2744	65.293
2728	65.3677
2712	65.3622
2696	65.3461
2680	65.3446
2664	65.4814
2648	65.3014
2632	65.2447
2616	65.3286
2600	65.2065
2584	65.2592
2568	65.2863
2552	65.3067
2536	65.4117
2520	65.2611
2504	65.3031
2488	65.4817
2472	65.4909
2456	65.351
2440	65.2614
2424	65.3957
2408	65.529
2392	65.3155
2376	65.3816
2360	65.4564
2344	65.3469
2328	65.2694
2312	65.3649
2296	65.3665
2280	65.3663
2264	65.3704
2248	65.3815
2232	65.38
2216	65.4116
2200	65.3023
2184	65.4752
2168	65.5376
2152	65.4812
2136	65.2487
2120	65.3434
2104	65.348
2088	65.1215
2072	65.588
2056	65.3312
2040	65.3563
2024	65.3708
2008	65.3204
1992	65.2431
1976	65.363
1960	65.2826
1944	65.3522
1928	65.5092
1912	65.2041
1896	65.368
1880	65.3306
1864	65.3438
1848	65.4272
1832	65.4165
1816	65.3885
1800	65.3467
1784	65.3712
1768	65.3643
1752	65.1815
1736	65.1667
1720	64.9014
1704	65.2699
1688	65.1481
1672	65.3975
1656	65.1477
1640	65.3033
1624	65.1492
1608	65.1937
1592	65.0154
1576	65.085
1560	65.0748
1544	65.2327
1528	65.0839
1512	65.1363
1496	65.4309
1480	65.0536
1464	65.3308
1448	65.2083
1432	64.9597
1416	65.0944
1400	65.2731
1384	64.9645
1368	64.9826
1352	65.1124
1336	64.9695
1320	65.0307
1304	65.0439
1288	65.0887
1272	64.976
1256	65.1461
1240	64.9543
1224	65.0128
1208	64.9452
1192	64.9686
1176	65.0972
1160	64.8822
1144	64.8523
1128	64.8395
1112	64.9065
1096	64.5215
1080	64.8684
1064	64.6428
1048	64.8246
1032	64.4666
1016	64.4202
1000	64.7224
984	 64.7582
968	 64.6297
952	 64.6045
936	 64.4345
920	 64.9198
904	 64.7576
888	 64.7212
872	 65.127
856	 64.3612
840	 64.0407
824	 63.9182
808	 64.014
792	 63.9693
776	 63.591
760	 63.75
744	 63.7476
728	 63.5683
712	 63.4842
696	 63.3132
680	 63.2878
664	 62.5955
648	 63.002
632	 63.0265
616	 62.5803
600	 62.4908
584	 62.1515
568	 61.7534
552	 62.3061
536	 61.3161
520	 60.4994
504	 60.8872
488	 61.2355
472	 61.07
456	 59.1656
440	 58.7053
424	 60.5035
408	 58.3305
392	 62.1407
376	 72.2346
370	 180.946