File: Bakgrunnsmateriale/MATLAB/FTIR/ftir_data/subBb/Mapping_121/C-4040-8_t117.asc
PE IR       SPECTRUM    SPECTRUM    ASCII       PEDS        1.60
  -1
C-88D8~1.ASC
17/03/28
00:21:56.00
17/03/28
00:22:22.00
tln
$C-4040-8_t0117$<tbV0>[-2.6,13.0,8.0,0.0,27,1,0]
27.028
64

2002,4.07
MIRTGS : RIGHTBACK : INTERNAL 2
MIR : ON : INTERNAL 2
OPTKBR

0.200000
8
8.000000
FILLER
RATIO
SPECTRUM
UNLOCKED 256

DOUBLE
64
COMBINED
1
0
0

0.002000
RATIO

1
0
TRUE
51149
0
LEFT NOT FITTED RIGHT NOT FITTED 0
NONE
NONE
15600
12
4.427000
51148
TRUE
1 0 8 72 0 0 0 0

15798

#HDR
-1
-1
#GR
µM
%T
2.38419e-05
0.0
2.000000
0.002000
12515
8
89.8925
22.7808
#DATA
2.000000	 64.5975
2.084000	 64.7755
2.168000	 64.89
2.252000	 65.9122
2.336000	 64.9786
2.420000	 64.9993
2.504000	 65.231
2.588000	 65.3324
2.672000	 65.0607
2.756000	 65.3008
2.840000	 65.3739
2.924000	 65.2399
3.008000	 65.1263
3.092000	 65.155
3.176000	 65.1065
3.260000	 65.291
3.344000	 65.2544
3.428000	 64.597
3.512000	 65.1237
3.596000	 65.1063
3.680000	 65.2814
3.764000	 65.0996
3.848000	 65.2042
3.932000	 65.2953
4.016000	 65.1308
4.100000	 65.1302
4.184000	 65.4156
4.268000	 65.3312
4.352000	 65.3501
4.436000	 65.3009
4.520000	 65.3447
4.604000	 65.2806
4.688000	 65.2306
4.772000	 65.2941
4.856000	 65.5777
4.940000	 65.2341
5.024000	 65.1597
5.108000	 65.3088
5.192000	 65.1669
5.276000	 65.1652
5.359999	 65.1263
5.444000	 65.128
5.528000	 65.1202
5.612000	 65.2745
5.696000	 65.026
5.780000	 64.9034
5.864000	 64.9464
5.948000	 65.0796
6.032000	 65.1059
6.116000	 65.0037
6.200000	 64.9099
6.284000	 65.0157
6.368000	 64.9637
6.452000	 65.0238
6.536000	 65.2261
6.620000	 65.1038
6.704000	 65.1409
6.788000	 65.0663
6.872000	 65.1236
6.956000	 65.1125
7.040000	 64.7742
7.124000	 64.9587
7.208000	 64.9714
7.292000	 64.8605
7.376000	 64.9425
7.460000	 64.9514
7.544000	 65.023
7.628000	 65.0177
7.712000	 64.8556
7.796000	 64.9005
7.880000	 64.8018
7.964000	 64.8273
8.048000	 64.8084
8.132000	 64.8221
8.216000	 64.8725
8.300000	 64.7407
8.384000	 64.8009
8.468000	 64.8072
8.552000	 64.7841
8.635999	 64.6763
8.719999	 64.6041
8.804000	 64.7917
8.888000	 64.6353
8.972000	 64.7703
9.056000	 65.4612
9.140000	 64.8817
9.224000	 64.8241
9.308000	 64.8071
9.391999	 64.7187
9.475999	 64.6321
9.560000	 64.9402
9.644000	 64.5642
9.728000	 64.2518
9.812000	 64.24
9.896000	 64.8911
9.980000	 64.616
10.064	64.5055
10.148	64.7229
10.232	64.4
10.316	64.1536
10.4	64.5909
10.484	64.5691
10.568	64.487
10.652	64.2946
10.736	64.4882
10.82	64.5119
10.904	64.6433
10.988	64.501
11.072	64.4004
11.156	63.9713
11.24	64.0475
11.324	63.9528
11.408	64.1734
11.492	64.2286
11.576	64.2109
11.66	63.8462
11.744	64.1372
11.828	64.1645
11.912	64.1879
11.996	64.2127
12.08	63.336
12.164	63.3344
12.248	64.5335
12.332	64.7388
12.416	64.5413
12.5	63.7236
12.584	64.1342
12.668	64.0743
12.752	63.7593
12.836	63.8946
12.92	63.8196
13.004	63.8126
13.088	63.6952
13.172	63.5674
13.256	64.0842
13.34	64.5894
13.424	64.338
13.508	63.9065
13.592	63.7299
13.676	63.3354
13.76	63.1294
13.844	63.4327
13.928	63.4063
14.012	63.1485
14.096	63.114
14.18	63.0789
14.264	63.0059
14.348	63.0354
14.432	62.975
14.516	62.9113
14.6	62.9865
14.684	63.0433
14.768	63.0206
14.852	62.9228
14.936	62.8096
15.02	62.6116
15.104	62.3073
15.188	62.1723
15.272	62.278
15.356	62.5316
15.44	62.751
15.524	62.6369
15.608	62.413
15.692	62.5434
15.776	62.8947
15.86	63.0613
15.944	62.9525
16.028	62.7458
16.112	62.5604
16.196	62.3854
16.28	62.2689
16.364	62.2512
16.448	62.2324
16.532	62.1414
16.616	62.0206
16.7	61.9301
16.784	61.9128
16.868	61.9072
16.952	61.7697
17.036	61.4548
17.12	61.1177
17.204	61.0205
17.288	61.2985
17.372	61.797
17.456	62.1698
17.54	62.1815
17.624	61.9015
17.708	61.6003
17.792	61.485
17.876	61.5404
17.96	61.6428
18.044	61.73
18.128	61.7856
18.212	61.7915
18.296	61.7632
18.38	61.7345
18.464	61.6976
18.548	61.5969
18.632	61.4201
18.716	61.2141
18.8	61.0252
18.884	60.8633
18.968	60.724
19.052	60.6252
19.136	60.6413
19.22	60.8523
19.304	61.1921
19.388	61.4015
19.472	61.224
19.556	60.6631
19.64	60.0112
19.724	59.5975
19.808	59.5215
19.892	59.644
19.976	59.7899
20.06	59.9058
20.144	60.027
20.228	60.1522
20.312	60.2051
20.396	60.1261
20.48	59.9575
20.564	59.8007
20.648	59.7045
20.732	59.6177
20.816	59.4793
20.9	59.3229
20.984	59.2642
21.068	59.3841
21.152	59.6309
21.236	59.8596
21.32	59.9574
21.404	59.9371
21.488	59.9065
21.572	59.9445
21.656	60.0093
21.74	59.9664
21.824	59.7096
21.908	59.2673
21.992	58.7722
22.076	58.35
22.16	58.0536
22.244	57.8867
22.328	57.8524
22.412	57.9746
22.496	58.2565
22.58	58.6457
22.664	59.0495
22.748	59.3645
22.832	59.5232
22.916	59.5218
23	59.4181
23.084	59.2932
23.168	59.232
23.252	59.2819
23.336	59.4316
23.42	59.6157
23.504	59.7008
23.588	59.5534
23.672	59.1011
23.756	58.3487
23.84	57.4162
23.924	56.495
24.008	55.8245
24.092	55.6628
24.176	56.1768
24.26	57.3233
24.344	58.8536
24.428	60.4102
24.512	61.5443
24.596	61.9884
24.68	61.668
24.764	60.6425
24.848	59.0791
24.932	57.1193
25.016	54.8022
25.1	52.0781
25.184	48.9438
25.268	45.5075
25.352	41.9507
25.436	38.4174
25.52	34.932
25.604	31.4361
25.688	28.0137
25.772	25.0346
25.856	23.1346
25.94	22.9782
26.024	25.1059
26.108	29.7085
26.192	36.6436
26.276	45.4848
26.36	55.5701
26.444	66.0178
26.528	75.7615
26.612	83.6441
26.696	88.574
26.78	89.8309
26.864	87.2465
26.948	81.3001
27.028	73.6132