File: Bakgrunnsmateriale/MATLAB/FTIR/ftir_data/subBb/Mapping_121/C-4040-8_t116.asc
PE IR       SPECTRUM    SPECTRUM    ASCII       PEDS        1.60
  -1
C-84D8~1.ASC
17/03/28
00:17:19.00
17/03/28
00:17:45.00
tln
$C-4040-8_t0116$<tbV0>[0.0,13.0,8.0,0.0,27,1,0]
27.028
64

2002,4.07
MIRTGS : RIGHTBACK : INTERNAL 2
MIR : ON : INTERNAL 2
OPTKBR

0.200000
8
8.000000
FILLER
RATIO
SPECTRUM
UNLOCKED 256

DOUBLE
64
COMBINED
1
0
0

0.002000
RATIO

1
0
TRUE
51149
0
LEFT NOT FITTED RIGHT NOT FITTED 0
NONE
NONE
15600
12
4.427000
51148
TRUE
1 0 8 72 0 0 0 0

15798

#HDR
-1
-1
#GR
µM
%T
2.38419e-05
0.0
2.000000
0.002000
12515
8
88.4333
32.643
#DATA
2.000000	 64.556
2.084000	 64.7554
2.168000	 64.6023
2.252000	 64.9021
2.336000	 65.2174
2.420000	 65.0327
2.504000	 64.9894
2.588000	 64.9494
2.672000	 65.1071
2.756000	 65.2035
2.840000	 65.1876
2.924000	 65.0099
3.008000	 65.0112
3.092000	 65.082
3.176000	 65.1574
3.260000	 65.1345
3.344000	 65.2239
3.428000	 64.7309
3.512000	 65.1665
3.596000	 65.046
3.680000	 65.1162
3.764000	 65.1897
3.848000	 65.1142
3.932000	 65.2554
4.016000	 64.9831
4.100000	 65.1803
4.184000	 65.3414
4.268000	 65.2581
4.352000	 65.2186
4.436000	 65.0978
4.520000	 65.3158
4.604000	 65.3145
4.688000	 65.3205
4.772000	 65.2615
4.856000	 65.2364
4.940000	 65.2382
5.024000	 65.0943
5.108000	 65.2944
5.192000	 65.0549
5.276000	 65.1844
5.359999	 65.1223
5.444000	 65.0666
5.528000	 65.0157
5.612000	 65.1006
5.696000	 65.1995
5.780000	 64.8617
5.864000	 65.1342
5.948000	 65.0519
6.032000	 65.0381
6.116000	 65.0278
6.200000	 65.0746
6.284000	 65.0243
6.368000	 64.9278
6.452000	 64.9273
6.536000	 65.1564
6.620000	 65.0664
6.704000	 65.2612
6.788000	 65.0025
6.872000	 65.0785
6.956000	 65.0099
7.040000	 64.874
7.124000	 64.8847
7.208000	 64.9073
7.292000	 64.9483
7.376000	 64.8945
7.460000	 64.9004
7.544000	 64.808
7.628000	 65.0288
7.712000	 64.7743
7.796000	 64.7298
7.880000	 64.8858
7.964000	 64.6856
8.048000	 64.7716
8.132000	 64.8144
8.216000	 64.9239
8.300000	 64.8258
8.384000	 64.7928
8.468000	 64.9921
8.552000	 64.6535
8.635999	 64.5862
8.719999	 64.8212
8.804000	 64.6993
8.888000	 64.7982
8.972000	 64.8881
9.056000	 64.9739
9.140000	 64.752
9.224000	 65.0147
9.308000	 64.8658
9.391999	 64.83
9.475999	 64.5632
9.560000	 64.7668
9.644000	 64.6528
9.728000	 64.4725
9.812000	 64.7516
9.896000	 64.6864
9.980000	 64.5371
10.064	64.6586
10.148	64.6439
10.232	64.5819
10.316	64.4894
10.4	64.5479
10.484	64.4337
10.568	64.4599
10.652	64.4106
10.736	64.7095
10.82	64.4765
10.904	64.3137
10.988	64.3403
11.072	64.6863
11.156	64.4487
11.24	64.0058
11.324	63.8697
11.408	64.204
11.492	64.0347
11.576	63.8904
11.66	63.5061
11.744	63.9859
11.828	64.0866
11.912	64.3011
11.996	64.3248
12.08	63.9017
12.164	63.3744
12.248	63.6853
12.332	63.7882
12.416	63.7822
12.5	63.9866
12.584	64.2473
12.668	64.385
12.752	64.1561
12.836	64.2735
12.92	64.235
13.004	63.8816
13.088	63.7064
13.172	63.5739
13.256	63.2667
13.34	63.3259
13.424	63.8133
13.508	64.0864
13.592	63.7933
13.676	63.249
13.76	63.1888
13.844	63.3036
13.928	63.406
14.012	63.3966
14.096	63.1703
14.18	63.1204
14.264	63.2666
14.348	63.3244
14.432	63.2456
14.516	63.2245
14.6	63.0356
14.684	62.6677
14.768	62.5432
14.852	62.7113
14.936	62.9697
15.02	63.0165
15.104	62.7899
15.188	62.619
15.272	62.5731
15.356	62.4413
15.44	62.2273
15.524	62.086
15.608	62.1484
15.692	62.4065
15.776	62.6209
15.86	62.6348
15.944	62.5885
16.028	62.5966
16.112	62.5285
16.196	62.2901
16.28	62.0804
16.364	62.1583
16.448	62.4391
16.532	62.5317
16.616	62.2956
16.7	62.072
16.784	62.1374
16.868	62.2992
16.952	62.2583
17.036	62.0139
17.12	61.7429
17.204	61.5809
17.288	61.6067
17.372	61.8208
17.456	62.0643
17.54	62.1244
17.624	61.9554
17.708	61.6991
17.792	61.4855
17.876	61.3393
17.96	61.2874
18.044	61.3814
18.128	61.5664
18.212	61.7311
18.296	61.8773
18.38	62.0645
18.464	62.2202
18.548	62.1788
18.632	61.9093
18.716	61.5479
18.8	61.2282
18.884	60.9886
18.968	60.8407
19.052	60.789
19.136	60.7875
19.22	60.7556
19.304	60.6621
19.388	60.5197
19.472	60.301
19.556	59.9517
19.64	59.5199
19.724	59.1952
19.808	59.152
19.892	59.3649
19.976	59.6323
20.06	59.7751
20.144	59.7794
20.228	59.7392
20.312	59.7157
20.396	59.6794
20.48	59.5589
20.564	59.3251
20.648	59.0329
20.732	58.7925
20.816	58.7129
20.9	58.8403
20.984	59.1399
21.068	59.515
21.152	59.8648
21.236	60.1338
21.32	60.3237
21.404	60.4718
21.488	60.5991
21.572	60.6945
21.656	60.7212
21.74	60.639
21.824	60.4234
21.908	60.0738
21.992	59.6154
22.076	59.0941
22.16	58.5625
22.244	58.0658
22.328	57.633
22.412	57.2997
22.496	57.1181
22.58	57.1744
22.664	57.5567
22.748	58.2595
22.832	59.1347
22.916	59.9554
23	60.4685
23.084	60.5629
23.168	60.2893
23.252	59.7906
23.336	59.2346
23.42	58.728
23.504	58.273
23.588	57.8613
23.672	57.5095
23.756	57.1748
23.84	56.7672
23.924	56.1801
24.008	55.364
24.092	54.4578
24.176	53.9108
24.26	54.3088
24.344	56.177
24.428	59.6841
24.512	64.555
24.596	70.0936
24.68	75.3794
24.764	79.543
24.848	82.0568
24.932	82.4955
25.016	80.5162
25.1	75.8963
25.184	68.6908
25.268	59.5106
25.352	49.5878
25.436	40.6752
25.52	34.5826
25.604	32.6692
25.688	35.7207
25.772	43.5769
25.856	55.0667
25.94	68.0192
26.024	79.5359
26.108	86.8063
26.192	88.209
26.276	83.7706
26.36	75.1551
26.444	65.1002
26.528	56.4205
26.612	51.029
26.696	49.6825
26.78	51.9908
26.864	56.8314
26.948	62.859
27.028	68.5313