File: Bakgrunnsmateriale/MATLAB/FTIR/ftir_data/subBb/Mapping_121/C-4040-8_t109.asc
PE IR       SPECTRUM    SPECTRUM    ASCII       PEDS        1.60
  -1
C-80E6~1.ASC
17/03/27
23:24:19.00
17/03/27
23:24:46.00
tln
$C-4040-8_t0109$<tbV0>[-10.4,10.4,8.0,0.0,27,1,0]
27.028
64

2002,4.07
MIRTGS : RIGHTBACK : INTERNAL 2
MIR : ON : INTERNAL 2
OPTKBR

0.200000
8
8.000000
FILLER
RATIO
SPECTRUM
UNLOCKED 256

DOUBLE
64
COMBINED
1
0
0

0.002000
RATIO

1
0
TRUE
51149
0
LEFT NOT FITTED RIGHT NOT FITTED 0
NONE
NONE
15600
12
4.427000
51148
TRUE
1 0 8 72 0 0 0 0

15798

#HDR
-1
-1
#GR
µM
%T
2.38419e-05
0.0
2.000000
0.002000
12515
8
177.474
31.6143
#DATA
2.000000	 65.0567
2.084000	 65.0787
2.168000	 65.1066
2.252000	 63.8068
2.336000	 64.7215
2.420000	 65.1058
2.504000	 65.1977
2.588000	 65.1859
2.672000	 65.2731
2.756000	 65.2512
2.840000	 65.356
2.924000	 65.2157
3.008000	 65.1588
3.092000	 65.135
3.176000	 65.1566
3.260000	 65.237
3.344000	 65.0047
3.428000	 64.7356
3.512000	 65.2279
3.596000	 65.2185
3.680000	 65.4269
3.764000	 65.3651
3.848000	 65.3386
3.932000	 65.2086
4.016000	 65.1951
4.100000	 65.1137
4.184000	 65.2877
4.268000	 65.3452
4.352000	 65.3383
4.436000	 65.3197
4.520000	 65.3379
4.604000	 65.3698
4.688000	 65.2807
4.772000	 65.1992
4.856000	 65.4894
4.940000	 65.2743
5.024000	 65.2862
5.108000	 65.218
5.192000	 65.1983
5.276000	 65.2423
5.359999	 65.2604
5.444000	 65.3166
5.528000	 65.1864
5.612000	 65.1515
5.696000	 65.1099
5.780000	 65.0962
5.864000	 65.0549
5.948000	 65.2552
6.032000	 65.2845
6.116000	 65.2556
6.200000	 65.11
6.284000	 65.0347
6.368000	 64.8271
6.452000	 65.0492
6.536000	 65.1589
6.620000	 65.1846
6.704000	 65.3867
6.788000	 65.0047
6.872000	 65.1071
6.956000	 64.9452
7.040000	 65.1196
7.124000	 65.0353
7.208000	 65.1623
7.292000	 64.9686
7.376000	 65.0044
7.460000	 65.1209
7.544000	 65.1396
7.628000	 64.7906
7.712000	 65.0699
7.796000	 65.0507
7.880000	 64.9128
7.964000	 64.9637
8.048000	 65.0562
8.132000	 64.8831
8.216000	 64.9725
8.300000	 64.8448
8.384000	 64.7646
8.468000	 64.8453
8.552000	 65.0175
8.635999	 65.034
8.719999	 64.7377
8.804000	 65.0271
8.888000	 64.6615
8.972000	 64.8715
9.056000	 64.6432
9.140000	 64.0692
9.224000	 64.2309
9.308000	 64.6977
9.391999	 64.6188
9.475999	 64.3115
9.560000	 64.4998
9.644000	 64.547
9.728000	 64.3904
9.812000	 64.179
9.896000	 64.4144
9.980000	 64.6126
10.064	64.472
10.148	64.3636
10.232	64.533
10.316	64.6686
10.4	64.6434
10.484	64.4075
10.568	64.352
10.652	64.4522
10.736	64.494
10.82	64.63
10.904	64.454
10.988	64.6142
11.072	64.5328
11.156	64.3991
11.24	64.0056
11.324	63.79
11.408	63.9269
11.492	64.1116
11.576	63.9767
11.66	63.7007
11.744	63.6083
11.828	63.91
11.912	64.1558
11.996	63.7235
12.08	63.4147
12.164	63.6967
12.248	64.0632
12.332	64.1334
12.416	64.0232
12.5	64.2477
12.584	64.1516
12.668	64.011
12.752	64.0214
12.836	63.9674
12.92	63.7849
13.004	63.723
13.088	63.8738
13.172	63.7439
13.256	63.8294
13.34	64.1068
13.424	63.7543
13.508	62.9571
13.592	63.0277
13.676	63.3646
13.76	63.2888
13.844	63.2349
13.928	63.3209
14.012	63.3664
14.096	63.3504
14.18	63.2952
14.264	63.2268
14.348	63.0273
14.432	62.9509
14.516	63.0873
14.6	63.1436
14.684	63.0153
14.768	62.823
14.852	62.6907
14.936	62.6374
15.02	62.5523
15.104	62.3126
15.188	62.0742
15.272	62.0155
15.356	62.1408
15.44	62.3199
15.524	62.4002
15.608	62.5187
15.692	62.7219
15.776	62.8115
15.86	62.8666
15.944	63.0067
16.028	63.0692
16.112	62.9333
16.196	62.6288
16.28	62.2641
16.364	62.0473
16.448	62.1416
16.532	62.504
16.616	62.8409
16.7	62.8091
16.784	62.4358
16.868	62.1028
16.952	62.0378
17.036	62.0872
17.12	62.0402
17.204	61.917
17.288	61.8672
17.372	61.9033
17.456	61.9199
17.54	61.9235
17.624	62.004
17.708	62.1378
17.792	62.2616
17.876	62.433
17.96	62.6537
18.044	62.6971
18.128	62.3888
18.212	61.9045
18.296	61.5843
18.38	61.5501
18.464	61.6302
18.548	61.5934
18.632	61.3689
18.716	61.0747
18.8	60.8791
18.884	60.8508
18.968	60.9372
19.052	61.0626
19.136	61.1788
19.22	61.2482
19.304	61.2575
19.388	61.2585
19.472	61.3379
19.556	61.5017
19.64	61.6065
19.724	61.4689
19.808	61.0448
19.892	60.4918
19.976	60.0688
20.06	59.9597
20.144	60.149
20.228	60.4414
20.312	60.6122
20.396	60.57
20.48	60.3832
20.564	60.1854
20.648	60.0474
20.732	59.9403
20.816	59.8213
20.9	59.6921
20.984	59.584
21.068	59.4948
21.152	59.3685
21.236	59.1454
21.32	58.8298
21.404	58.5237
21.488	58.3978
21.572	58.5942
21.656	59.139
21.74	59.8842
21.824	60.5072
21.908	60.6477
21.992	60.1343
22.076	59.1109
22.16	57.9964
22.244	57.216
22.328	56.9511
22.412	57.1138
22.496	57.43
22.58	57.6511
22.664	57.6426
22.748	57.3987
22.832	56.9962
22.916	56.5316
23	56.0994
23.084	55.8176
23.168	55.7832
23.252	56.0406
23.336	56.6186
23.42	57.4806
23.504	58.4721
23.588	59.3764
23.672	59.9651
23.756	59.9779
23.84	59.2315
23.924	57.7437
24.008	55.7403
24.092	53.5769
24.176	51.6378
24.26	50.0974
24.344	48.966
24.428	48.2759
24.512	48.2531
24.596	49.4578
24.68	52.5194
24.764	57.6087
24.848	64.2341
24.932	70.8152
25.016	75.1072
25.1	75.146
25.184	70.0085
25.268	60.5623
25.352	49.238
25.436	39.2029
25.52	33.017
25.604	31.7958
25.688	35.3673
25.772	42.5313
25.856	51.7286
25.94	61.3179
26.024	69.863
26.108	76.4319
26.192	81.3054
26.276	85.8071
26.36	91.7925
26.444	100.636
26.528	112.565
26.612	126.326
26.696	140.055
26.78	152.185
26.864	162.143
26.948	170.388
27.028	177.474