File: Bakgrunnsmateriale/MATLAB/FTIR/ftir_data/subBb/Mapping_121/C-4040-8_t81.asc
PE IR       SPECTRUM    SPECTRUM    ASCII       PEDS        1.60
  -1
C-A54E~1.ASC
17/03/27
21:08:01.00
17/03/27
21:08:28.00
tln
$C-4040-8_t0081$<tbV0>[5.2,5.2,8.0,0.0,27,1,0]
27.028
64

2002,4.07
MIRTGS : RIGHTBACK : INTERNAL 2
MIR : ON : INTERNAL 2
OPTKBR

0.200000
8
8.000000
FILLER
RATIO
SPECTRUM
UNLOCKED 256

DOUBLE
64
COMBINED
1
0
0

0.002000
RATIO

1
0
TRUE
51149
0
LEFT NOT FITTED RIGHT NOT FITTED 0
NONE
NONE
15600
12
4.427000
51148
TRUE
1 0 8 72 0 0 0 0

15798

#HDR
-1
-1
#GR
µM
%T
2.38419e-05
0.0
2.000000
0.002000
12515
8
110.557
56.2774
#DATA
2.000000	 65.3626
2.084000	 64.9151
2.168000	 65.1863
2.252000	 64.9702
2.336000	 64.5229
2.420000	 65.3541
2.504000	 65.5396
2.588000	 65.3241
2.672000	 65.2237
2.756000	 65.224
2.840000	 65.095
2.924000	 65.0882
3.008000	 65.252
3.092000	 65.2008
3.176000	 65.2394
3.260000	 65.4469
3.344000	 65.2186
3.428000	 64.9065
3.512000	 65.317
3.596000	 65.2733
3.680000	 65.4197
3.764000	 65.3178
3.848000	 65.341
3.932000	 65.347
4.016000	 65.1829
4.100000	 65.3564
4.184000	 65.3166
4.268000	 65.2613
4.352000	 65.3475
4.436000	 65.2754
4.520000	 65.393
4.604000	 65.3585
4.688000	 65.2361
4.772000	 65.5055
4.856000	 65.3674
4.940000	 65.5226
5.024000	 65.2999
5.108000	 65.3511
5.192000	 65.3304
5.276000	 65.2956
5.359999	 65.292
5.444000	 65.3737
5.528000	 65.4337
5.612000	 65.4168
5.696000	 65.3308
5.780000	 65.1165
5.864000	 65.1755
5.948000	 65.323
6.032000	 65.3421
6.116000	 65.1749
6.200000	 65.2964
6.284000	 65.1715
6.368000	 65.0865
6.452000	 64.9839
6.536000	 64.9612
6.620000	 65.1245
6.704000	 65.3001
6.788000	 65.2177
6.872000	 65.1373
6.956000	 65.1918
7.040000	 65.1404
7.124000	 65.1765
7.208000	 65.032
7.292000	 64.9864
7.376000	 65.0796
7.460000	 65.1154
7.544000	 65.1761
7.628000	 65.2359
7.712000	 65.0375
7.796000	 65.1573
7.880000	 65.0206
7.964000	 64.9645
8.048000	 64.8563
8.132000	 64.9983
8.216000	 64.99
8.300000	 65.0415
8.384000	 64.9883
8.468000	 65.0222
8.552000	 64.8132
8.635999	 64.9281
8.719999	 64.7518
8.804000	 64.9301
8.888000	 64.941
8.972000	 64.7153
9.056000	 65.3053
9.140000	 64.8234
9.224000	 64.9139
9.308000	 64.8224
9.391999	 64.6534
9.475999	 64.739
9.560000	 64.606
9.644000	 64.7614
9.728000	 64.8746
9.812000	 64.802
9.896000	 64.7734
9.980000	 64.5358
10.064	64.5925
10.148	64.774
10.232	64.6617
10.316	64.5466
10.4	64.4675
10.484	64.8798
10.568	64.7842
10.652	65.0017
10.736	65.2357
10.82	65.6772
10.904	65.0705
10.988	65.0456
11.072	65.0011
11.156	65.0665
11.24	64.717
11.324	64.5376
11.408	64.3956
11.492	64.0672
11.576	64.3372
11.66	64.3685
11.744	64.4162
11.828	64.6141
11.912	64.6992
11.996	64.5588
12.08	64.4933
12.164	64.616
12.248	64.6595
12.332	64.4228
12.416	64.3632
12.5	64.4625
12.584	64.1026
12.668	64.1023
12.752	64.4086
12.836	64.3362
12.92	63.9632
13.004	63.9926
13.088	64.2366
13.172	64.3192
13.256	63.9986
13.34	63.8743
13.424	64.1844
13.508	64.3129
13.592	64.2204
13.676	64.3185
13.76	64.4776
13.844	64.3192
13.928	64.0702
14.012	63.8929
14.096	63.5369
14.18	63.3203
14.264	63.4136
14.348	63.4661
14.432	63.3887
14.516	63.2045
14.6	63.1009
14.684	63.2968
14.768	63.4589
14.852	63.3062
14.936	63.1074
15.02	63.0929
15.104	63.0797
15.188	62.9939
15.272	62.9311
15.356	62.9839
15.44	63.2511
15.524	63.4867
15.608	63.3236
15.692	62.8697
15.776	62.596
15.86	62.7171
15.944	62.9137
16.028	62.8865
16.112	62.7581
16.196	62.7176
16.28	62.7908
16.364	62.9729
16.448	63.2618
16.532	63.5367
16.616	63.599
16.7	63.3854
16.784	63.0587
16.868	62.8564
16.952	62.8737
17.036	62.963
17.12	62.8994
17.204	62.6972
17.288	62.6085
17.372	62.7592
17.456	62.9728
17.54	63.0307
17.624	62.9307
17.708	62.7702
17.792	62.5712
17.876	62.366
17.96	62.2955
18.044	62.4473
18.128	62.707
18.212	62.9366
18.296	63.155
18.38	63.3957
18.464	63.5222
18.548	63.3633
18.632	62.9553
18.716	62.5346
18.8	62.3147
18.884	62.3406
18.968	62.5203
19.052	62.6909
19.136	62.6787
19.22	62.3834
19.304	61.8711
19.388	61.3664
19.472	61.1152
19.556	61.2006
19.64	61.4833
19.724	61.7329
19.808	61.7978
19.892	61.6517
19.976	61.3506
20.06	60.9783
20.144	60.6254
20.228	60.3716
20.312	60.2594
20.396	60.2777
20.48	60.3782
20.564	60.5131
20.648	60.6566
20.732	60.8044
20.816	60.955
20.9	61.0869
20.984	61.1476
21.068	61.0689
21.152	60.8231
21.236	60.4618
21.32	60.0961
21.404	59.8451
21.488	59.7662
21.572	59.832
21.656	59.9589
21.74	60.0525
21.824	60.0602
21.908	59.9871
21.992	59.8684
22.076	59.737
22.16	59.5902
22.244	59.387
22.328	59.1107
22.412	58.8107
22.496	58.6164
22.58	58.6579
22.664	58.9848
22.748	59.5035
22.832	60.0132
22.916	60.2968
23	60.2107
23.084	59.7358
23.168	58.9602
23.252	58.0324
23.336	57.1504
23.42	56.505
23.504	56.278
23.588	56.5803
23.672	57.4
23.756	58.5724
23.84	59.8186
23.924	60.8551
24.008	61.5171
24.092	61.8122
24.176	61.8865
24.26	61.9487
24.344	62.145
24.428	62.4805
24.512	62.8884
24.596	63.3171
24.68	63.8077
24.764	64.4987
24.848	65.574
24.932	67.1
25.016	68.9369
25.1	70.8728
25.184	72.5696
25.268	73.7844
25.352	74.5977
25.436	75.2881
25.52	76.1914
25.604	77.5138
25.688	79.1048
25.772	80.4382
25.856	80.827
25.94	79.6989
26.024	76.7708
26.108	72.1974
26.192	66.7214
26.276	61.5037
26.36	57.9277
26.444	56.8129
26.528	58.285
26.612	61.7557
26.696	66.7967
26.78	73.549
26.864	82.8215
26.948	95.492
27.028	110.557