File: Bakgrunnsmateriale/MATLAB/FTIR/ftir_data/subBb/Mapping_121/C-4040-8_t26_cm-1.asc
PE IR       SPECTRUM    SPECTRUM    ASCII       PEDS        1.60
  -1
C-9A6E~1.ASC
17/03/27
16:38:40.00
17/03/27
16:38:40.00
tln
$C-4040-8_t0026$<tbV0>[5.2,-7.8,8.0,0.0,27,1,0]
370
64

2002,4.07
MIRTGS : RIGHTBACK : INTERNAL 2
MIR : ON : INTERNAL 2
OPTKBR

0.200000
8
8.000000
FILLER
RATIO
SPECTRUM
UNLOCKED 256

DOUBLE
64
COMBINED
1
0
0

1.000000
RATIO

1
0
TRUE
51149
0
LEFT NOT FITTED RIGHT NOT FITTED 0
NONE
NONE
15600
12
4.427000
51148
TRUE
1 0 8 72 0 0 0 0

15798

#HDR
-1
-1
#GR
CM-1
%T
2.38419e-05
0.0
5000
-1.000000
4631
8
74.5954
-5.959939
#DATA
5000	63.1969
4984	63.2344
4968	63.4852
4952	63.6873
4936	63.4034
4920	63.3573
4904	63.2771
4888	63.2492
4872	62.8146
4856	63.4037
4840	63.3146
4824	63.4257
4808	62.6558
4792	62.8822
4776	62.7301
4760	62.9005
4744	63.0944
4728	62.9215
4712	62.9089
4696	62.767
4680	62.6999
4664	63.0369
4648	62.5097
4632	62.9331
4616	62.7067
4600	62.7782
4584	62.7749
4568	62.9005
4552	63.0594
4536	62.788
4520	63.3697
4504	62.7031
4488	63.3281
4472	62.9544
4456	63.4016
4440	63.146
4424	63.0779
4408	62.9341
4392	64.1688
4376	48.4603
4360	70.1127
4344	64.0567
4328	63.2262
4312	62.9369
4296	62.7022
4280	63.0126
4264	62.9932
4248	62.4458
4232	62.6214
4216	62.7068
4200	62.2412
4184	62.0347
4168	62.2086
4152	61.9082
4136	62.1266
4120	61.9811
4104	61.8215
4088	61.6132
4072	61.6452
4056	61.7424
4040	61.6385
4024	61.5689
4008	61.2656
3992	61.711
3976	61.8563
3960	61.3871
3944	61.3493
3928	61.2368
3912	61.1279
3896	61.3035
3880	61.4786
3864	61.0978
3848	61.0013
3832	61.0622
3816	61.1632
3800	60.9291
3784	60.9468
3768	60.6924
3752	60.8254
3736	60.527
3720	60.6666
3704	60.5478
3688	60.5589
3672	60.2691
3656	60.3264
3640	60.1301
3624	59.9424
3608	59.981
3592	59.7795
3576	59.7581
3560	59.7239
3544	59.6395
3528	59.649
3512	59.5466
3496	59.4177
3480	59.3133
3464	59.2505
3448	59.3794
3432	59.1134
3416	59.0274
3400	58.9154
3384	58.878
3368	58.5937
3352	58.6023
3336	58.4879
3320	58.3306
3304	58.1378
3288	57.9661
3272	57.9664
3256	57.8729
3240	57.7969
3224	57.6438
3208	57.3977
3192	57.4219
3176	57.2915
3160	57.0977
3144	56.9638
3128	56.5822
3112	57.0212
3096	56.8152
3080	56.485
3064	56.4702
3048	56.2011
3032	56.1281
3016	55.9417
3000	55.8797
2984	55.7324
2968	55.4555
2952	55.2116
2936	55.1197
2920	54.8393
2904	54.8923
2888	54.6942
2872	54.673
2856	54.2877
2840	54.4112
2824	54.248
2808	54.106
2792	53.82
2776	53.6202
2760	53.5745
2744	53.34
2728	53.0933
2712	53.016
2696	52.8347
2680	52.6597
2664	52.4896
2648	52.2466
2632	52.0138
2616	51.8841
2600	51.7582
2584	51.7043
2568	51.4308
2552	51.2507
2536	51.1768
2520	50.883
2504	50.8047
2488	50.4627
2472	50.3179
2456	50.2976
2440	49.9737
2424	49.9141
2408	49.4334
2392	49.399
2376	49.0925
2360	49.0863
2344	48.8599
2328	48.6572
2312	48.3818
2296	48.0555
2280	48.0419
2264	47.8313
2248	47.5255
2232	47.3608
2216	47.0508
2200	46.9894
2184	46.74
2168	46.6652
2152	46.3088
2136	46.1394
2120	45.9337
2104	45.7177
2088	45.6119
2072	45.3279
2056	45.1161
2040	44.8964
2024	44.7
2008	44.5678
1992	44.2804
1976	44.0506
1960	43.8082
1944	43.5301
1928	43.3923
1912	43.1422
1896	42.9917
1880	42.7564
1864	42.5419
1848	42.3109
1832	42.0726
1816	41.7537
1800	41.6019
1784	41.4382
1768	41.2357
1752	40.9538
1736	40.7228
1720	40.5115
1704	40.346
1688	40.074
1672	39.9344
1656	39.6455
1640	39.5273
1624	39.2437
1608	39.0495
1592	38.8691
1576	38.656
1560	38.4238
1544	38.0771
1528	37.9866
1512	37.7324
1496	37.5693
1480	37.2777
1464	37.2105
1448	37.0917
1432	36.6103
1416	36.4886
1400	36.1586
1384	35.9933
1368	35.7745
1352	35.5999
1336	35.3263
1320	35.0895
1304	34.9356
1288	34.8204
1272	34.5376
1256	34.3049
1240	34.0032
1224	33.8057
1208	33.7723
1192	33.4286
1176	33.1242
1160	32.986
1144	32.7178
1128	32.6038
1112	32.4255
1096	32.0712
1080	31.9221
1064	31.9294
1048	31.5002
1032	31.202
1016	31.2109
1000	30.4315
984	 30.6984
968	 30.1654
952	 29.7974
936	 29.5519
920	 29.2615
904	 28.9804
888	 28.7097
872	 28.6193
856	 28.0544
840	 28.0498
824	 27.3875
808	 27.1855
792	 26.9478
776	 26.3761
760	 26.3585
744	 25.4912
728	 25.3818
712	 24.9475
696	 24.5075
680	 23.9235
664	 23.6888
648	 22.9841
632	 22.0028
616	 22.5595
600	 21.8109
584	 21.2713
568	 20.7869
552	 19.4968
536	 19.3134
520	 19.2089
504	 18.3687
488	 17.4465
472	 16.6205
456	 16.8353
440	 14.6371
424	 14.5461
408	 14.6164
392	 22.0646
376	 35.1022
370	 -5.959939