File: Bakgrunnsmateriale/MATLAB/FTIR/ftir_data/subBb/Mapping_121/C-4040-8_t85.asc
PE IR       SPECTRUM    SPECTRUM    ASCII       PEDS        1.60
  -1
C-B54E~1.ASC
17/03/27
21:26:29.00
17/03/27
21:26:55.00
tln
$C-4040-8_t0085$<tbV0>[-5.2,5.2,8.0,0.0,27,1,0]
27.028
64

2002,4.07
MIRTGS : RIGHTBACK : INTERNAL 2
MIR : ON : INTERNAL 2
OPTKBR

0.200000
8
8.000000
FILLER
RATIO
SPECTRUM
UNLOCKED 256

DOUBLE
64
COMBINED
1
0
0

0.002000
RATIO

1
0
TRUE
51149
0
LEFT NOT FITTED RIGHT NOT FITTED 0
NONE
NONE
15600
12
4.427000
51148
TRUE
1 0 8 72 0 0 0 0

15798

#HDR
-1
-1
#GR
µM
%T
2.38419e-05
0.0
2.000000
0.002000
12515
8
73.0757
7.047163
#DATA
2.000000	 65.412
2.084000	 65.0666
2.168000	 64.7533
2.252000	 65.908
2.336000	 65.9934
2.420000	 65.0086
2.504000	 65.2346
2.588000	 65.4747
2.672000	 65.4365
2.756000	 65.2274
2.840000	 65.2695
2.924000	 65.2973
3.008000	 65.2723
3.092000	 65.1095
3.176000	 65.1742
3.260000	 65.247
3.344000	 65.2123
3.428000	 64.8983
3.512000	 65.0506
3.596000	 65.3021
3.680000	 65.3602
3.764000	 65.2015
3.848000	 65.1482
3.932000	 65.1883
4.016000	 65.2707
4.100000	 65.3397
4.184000	 65.4042
4.268000	 65.4159
4.352000	 65.3363
4.436000	 65.3373
4.520000	 65.4598
4.604000	 65.3243
4.688000	 65.1747
4.772000	 65.4695
4.856000	 65.2938
4.940000	 65.2575
5.024000	 65.392
5.108000	 65.3901
5.192000	 65.3426
5.276000	 65.3297
5.359999	 65.3421
5.444000	 65.4034
5.528000	 65.3174
5.612000	 65.3979
5.696000	 65.3995
5.780000	 65.3867
5.864000	 65.2085
5.948000	 65.2448
6.032000	 65.2018
6.116000	 65.3016
6.200000	 65.16
6.284000	 65.1075
6.368000	 65.0106
6.452000	 64.9046
6.536000	 65.1362
6.620000	 65.1524
6.704000	 65.0235
6.788000	 65.2189
6.872000	 64.7963
6.956000	 65.1502
7.040000	 64.9584
7.124000	 65.0944
7.208000	 65.049
7.292000	 64.9993
7.376000	 65.0114
7.460000	 65.0463
7.544000	 65.0185
7.628000	 65.0458
7.712000	 65.1806
7.796000	 65.1859
7.880000	 65.1958
7.964000	 65.2726
8.048000	 65.0704
8.132000	 65.0992
8.216000	 64.96
8.300000	 65.1239
8.384000	 64.8546
8.468000	 65.0265
8.552000	 64.8867
8.635999	 64.8839
8.719999	 64.7826
8.804000	 65.0365
8.888000	 64.8494
8.972000	 64.883
9.056000	 64.8248
9.140000	 64.5285
9.224000	 64.7494
9.308000	 65.0775
9.391999	 64.9136
9.475999	 64.8689
9.560000	 65.1089
9.644000	 64.9816
9.728000	 64.6561
9.812000	 64.7188
9.896000	 64.5759
9.980000	 64.6508
10.064	64.7387
10.148	64.8926
10.232	64.7748
10.316	64.9301
10.4	64.5004
10.484	64.6888
10.568	64.9996
10.652	64.9579
10.736	64.948
10.82	65.1008
10.904	64.2928
10.988	64.319
11.072	64.2758
11.156	64.2555
11.24	64.3175
11.324	64.2386
11.408	64.3937
11.492	64.446
11.576	64.541
11.66	64.5266
11.744	64.3231
11.828	64.2803
11.912	64.2868
11.996	64.3292
12.08	64.488
12.164	64.3689
12.248	64.3954
12.332	64.4929
12.416	64.2433
12.5	64.269
12.584	64.2894
12.668	64.2575
12.752	64.0739
12.836	64.084
12.92	64.0545
13.004	64.0105
13.088	64.334
13.172	64.2822
13.256	63.9237
13.34	63.6802
13.424	63.3717
13.508	63.4458
13.592	63.6273
13.676	63.6428
13.76	63.6965
13.844	63.8749
13.928	63.9523
14.012	63.8094
14.096	63.5564
14.18	63.5976
14.264	64.0887
14.348	64.2715
14.432	63.9873
14.516	63.7455
14.6	63.5508
14.684	63.4631
14.768	63.4555
14.852	63.2438
14.936	63.0428
15.02	63.174
15.104	63.3069
15.188	63.1271
15.272	62.9301
15.356	62.9707
15.44	63.1072
15.524	63.131
15.608	62.9421
15.692	62.6463
15.776	62.5342
15.86	62.6713
15.944	62.7559
16.028	62.5895
16.112	62.3285
16.196	62.2686
16.28	62.5538
16.364	62.9835
16.448	63.231
16.532	63.24
16.616	63.1654
16.7	63.0426
16.784	62.8515
16.868	62.7344
16.952	62.7974
17.036	62.857
17.12	62.7339
17.204	62.5755
17.288	62.5338
17.372	62.4709
17.456	62.2513
17.54	62.0041
17.624	61.9208
17.708	62.0277
17.792	62.2424
17.876	62.4747
17.96	62.6673
18.044	62.8396
18.128	63.0393
18.212	63.1899
18.296	63.105
18.38	62.7209
18.464	62.2114
18.548	61.7864
18.632	61.4921
18.716	61.2941
18.8	61.2383
18.884	61.3814
18.968	61.6244
19.052	61.7757
19.136	61.7858
19.22	61.7904
19.304	61.892
19.388	62.0004
19.472	61.9539
19.556	61.7177
19.64	61.4174
19.724	61.2017
19.808	61.1053
19.892	61.025
19.976	60.8161
20.06	60.4147
20.144	59.8958
20.228	59.4377
20.312	59.2358
20.396	59.4095
20.48	59.9482
20.564	60.6958
20.648	61.3984
20.732	61.8098
20.816	61.8152
20.9	61.4938
20.984	61.0425
21.068	60.639
21.152	60.3384
21.236	60.0913
21.32	59.8326
21.404	59.564
21.488	59.3388
21.572	59.1889
21.656	59.0793
21.74	58.9369
21.824	58.7378
21.908	58.5595
21.992	58.5291
22.076	58.721
22.16	59.0722
22.244	59.4191
22.328	59.6069
22.412	59.5847
22.496	59.4525
22.58	59.3755
22.664	59.476
22.748	59.7489
22.832	60.0661
22.916	60.25
23	60.1873
23.084	59.8894
23.168	59.4674
23.252	59.0319
23.336	58.6272
23.42	58.2189
23.504	57.6962
23.588	57.0206
23.672	56.294
23.756	55.7099
23.84	55.5067
23.924	55.8044
24.008	56.5278
24.092	57.4193
24.176	58.1152
24.26	58.3158
24.344	57.8916
24.428	56.969
24.512	55.9351
24.596	55.2342
24.68	55.1489
24.764	55.6128
24.848	56.246
24.932	56.3195
25.016	55.0399
25.1	51.8947
25.184	46.826
25.268	40.3254
25.352	33.2374
25.436	26.5269
25.52	20.9258
25.604	16.7699
25.688	14.1415
25.772	12.9516
25.856	13.0145
25.94	13.8717
26.024	14.8278
26.108	15.1562
26.192	14.3517
26.276	12.4044
26.36	9.919387
26.444	7.832697
26.528	7.054972
26.612	8.254307
26.696	11.5978
26.78	16.6219
26.864	22.4585
26.948	28.0643
27.028	32.2693