File: Bakgrunnsmateriale/MATLAB/FTIR/ftir_data/subBb/Mapping_121/C-4040-8_t63.asc
PE IR       SPECTRUM    SPECTRUM    ASCII       PEDS        1.60
  -1
C-AD36~1.ASC
17/03/27
19:37:36.00
17/03/27
19:38:02.00
tln
$C-4040-8_t0063$<tbV0>[-5.2,0.0,8.0,0.0,27,1,0]
27.028
64

2002,4.07
MIRTGS : RIGHTBACK : INTERNAL 2
MIR : ON : INTERNAL 2
OPTKBR

0.200000
8
8.000000
FILLER
RATIO
SPECTRUM
UNLOCKED 256

DOUBLE
64
COMBINED
1
0
0

0.002000
RATIO

1
0
TRUE
51149
0
LEFT NOT FITTED RIGHT NOT FITTED 0
NONE
NONE
15600
12
4.427000
51148
TRUE
1 0 8 72 0 0 0 0

15798

#HDR
-1
-1
#GR
µM
%T
2.38419e-05
0.0
2.000000
0.002000
12515
8
106.044
50.1484
#DATA
2.000000	 64.9925
2.084000	 65.1163
2.168000	 64.2457
2.252000	 66.1507
2.336000	 66.0585
2.420000	 64.573
2.504000	 65.0167
2.588000	 65.1807
2.672000	 65.164
2.756000	 65.1746
2.840000	 64.9724
2.924000	 65.1111
3.008000	 65.1881
3.092000	 65.1599
3.176000	 64.9668
3.260000	 65.2816
3.344000	 65.1964
3.428000	 64.8916
3.512000	 64.9736
3.596000	 65.1972
3.680000	 64.9803
3.764000	 65.2971
3.848000	 65.1704
3.932000	 65.2728
4.016000	 65.0766
4.100000	 65.3122
4.184000	 65.2714
4.268000	 65.2075
4.352000	 65.2749
4.436000	 65.3618
4.520000	 65.2699
4.604000	 65.1548
4.688000	 65.2392
4.772000	 65.2662
4.856000	 65.1557
4.940000	 65.2968
5.024000	 65.3446
5.108000	 65.1982
5.192000	 65.2204
5.276000	 65.3437
5.359999	 65.1844
5.444000	 65.2273
5.528000	 65.2875
5.612000	 65.2768
5.696000	 65.1432
5.780000	 64.9647
5.864000	 65.0906
5.948000	 65.1161
6.032000	 65.1433
6.116000	 65.1226
6.200000	 65.0546
6.284000	 65.0073
6.368000	 65.1745
6.452000	 65.0639
6.536000	 65.0388
6.620000	 64.9504
6.704000	 65.1349
6.788000	 65.0257
6.872000	 64.7206
6.956000	 64.982
7.040000	 65.1183
7.124000	 64.994
7.208000	 65.2225
7.292000	 65.0939
7.376000	 64.961
7.460000	 65.0328
7.544000	 65.1609
7.628000	 65.0497
7.712000	 64.9127
7.796000	 64.958
7.880000	 64.9819
7.964000	 64.9581
8.048000	 65.1387
8.132000	 64.8922
8.216000	 64.865
8.300000	 64.8657
8.384000	 64.8758
8.468000	 64.7631
8.552000	 64.7816
8.635999	 64.9208
8.719999	 65.0451
8.804000	 64.5444
8.888000	 64.936
8.972000	 64.9065
9.056000	 64.4591
9.140000	 64.4756
9.224000	 65.6725
9.308000	 64.778
9.391999	 64.9033
9.475999	 64.5908
9.560000	 64.3475
9.644000	 64.6632
9.728000	 64.9547
9.812000	 64.7285
9.896000	 64.7148
9.980000	 64.7202
10.064	64.8728
10.148	64.8116
10.232	64.8944
10.316	64.6211
10.4	64.3394
10.484	64.2472
10.568	64.3381
10.652	64.5189
10.736	64.8073
10.82	64.5181
10.904	64.3882
10.988	64.483
11.072	64.657
11.156	64.3968
11.24	64.2807
11.324	64.4681
11.408	64.6016
11.492	64.5522
11.576	64.6581
11.66	64.6172
11.744	64.6523
11.828	64.6393
11.912	64.4825
11.996	64.1442
12.08	64.1901
12.164	64.4416
12.248	64.3096
12.332	64.412
12.416	64.269
12.5	64.1278
12.584	63.6945
12.668	63.5457
12.752	63.7888
12.836	64.0188
12.92	64.1458
13.004	64.0829
13.088	63.83
13.172	63.6342
13.256	63.4078
13.34	63.5451
13.424	64.0075
13.508	64.4452
13.592	64.3468
13.676	63.6811
13.76	63.3552
13.844	63.366
13.928	63.5799
14.012	63.7665
14.096	63.5831
14.18	63.494
14.264	63.5541
14.348	63.6337
14.432	63.7005
14.516	63.5472
14.6	63.3134
14.684	63.2574
14.768	63.3494
14.852	63.2951
14.936	63.0149
15.02	62.7758
15.104	62.7619
15.188	63.0738
15.272	63.414
15.356	63.3507
15.44	63.1132
15.524	62.9947
15.608	62.9053
15.692	62.9158
15.776	63.1808
15.86	63.4431
15.944	63.4213
16.028	63.2793
16.112	63.2498
16.196	63.3329
16.28	63.3787
16.364	63.1592
16.448	62.7119
16.532	62.3988
16.616	62.3142
16.7	62.2183
16.784	62.121
16.868	62.2137
16.952	62.3967
17.036	62.4411
17.12	62.3491
17.204	62.2084
17.288	62.0176
17.372	61.8308
17.456	61.8036
17.54	61.9744
17.624	62.1621
17.708	62.175
17.792	62.0394
17.876	61.9512
17.96	61.979
18.044	61.9709
18.128	61.8194
18.212	61.6414
18.296	61.5976
18.38	61.6922
18.464	61.8432
18.548	62.0102
18.632	62.14
18.716	62.1213
18.8	61.9082
18.884	61.6141
18.968	61.3941
19.052	61.2627
19.136	61.1191
19.22	60.9196
19.304	60.7488
19.388	60.7169
19.472	60.8406
19.556	61.0553
19.64	61.2903
19.724	61.5082
19.808	61.6849
19.892	61.8016
19.976	61.8566
20.06	61.883
20.144	61.9454
20.228	62.1071
20.312	62.3634
20.396	62.5888
20.48	62.5781
20.564	62.1863
20.648	61.4688
20.732	60.6815
20.816	60.1198
20.9	59.9107
20.984	59.9661
21.068	60.0962
21.152	60.1825
21.236	60.2397
21.32	60.3368
21.404	60.4746
21.488	60.5439
21.572	60.4224
21.656	60.0965
21.74	59.6821
21.824	59.3402
21.908	59.1397
21.992	59.0027
22.076	58.7845
22.16	58.4061
22.244	57.9411
22.328	57.5737
22.412	57.4645
22.496	57.6449
22.58	58.0319
22.664	58.5174
22.748	59.01
22.832	59.4248
22.916	59.6635
23	59.6223
23.084	59.2298
23.168	58.5132
23.252	57.62
23.336	56.7796
23.42	56.2084
23.504	56.0992
23.588	56.4886
23.672	57.2433
23.756	58.1417
23.84	58.8955
23.924	59.2619
24.008	59.1948
24.092	58.9159
24.176	58.8139
24.26	59.212
24.344	60.1706
24.428	61.394
24.512	62.2921
24.596	62.3197
24.68	61.1639
24.764	58.911
24.848	56.055
24.932	53.6721
25.016	53.1122
25.1	55.526
25.184	61.3777
25.268	70.0313
25.352	79.936
25.436	89.0679
25.52	95.6973
25.604	98.8987
25.688	98.5895
25.772	95.4114
25.856	90.3572
25.94	84.74
26.024	79.9939
26.108	77.3162
26.192	77.4403
26.276	80.4694
26.36	85.9009
26.444	92.5852
26.528	99.0541
26.612	103.834
26.696	105.964
26.78	105.303
26.864	102.653
26.948	99.2819
27.028	96.3523