File: Bakgrunnsmateriale/MATLAB/FTIR/ftir_data/subBb/Mapping_121/C-4040-8_t77_cm-1.asc
PE IR       SPECTRUM    SPECTRUM    ASCII       PEDS        1.60
  -1
C-1DEF~1.ASC
17/03/27
20:48:57.00
17/03/27
20:48:57.00
tln
$C-4040-8_t0077$<tbV0>[-13.0,2.6,8.0,0.0,27,1,0]
370
64

2002,4.07
MIRTGS : RIGHTBACK : INTERNAL 2
MIR : ON : INTERNAL 2
OPTKBR

0.200000
8
8.000000
FILLER
RATIO
SPECTRUM
UNLOCKED 256

DOUBLE
64
COMBINED
1
0
0

1.000000
RATIO

1
0
TRUE
51149
0
LEFT NOT FITTED RIGHT NOT FITTED 0
NONE
NONE
15600
12
4.427000
51148
TRUE
1 0 8 72 0 0 0 0

15798

#HDR
-1
-1
#GR
CM-1
%T
2.38419e-05
0.0
5000
-1.000000
4631
8
122.472
19.1855
#DATA
5000	64.6724
4984	64.7055
4968	64.7815
4952	64.8335
4936	64.0169
4920	64.5691
4904	64.8054
4888	64.0443
4872	65.0511
4856	64.7245
4840	64.3621
4824	64.8379
4808	65.0773
4792	64.6748
4776	64.9176
4760	64.8215
4744	65.2775
4728	65.2825
4712	65.5655
4696	64.7325
4680	65.5992
4664	65.1833
4648	65.1588
4632	65.0495
4616	65.0984
4600	64.9704
4584	64.5818
4568	64.8002
4552	64.4194
4536	64.8886
4520	64.276
4504	63.9081
4488	64.0155
4472	63.7043
4456	63.505
4440	63.453
4424	63.5413
4408	61.8305
4392	58.4086
4376	86.3739
4360	63.4709
4344	64.2104
4328	63.9968
4312	64.1573
4296	64.1558
4280	64.1297
4264	64.2427
4248	64.0624
4232	64.6819
4216	64.4301
4200	64.7925
4184	64.9384
4168	64.8249
4152	64.6938
4136	64.9147
4120	65.1422
4104	64.9571
4088	65.0205
4072	65.1678
4056	65.0714
4040	65.0297
4024	65.0524
4008	64.9832
3992	65.3738
3976	65.2592
3960	64.8978
3944	64.9365
3928	65.004
3912	65.2856
3896	64.9267
3880	64.9232
3864	65.0826
3848	64.7757
3832	64.5782
3816	64.8093
3800	64.8326
3784	65.0003
3768	64.7684
3752	64.9847
3736	65.0549
3720	65.1845
3704	64.9679
3688	65.1052
3672	64.8548
3656	65.0066
3640	65.1523
3624	65.1297
3608	65.0207
3592	65.1602
3576	65.0047
3560	65.1847
3544	64.9872
3528	65.1362
3512	64.9987
3496	65.064
3480	65.1244
3464	64.8182
3448	65.0857
3432	64.7978
3416	65.0823
3400	64.7875
3384	65.1886
3368	65.0762
3352	64.7727
3336	65
3320	65.0486
3304	65.061
3288	64.9534
3272	64.9927
3256	65.0103
3240	64.8579
3224	64.9457
3208	65.0286
3192	65.0769
3176	64.9365
3160	64.9088
3144	65.2179
3128	65.1646
3112	64.6266
3096	65.1744
3080	65.0125
3064	65.0831
3048	65.041
3032	65.2463
3016	65.0244
3000	64.9258
2984	64.9228
2968	64.7312
2952	64.9202
2936	64.9626
2920	64.5115
2904	64.9661
2888	64.9226
2872	64.8626
2856	64.886
2840	64.8936
2824	65.0492
2808	65.1731
2792	65.0945
2776	65.1384
2760	65.1422
2744	65.2353
2728	65.1579
2712	65.0895
2696	65.1388
2680	65.1403
2664	65.08
2648	65.0248
2632	65.0115
2616	65.0677
2600	65.0105
2584	65.142
2568	64.9807
2552	65.0093
2536	65.0658
2520	65.1772
2504	65.2693
2488	65.0921
2472	65.1699
2456	65.2129
2440	65.2302
2424	64.7037
2408	65.2709
2392	65.1809
2376	65.2937
2360	65.106
2344	65.0912
2328	65.1567
2312	65.2575
2296	65.129
2280	65.3083
2264	65.2491
2248	65.3208
2232	65.1896
2216	65.1966
2200	65.1162
2184	65.1404
2168	65.1589
2152	65.1694
2136	65.2272
2120	65.1726
2104	65.1692
2088	65.2095
2072	65.3354
2056	65.2449
2040	65.129
2024	65.2182
2008	65.1339
1992	65.1673
1976	65.1712
1960	65.2114
1944	65.1612
1928	65.2191
1912	65.1654
1896	65.2414
1880	65.1961
1864	65.1383
1848	65.2355
1832	65.1815
1816	65.3902
1800	65.1171
1784	65.2164
1768	65.216
1752	65.0588
1736	65.1302
1720	65.1197
1704	64.961
1688	65.1428
1672	65.1216
1656	65.0721
1640	64.9254
1624	64.9363
1608	64.9007
1592	64.9304
1576	64.8593
1560	64.8303
1544	64.8066
1528	64.8865
1512	64.9562
1496	64.8508
1480	64.9429
1464	64.9639
1448	64.7977
1432	65.1288
1416	64.9374
1400	64.9696
1384	64.8795
1368	64.8653
1352	64.873
1336	65.0694
1320	64.9507
1304	64.9589
1288	64.9025
1272	64.9444
1256	64.9689
1240	64.8322
1224	64.7978
1208	64.9877
1192	64.8379
1176	64.8522
1160	64.6347
1144	64.6166
1128	64.7829
1112	64.7349
1096	64.6266
1080	65.1524
1064	64.6932
1048	64.6993
1032	64.6272
1016	64.4897
1000	64.7245
984	 64.5827
968	 64.7861
952	 64.8412
936	 64.6985
920	 64.8975
904	 64.376
888	 64.7736
872	 64.6521
856	 64.2954
840	 64.4699
824	 64.5288
808	 64.2809
792	 64.074
776	 64.2958
760	 63.8968
744	 63.8902
728	 63.9248
712	 63.7882
696	 63.5467
680	 63.7562
664	 62.8134
648	 62.8476
632	 63.245
616	 62.9116
600	 62.8593
584	 62.8683
568	 62.6809
552	 62.7843
536	 62.508
520	 61.2988
504	 61.713
488	 61.8607
472	 61.0891
456	 60.4608
440	 61.3687
424	 57.0336
408	 53.9873
392	 69.5513
376	 24.1208
370	 39.3078