File: Bakgrunnsmateriale/MATLAB/FTIR/ftir_data/subBb/Mapping_121/C-4040-8_t32.asc
PE IR       SPECTRUM    SPECTRUM    ASCII       PEDS        1.60
  -1
C-A132~1.ASC
17/03/27
17:06:22.00
17/03/27
17:06:48.00
tln
$C-4040-8_t0032$<tbV0>[-10.4,-7.8,8.0,0.0,27,1,0]
27.028
64

2002,4.07
MIRTGS : RIGHTBACK : INTERNAL 2
MIR : ON : INTERNAL 2
OPTKBR

0.200000
8
8.000000
FILLER
RATIO
SPECTRUM
UNLOCKED 256

DOUBLE
64
COMBINED
1
0
0

0.002000
RATIO

1
0
TRUE
51149
0
LEFT NOT FITTED RIGHT NOT FITTED 0
NONE
NONE
15600
12
4.427000
51148
TRUE
1 0 8 72 0 0 0 0

15798

#HDR
-1
-1
#GR
µM
%T
2.38419e-05
0.0
2.000000
0.002000
12515
8
91.4162
45.2042
#DATA
2.000000	 64.6104
2.084000	 64.7455
2.168000	 64.7798
2.252000	 63.9529
2.336000	 64.5043
2.420000	 64.7545
2.504000	 64.9449
2.588000	 64.4689
2.672000	 64.4737
2.756000	 64.4566
2.840000	 64.3001
2.924000	 64.1401
3.008000	 64.1773
3.092000	 64.1657
3.176000	 63.9123
3.260000	 63.7868
3.344000	 63.8111
3.428000	 63.4396
3.512000	 63.4682
3.596000	 63.4782
3.680000	 63.4341
3.764000	 63.1394
3.848000	 63.2547
3.932000	 63.1752
4.016000	 62.8556
4.100000	 63.0204
4.184000	 62.856
4.268000	 62.6268
4.352000	 62.6399
4.436000	 62.5878
4.520000	 62.3854
4.604000	 62.4759
4.688000	 62.1957
4.772000	 62.1243
4.856000	 62.1731
4.940000	 62.0343
5.024000	 62.0251
5.108000	 61.9
5.192000	 61.861
5.276000	 61.6451
5.359999	 61.6761
5.444000	 61.6152
5.528000	 61.3829
5.612000	 61.3774
5.696000	 61.4138
5.780000	 61.146
5.864000	 61.2507
5.948000	 61.1798
6.032000	 61.1373
6.116000	 61.1516
6.200000	 60.9949
6.284000	 61.058
6.368000	 60.7717
6.452000	 60.6255
6.536000	 60.717
6.620000	 60.5825
6.704000	 60.4713
6.788000	 60.4987
6.872000	 60.4278
6.956000	 60.5321
7.040000	 60.2387
7.124000	 60.2846
7.208000	 60.311
7.292000	 60.1418
7.376000	 60.3351
7.460000	 60.1075
7.544000	 60.0109
7.628000	 60.1701
7.712000	 59.9184
7.796000	 59.8339
7.880000	 59.8469
7.964000	 59.9199
8.048000	 59.7712
8.132000	 59.7532
8.216000	 59.6059
8.300000	 59.6287
8.384000	 59.7144
8.468000	 59.5538
8.552000	 59.4583
8.635999	 59.4756
8.719999	 59.6563
8.804000	 59.4468
8.888000	 59.5369
8.972000	 58.9074
9.056000	 59.4603
9.140000	 59.6769
9.224000	 58.9338
9.308000	 59.5665
9.391999	 58.9264
9.475999	 58.97
9.560000	 59.1726
9.644000	 58.9599
9.728000	 59.1383
9.812000	 58.9446
9.896000	 58.9921
9.980000	 58.5952
10.064	58.6264
10.148	59.1104
10.232	58.8476
10.316	58.5795
10.4	58.3998
10.484	58.6028
10.568	58.8337
10.652	58.414
10.736	58.3467
10.82	58.4367
10.904	58.6371
10.988	58.6061
11.072	58.4264
11.156	58.4244
11.24	58.3662
11.324	58.2947
11.408	58.4102
11.492	58.4847
11.576	58.2553
11.66	58.0711
11.744	58.2128
11.828	58.1466
11.912	58.0149
11.996	58.18
12.08	58.0287
12.164	57.8642
12.248	57.624
12.332	57.6223
12.416	57.7929
12.5	57.7125
12.584	57.8209
12.668	57.7927
12.752	57.6685
12.836	57.6155
12.92	57.5359
13.004	57.3196
13.088	57.1422
13.172	57.0771
13.256	57.0011
13.34	57.2287
13.424	57.1916
13.508	56.9258
13.592	56.8572
13.676	56.8494
13.76	56.7812
13.844	56.7738
13.928	56.8021
14.012	56.856
14.096	57.033
14.18	57.1486
14.264	57.0428
14.348	56.7535
14.432	56.5263
14.516	56.4814
14.6	56.445
14.684	56.3422
14.768	56.1719
14.852	56.0107
14.936	56.0919
15.02	56.3063
15.104	56.3195
15.188	56.1708
15.272	56.0164
15.356	55.8916
15.44	55.8368
15.524	55.7086
15.608	55.4957
15.692	55.6024
15.776	56.0337
15.86	56.212
15.944	55.9837
16.028	55.7414
16.112	55.6297
16.196	55.5317
16.28	55.4686
16.364	55.4716
16.448	55.5031
16.532	55.6332
16.616	55.8198
16.7	55.8128
16.784	55.5916
16.868	55.4201
16.952	55.4277
17.036	55.4671
17.12	55.3889
17.204	55.2809
17.288	55.332
17.372	55.5338
17.456	55.6733
17.54	55.62
17.624	55.4397
17.708	55.2283
17.792	55.0037
17.876	54.7618
17.96	54.5712
18.044	54.5297
18.128	54.6418
18.212	54.8005
18.296	54.903
18.38	54.9307
18.464	54.8929
18.548	54.7774
18.632	54.6037
18.716	54.4597
18.8	54.4308
18.884	54.5092
18.968	54.6082
19.052	54.6366
19.136	54.5549
19.22	54.3843
19.304	54.201
19.388	54.0964
19.472	54.1096
19.556	54.1857
19.64	54.226
19.724	54.1961
19.808	54.155
19.892	54.1636
19.976	54.1949
20.06	54.1582
20.144	54.0017
20.228	53.7714
20.312	53.5777
20.396	53.5035
20.48	53.5384
20.564	53.5952
20.648	53.5914
20.732	53.5104
20.816	53.393
20.9	53.2851
20.984	53.2036
21.068	53.1382
21.152	53.0715
21.236	52.9969
21.32	52.9156
21.404	52.8266
21.488	52.7231
21.572	52.5949
21.656	52.4358
21.74	52.2538
21.824	52.0777
21.908	51.9474
21.992	51.8867
22.076	51.8859
22.16	51.9025
22.244	51.901
22.328	51.8799
22.412	51.8733
22.496	51.9238
22.58	52.0281
22.664	52.1278
22.748	52.1422
22.832	52.0328
22.916	51.8213
23	51.5661
23.084	51.3178
23.168	51.0918
23.252	50.8691
23.336	50.6216
23.42	50.309
23.504	49.9239
23.588	49.4732
23.672	48.9894
23.756	48.5779
23.84	48.3348
23.924	48.352
24.008	48.64
24.092	49.0703
24.176	49.4316
24.26	49.5637
24.344	49.4283
24.428	49.1236
24.512	48.8448
24.596	48.7344
24.68	48.8654
24.764	49.2723
24.848	49.9476
24.932	50.9524
25.016	52.4418
25.1	54.5827
25.184	57.5603
25.268	61.4858
25.352	66.3446
25.436	71.8918
25.52	77.6689
25.604	83.1294
25.688	87.6058
25.772	90.4905
25.856	91.4135
25.94	90.339
26.024	87.5687
26.108	83.6651
26.192	79.2435
26.276	74.8122
26.36	70.8229
26.444	67.3548
26.528	64.1695
26.612	60.9187
26.696	57.3608
26.78	53.5145
26.864	49.769
26.948	46.776
27.028	45.2042