File: Bakgrunnsmateriale/MATLAB/FTIR/ftir_data/subBb/Mapping_121/C-4040-8_t37_cm-1.asc
PE IR       SPECTRUM    SPECTRUM    ASCII       PEDS        1.60
  -1
C-1BEF~1.ASC
17/03/27
17:30:04.00
17/03/27
17:30:04.00
tln
$C-4040-8_t0037$<tbV0>[5.2,-5.2,8.0,0.0,27,1,0]
370
64

2002,4.07
MIRTGS : RIGHTBACK : INTERNAL 2
MIR : ON : INTERNAL 2
OPTKBR

0.200000
8
8.000000
FILLER
RATIO
SPECTRUM
UNLOCKED 256

DOUBLE
64
COMBINED
1
0
0

1.000000
RATIO

1
0
TRUE
51149
0
LEFT NOT FITTED RIGHT NOT FITTED 0
NONE
NONE
15600
12
4.427000
51148
TRUE
1 0 8 72 0 0 0 0

15798

#HDR
-1
-1
#GR
CM-1
%T
2.38419e-05
0.0
5000
-1.000000
4631
8
65.1172
-5.736422
#DATA
5000	63.0311
4984	62.5326
4968	62.7491
4952	63.1642
4936	62.8093
4920	62.8499
4904	63.0702
4888	63.3042
4872	63.452
4856	62.4154
4840	62.8202
4824	63.1213
4808	62.8554
4792	62.5853
4776	62.3184
4760	62.4549
4744	62.5948
4728	62.3737
4712	62.6509
4696	62.2232
4680	62.5281
4664	62.2116
4648	62.0684
4632	62.2581
4616	62.5888
4600	62.4861
4584	62.1899
4568	62.3411
4552	62.6407
4536	62.4972
4520	62.2511
4504	63.0188
4488	63.1581
4472	63.0237
4456	63.0158
4440	63.1759
4424	63.2007
4408	63.1353
4392	63.9623
4376	63.9174
4360	40.6622
4344	64.6146
4328	62.8524
4312	63.63
4296	62.9137
4280	62.7127
4264	62.5201
4248	62.4715
4232	62.567
4216	62.1452
4200	61.8592
4184	61.3387
4168	61.2475
4152	61.3212
4136	61.8616
4120	61.2139
4104	60.8432
4088	60.9027
4072	60.9956
4056	60.607
4040	60.902
4024	60.7026
4008	60.7975
3992	60.717
3976	60.6848
3960	60.7676
3944	60.7095
3928	60.4783
3912	60.6425
3896	60.5374
3880	60.7244
3864	60.5245
3848	60.6662
3832	60.2596
3816	60.2968
3800	60.1971
3784	59.9309
3768	60.0367
3752	60.0376
3736	59.9411
3720	59.9065
3704	59.7366
3688	59.382
3672	59.4035
3656	59.1908
3640	59.2028
3624	59.2695
3608	59.1068
3592	58.9001
3576	58.8914
3560	58.3618
3544	58.5858
3528	58.4561
3512	58.6443
3496	58.5475
3480	58.3395
3464	58.147
3448	58.032
3432	58.2474
3416	57.8312
3400	57.656
3384	57.5941
3368	57.4734
3352	57.4248
3336	57.4958
3320	57.1574
3304	57.0047
3288	56.6546
3272	56.7905
3256	56.788
3240	56.7024
3224	56.3222
3208	56.0767
3192	56.1472
3176	55.9418
3160	55.8539
3144	55.6599
3128	55.5655
3112	55.7149
3096	55.1807
3080	55.0938
3064	54.9552
3048	54.7254
3032	54.6241
3016	54.5223
3000	54.4245
2984	54.1395
2968	54.0096
2952	53.6726
2936	53.6885
2920	53.256
2904	53.2531
2888	53.1622
2872	53.0222
2856	52.7167
2840	52.8399
2824	52.4595
2808	52.3731
2792	52.1214
2776	51.8483
2760	51.7071
2744	51.6962
2728	51.2414
2712	51.124
2696	50.9839
2680	50.7166
2664	50.6821
2648	50.3612
2632	50.2369
2616	49.9367
2600	49.8461
2584	49.6707
2568	49.4913
2552	49.2348
2536	49.1409
2520	49.0089
2504	48.7359
2488	48.3493
2472	48.1893
2456	48.2493
2440	47.7359
2424	47.5233
2408	47.1688
2392	47.2461
2376	46.9572
2360	46.8617
2344	46.5
2328	46.2777
2312	46.1
2296	45.8558
2280	45.6287
2264	45.4558
2248	45.2705
2232	45.096
2216	44.8377
2200	44.6671
2184	44.5022
2168	44.1086
2152	43.7765
2136	43.6414
2120	43.4114
2104	43.3288
2088	43.16
2072	42.6064
2056	42.524
2040	42.4585
2024	42.2804
2008	42.0377
1992	41.7035
1976	41.6196
1960	41.2452
1944	41.0507
1928	40.8371
1912	40.5705
1896	40.3497
1880	40.1905
1864	39.93
1848	39.7418
1832	39.4655
1816	39.1788
1800	38.8791
1784	38.6757
1768	38.5148
1752	38.3483
1736	37.91
1720	37.7036
1704	37.5994
1688	37.4061
1672	37.2116
1656	36.8638
1640	36.6795
1624	36.4721
1608	36.254
1592	35.9466
1576	35.7837
1560	35.4479
1544	35.3394
1528	35.1388
1512	34.8119
1496	34.6444
1480	34.432
1464	34.2991
1448	34.0108
1432	33.7159
1416	33.538
1400	33.3508
1384	33.1751
1368	32.856
1352	32.6739
1336	32.4626
1320	32.0552
1304	31.9767
1288	31.8176
1272	31.5524
1256	31.378
1240	31.2031
1224	30.9041
1208	30.7355
1192	30.6698
1176	30.3111
1160	29.8488
1144	29.7523
1128	29.1819
1112	29.5815
1096	29.0615
1080	29.0495
1064	28.4105
1048	28.3534
1032	28.3411
1016	28.0494
1000	27.8636
984	 27.3458
968	 27.0661
952	 26.9924
936	 26.7238
920	 26.2114
904	 26.0314
888	 25.7162
872	 25.5477
856	 25.2665
840	 24.8672
824	 24.7317
808	 24.3289
792	 24.0617
776	 23.7479
760	 23.4942
744	 22.9997
728	 23.1073
712	 22.3218
696	 21.4376
680	 21.4126
664	 20.9672
648	 20.3609
632	 20.0238
616	 19.4817
600	 19.3715
584	 18.8011
568	 17.8205
552	 17.2648
536	 16.4606
520	 16.0358
504	 15.785
488	 14.836
472	 13.7695
456	 14.1728
440	 12.8633
424	 9.448027
408	 8.214592
392	 10.5396
376	 -0.319862
370	 33.1064