File: Bakgrunnsmateriale/MATLAB/FTIR/ftir_data/subBb/Mapping_121/C-4040-8_t109_cm-1.asc
PE IR       SPECTRUM    SPECTRUM    ASCII       PEDS        1.60
  -1
C-4E8C~1.ASC
17/03/27
23:24:19.00
17/03/27
23:24:19.00
tln
$C-4040-8_t0109$<tbV0>[-10.4,10.4,8.0,0.0,27,1,0]
370
64

2002,4.07
MIRTGS : RIGHTBACK : INTERNAL 2
MIR : ON : INTERNAL 2
OPTKBR

0.200000
8
8.000000
FILLER
RATIO
SPECTRUM
UNLOCKED 256

DOUBLE
64
COMBINED
1
0
0

1.000000
RATIO

1
0
TRUE
51149
0
LEFT NOT FITTED RIGHT NOT FITTED 0
NONE
NONE
15600
12
4.427000
51148
TRUE
1 0 8 72 0 0 0 0

15798

#HDR
-1
-1
#GR
CM-1
%T
2.38419e-05
0.0
5000
-1.000000
4631
8
177.474
31.6305
#DATA
5000	65.0567
4984	65.3642
4968	64.8017
4952	65.1818
4936	65.2174
4920	65.2567
4904	65.2085
4888	64.943
4872	65.4873
4856	65.2799
4840	64.9186
4824	65.1118
4808	65.1819
4792	65.1388
4776	64.8589
4760	65.3835
4744	65.1159
4728	65.0417
4712	65.0099
4696	65.2478
4680	64.9695
4664	65.1076
4648	65.5723
4632	65.1658
4616	65.1911
4600	64.8645
4584	65.6671
4568	64.776
4552	64.9914
4536	64.1425
4520	65.6223
4504	64.9614
4488	65.5582
4472	64.4808
4456	64.7071
4440	63.8057
4424	65.2004
4408	64.8957
4392	64.9102
4376	66.4319
4360	65.5012
4344	64.3568
4328	65.4116
4312	64.4791
4296	64.5982
4280	64.6889
4264	65.1272
4248	64.2731
4232	65.0355
4216	64.4624
4200	64.7984
4184	64.4936
4168	65.4582
4152	64.6254
4136	65.2911
4120	65.0688
4104	65.2114
4088	65.0736
4072	65.0051
4056	65.2708
4040	65.0723
4024	65.4758
4008	65.2455
3992	65.2705
3976	65.0187
3960	65.2263
3944	64.8526
3928	65.1014
3912	65.4052
3896	65.0112
3880	65.2766
3864	65.1858
3848	65.0258
3832	65.0959
3816	65.2859
3800	64.9779
3784	65.0798
3768	65.3866
3752	65.3467
3736	65.3604
3720	65.2302
3704	65.0738
3688	65.2087
3672	65.1653
3656	65.2344
3640	65.1264
3624	65.4917
3608	65.1911
3592	65.4247
3576	65.3855
3560	65.2425
3544	64.9403
3528	65.1088
3512	65.5874
3496	65.2169
3480	64.8155
3464	65.3658
3448	65.1371
3432	65.2067
3416	65.2611
3400	64.9607
3384	64.924
3368	65.3359
3352	65.0961
3336	65.278
3320	64.9862
3304	65.0876
3288	65.0095
3272	65.0856
3256	65.2215
3240	65.1536
3224	65.0657
3208	65.4637
3192	64.944
3176	65.2536
3160	65.2824
3144	65.1437
3128	64.9539
3112	65.2616
3096	65.1487
3080	65.0761
3064	65.1729
3048	65.1033
3032	65.4016
3016	65.1112
3000	65.2993
2984	64.904
2968	65.0414
2952	65.1114
2936	65.1768
2920	64.6586
2904	65.1499
2888	65.192
2872	65.0568
2856	65.4455
2840	65.25
2824	65.2429
2808	65.1252
2792	65.4708
2776	65.1783
2760	65.2316
2744	65.2286
2728	65.3776
2712	65.3289
2696	65.3802
2680	65.2601
2664	65.4119
2648	65.3002
2632	65.1884
2616	65.201
2600	65.3312
2584	65.2746
2568	65.3313
2552	65.1938
2536	65.2947
2520	65.249
2504	65.308
2488	65.2543
2472	65.459
2456	65.1418
2440	65.1453
2424	64.8964
2408	64.9157
2392	65.3011
2376	65.1681
2360	65.312
2344	65.3573
2328	65.222
2312	65.2838
2296	65.3574
2280	65.3781
2264	65.3098
2248	65.2716
2232	65.3505
2216	65.4282
2200	65.3192
2184	65.3129
2168	65.4622
2152	65.533
2136	65.3408
2120	65.2596
2104	65.3521
2088	65.2835
2072	65.6428
2056	65.1735
2040	65.3982
2024	65.2801
2008	65.2256
1992	65.3148
1976	65.2715
1960	65.2682
1944	65.2831
1928	65.239
1912	65.1755
1896	65.2631
1880	65.168
1864	65.2788
1848	65.3643
1832	65.3762
1816	65.2694
1800	65.2236
1784	65.1167
1768	65.3897
1752	65.0173
1736	65.0504
1720	64.8956
1704	65.036
1688	65.2898
1672	65.143
1656	65.2412
1640	65.2291
1624	65.1154
1608	65.1725
1592	65.0354
1576	64.9004
1560	64.9062
1544	65.1129
1528	65.1515
1512	65.1736
1496	65.4014
1480	65.1682
1464	64.9916
1448	65.0296
1432	64.9909
1416	65.1307
1400	65.0018
1384	65.1798
1368	64.9882
1352	65.0332
1336	64.9967
1320	65.171
1304	64.8561
1288	65.0716
1272	65.0314
1256	64.9636
1240	64.9906
1224	64.9629
1208	64.8936
1192	64.7618
1176	64.9527
1160	65.0737
1144	64.842
1128	64.6472
1112	64.883
1096	64.0985
1080	64.419
1064	64.5897
1048	64.4432
1032	64.5138
1016	64.1274
1000	64.6071
984	 64.3638
968	 64.7086
952	 64.3791
936	 64.4635
920	 64.5945
904	 64.5724
888	 63.9046
872	 64.0839
856	 63.6713
840	 64.1739
824	 63.5216
808	 64.0494
792	 64.0572
776	 63.8652
760	 63.7702
744	 63.5823
728	 63.3313
712	 63.3689
696	 62.9847
680	 62.9644
664	 62.454
648	 62.3068
632	 62.8317
616	 62.4617
600	 62.8756
584	 62.036
568	 61.9788
552	 62.4515
536	 61.2811
520	 61.2525
504	 60.8269
488	 60.3534
472	 59.2908
456	 60.5784
440	 57.477
424	 59.3477
408	 48.2397
392	 33.4865
376	 123.627
370	 177.474