File: Bakgrunnsmateriale/MATLAB/FTIR/ftir_data/subBb/Mapping_121/C-4040-8_t33.asc
PE IR       SPECTRUM    SPECTRUM    ASCII       PEDS        1.60
  -1
C-A136~1.ASC
17/03/27
17:10:59.00
17/03/27
17:11:25.00
tln
$C-4040-8_t0033$<tbV0>[-13.0,-7.8,8.0,0.0,27,1,0]
27.028
64

2002,4.07
MIRTGS : RIGHTBACK : INTERNAL 2
MIR : ON : INTERNAL 2
OPTKBR

0.200000
8
8.000000
FILLER
RATIO
SPECTRUM
UNLOCKED 256

DOUBLE
64
COMBINED
1
0
0

0.002000
RATIO

1
0
TRUE
51149
0
LEFT NOT FITTED RIGHT NOT FITTED 0
NONE
NONE
15600
12
4.427000
51148
TRUE
1 0 8 72 0 0 0 0

15798

#HDR
-1
-1
#GR
µM
%T
2.38419e-05
0.0
2.000000
0.002000
12515
8
89.6919
33.0258
#DATA
2.000000	 64.6348
2.084000	 65.0696
2.168000	 64.8334
2.252000	 64.8231
2.336000	 65.0458
2.420000	 65.0485
2.504000	 65.0871
2.588000	 65.1368
2.672000	 65.1696
2.756000	 65.0504
2.840000	 65.1263
2.924000	 64.9972
3.008000	 65.2185
3.092000	 65.2928
3.176000	 65.0458
3.260000	 65.1903
3.344000	 65.1521
3.428000	 64.8447
3.512000	 64.9848
3.596000	 65.3346
3.680000	 65.1328
3.764000	 65.1751
3.848000	 65.3442
3.932000	 65.3358
4.016000	 65.1848
4.100000	 65.2567
4.184000	 65.301
4.268000	 65.2479
4.352000	 65.2928
4.436000	 65.4197
4.520000	 65.4169
4.604000	 65.3632
4.688000	 65.356
4.772000	 65.44
4.856000	 65.6302
4.940000	 65.4129
5.024000	 65.4729
5.108000	 65.427
5.192000	 65.3986
5.276000	 65.3471
5.359999	 65.3493
5.444000	 65.3535
5.528000	 65.2129
5.612000	 65.2382
5.696000	 65.3649
5.780000	 64.9769
5.864000	 65.2304
5.948000	 65.2561
6.032000	 65.2168
6.116000	 65.3043
6.200000	 65.1668
6.284000	 65.2185
6.368000	 65.0295
6.452000	 65.1279
6.536000	 65.1201
6.620000	 65.1272
6.704000	 65.1432
6.788000	 64.9856
6.872000	 65.1331
6.956000	 65.1749
7.040000	 65.1609
7.124000	 64.9644
7.208000	 65.0091
7.292000	 65.0035
7.376000	 65.1491
7.460000	 65.225
7.544000	 65.0611
7.628000	 65.1566
7.712000	 65.0041
7.796000	 65.0845
7.880000	 65.2043
7.964000	 65.1284
8.048000	 65.0666
8.132000	 64.9859
8.216000	 65.178
8.300000	 65.0169
8.384000	 65.0349
8.468000	 64.8909
8.552000	 65.0266
8.635999	 64.8511
8.719999	 65.0742
8.804000	 64.8957
8.888000	 65.0441
8.972000	 64.8254
9.056000	 65.2104
9.140000	 64.5937
9.224000	 65.4409
9.308000	 65.1677
9.391999	 64.8586
9.475999	 64.5052
9.560000	 64.639
9.644000	 65.0367
9.728000	 65.0888
9.812000	 65.1714
9.896000	 64.6024
9.980000	 64.5255
10.064	64.6325
10.148	65.0866
10.232	64.9503
10.316	64.8513
10.4	64.6109
10.484	64.773
10.568	64.8704
10.652	64.6755
10.736	64.7304
10.82	64.6683
10.904	65.0768
10.988	64.8735
11.072	64.6414
11.156	64.4699
11.24	64.6084
11.324	64.6169
11.408	64.566
11.492	64.643
11.576	64.895
11.66	64.9085
11.744	64.8497
11.828	64.6946
11.912	64.5135
11.996	64.6144
12.08	64.4669
12.164	64.4248
12.248	64.3588
12.332	64.1734
12.416	64.2439
12.5	64.2264
12.584	64.2385
12.668	64.464
12.752	64.4937
12.836	64.4839
12.92	64.2934
13.004	64.1352
13.088	64.2267
13.172	64.2609
13.256	63.9988
13.34	63.9009
13.424	64.0699
13.508	64.1202
13.592	64.0758
13.676	64.0446
13.76	64.0204
13.844	64.0075
13.928	64.1141
14.012	64.0311
14.096	63.9361
14.18	64.0601
14.264	64.0676
14.348	63.8886
14.432	63.7769
14.516	63.7817
14.6	63.7451
14.684	63.6818
14.768	63.5874
14.852	63.5275
14.936	63.6432
15.02	63.7124
15.104	63.5405
15.188	63.3864
15.272	63.3613
15.356	63.3626
15.44	63.4923
15.524	63.5967
15.608	63.3687
15.692	63.0858
15.776	63.0953
15.86	63.219
15.944	63.2807
16.028	63.3853
16.112	63.5007
16.196	63.4587
16.28	63.3373
16.364	63.3236
16.448	63.3548
16.532	63.3213
16.616	63.2733
16.7	63.2261
16.784	63.1185
16.868	62.9728
16.952	62.8728
17.036	62.8805
17.12	63.0376
17.204	63.3145
17.288	63.5552
17.372	63.5575
17.456	63.2746
17.54	62.922
17.624	62.7614
17.708	62.821
17.792	62.9339
17.876	62.9785
17.96	62.9835
18.044	63.0243
18.128	63.1086
18.212	63.1745
18.296	63.1692
18.38	63.1121
18.464	63.0399
18.548	62.9281
18.632	62.7239
18.716	62.4712
18.8	62.323
18.884	62.3857
18.968	62.6008
19.052	62.8082
19.136	62.8726
19.22	62.7486
19.304	62.4873
19.388	62.1994
19.472	61.9847
19.556	61.8732
19.64	61.8287
19.724	61.8044
19.808	61.782
19.892	61.75
19.976	61.6938
20.06	61.6241
20.144	61.5916
20.228	61.6474
20.312	61.7934
20.396	61.9724
20.48	62.1073
20.564	62.1555
20.648	62.1385
20.732	62.124
20.816	62.1664
20.9	62.2611
20.984	62.3484
21.068	62.3583
21.152	62.2681
21.236	62.1245
21.32	62.0149
21.404	62.0055
21.488	62.0924
21.572	62.2055
21.656	62.256
21.74	62.194
21.824	62.0467
21.908	61.8908
21.992	61.7799
22.076	61.7026
22.16	61.593
22.244	61.4072
22.328	61.1711
22.412	60.969
22.496	60.8743
22.58	60.8984
22.664	60.9874
22.748	61.0716
22.832	61.1416
22.916	61.2217
23	61.3504
23.084	61.4986
23.168	61.5736
23.252	61.4804
23.336	61.1576
23.42	60.6348
23.504	60.0099
23.588	59.3987
23.672	58.8969
23.756	58.5649
23.84	58.3189
23.924	58.0262
24.008	57.5296
24.092	56.6468
24.176	55.2594
24.26	53.3478
24.344	51.0254
24.428	48.4874
24.512	45.9227
24.596	43.4208
24.68	41.0553
24.764	38.9687
24.848	37.2754
24.932	36.0297
25.016	35.2331
25.1	34.8276
25.184	35.1096
25.268	36.7462
25.352	40.5036
25.436	46.872
25.52	55.5512
25.604	65.4166
25.688	74.8643
25.772	82.4154
25.856	87.2495
25.94	89.3956
26.024	89.5896
26.108	88.8513
26.192	87.8701
26.276	86.7073
26.36	84.9165
26.444	81.7895
26.528	76.7841
26.612	70.0384
26.696	62.1072
26.78	53.7143
26.864	45.6379
26.948	38.5139
27.028	33.0258