File: Bakgrunnsmateriale/MATLAB/FTIR/ftir_data/subBb/Mapping_121/C-4040-8_t101_cm-1.asc
PE IR       SPECTRUM    SPECTRUM    ASCII       PEDS        1.60
  -1
C-468C~1.ASC
17/03/27
22:47:24.00
17/03/27
22:47:24.00
tln
$C-4040-8_t0101$<tbV0>[10.4,10.4,8.0,0.0,27,1,0]
370
64

2002,4.07
MIRTGS : RIGHTBACK : INTERNAL 2
MIR : ON : INTERNAL 2
OPTKBR

0.200000
8
8.000000
FILLER
RATIO
SPECTRUM
UNLOCKED 256

DOUBLE
64
COMBINED
1
0
0

1.000000
RATIO

1
0
TRUE
51149
0
LEFT NOT FITTED RIGHT NOT FITTED 0
NONE
NONE
15600
12
4.427000
51148
TRUE
1 0 8 72 0 0 0 0

15798

#HDR
-1
-1
#GR
CM-1
%T
2.38419e-05
0.0
5000
-1.000000
4631
8
200
41.7492
#DATA
5000	65.4205
4984	64.3212
4968	65.3376
4952	64.6123
4936	64.1444
4920	65.0654
4904	64.7452
4888	64.9393
4872	64.8918
4856	64.8009
4840	64.5174
4824	65.2274
4808	65.1614
4792	65.433
4776	65.0103
4760	65.0583
4744	64.9879
4728	64.742
4712	64.985
4696	65.3459
4680	65.06
4664	65.1473
4648	65.0119
4632	64.8802
4616	64.8551
4600	64.93
4584	65.1676
4568	64.9906
4552	65.2936
4536	63.4215
4520	65.2692
4504	64.5463
4488	64.3953
4472	64.4201
4456	64.1751
4440	63.7303
4424	63.5614
4408	66.409
4392	65.1532
4376	67.4872
4360	64.6304
4344	64.2441
4328	64.5679
4312	64.2296
4296	64.538
4280	64.0708
4264	64.9469
4248	64.2129
4232	64.7267
4216	64.9485
4200	64.3485
4184	64.1767
4168	64.8336
4152	65.0648
4136	65.2235
4120	65.2847
4104	65.4371
4088	65.0702
4072	64.9903
4056	65.001
4040	65.2604
4024	65.1851
4008	65.079
3992	65.0439
3976	64.9674
3960	65.1713
3944	65.1753
3928	64.9186
3912	65.2245
3896	64.8172
3880	64.8123
3864	65.2865
3848	64.7137
3832	65.0977
3816	65.1333
3800	64.9326
3784	65.0373
3768	65.1847
3752	65.1177
3736	65.2452
3720	65.0855
3704	65.0765
3688	65.0279
3672	64.9536
3656	65.0983
3640	65.2612
3624	65.3296
3608	65.1297
3592	65.2794
3576	65.067
3560	65.2942
3544	64.7513
3528	65.0323
3512	65.0971
3496	65.0332
3480	64.9424
3464	64.9618
3448	65.0957
3432	65.0382
3416	65.209
3400	65.0928
3384	65.0283
3368	65.0345
3352	65.2035
3336	64.9815
3320	65.0131
3304	65.1092
3288	64.9338
3272	65.1607
3256	65.0773
3240	65.1277
3224	65.1592
3208	65.1876
3192	64.8829
3176	65.3676
3160	65.3035
3144	65.2402
3128	65.313
3112	64.9978
3096	65.0527
3080	64.9827
3064	65.114
3048	65.0919
3032	65.3904
3016	65.1747
3000	65.1831
2984	65.1593
2968	64.8867
2952	64.9713
2936	65.1206
2920	64.7704
2904	65.0128
2888	64.9935
2872	65.2152
2856	65.0815
2840	64.9765
2824	65.0943
2808	65.1151
2792	65.2424
2776	65.2215
2760	65.164
2744	65.2136
2728	65.1452
2712	65.1338
2696	65.1059
2680	65.2056
2664	65.3698
2648	65.1564
2632	65.1152
2616	65.1319
2600	65.1976
2584	65.2582
2568	65.2169
2552	65.2101
2536	65.1315
2520	65.2255
2504	65.2981
2488	65.3648
2472	65.3207
2456	65.1847
2440	65.0135
2424	64.7267
2408	65.3283
2392	65.277
2376	65.1996
2360	65.2119
2344	65.1928
2328	65.152
2312	65.2992
2296	65.1995
2280	65.2693
2264	65.2679
2248	65.2311
2232	65.2765
2216	65.1753
2200	65.0896
2184	65.3064
2168	65.2825
2152	65.343
2136	65.3022
2120	65.0889
2104	65.3001
2088	65.1239
2072	65.5766
2056	64.9613
2040	65.2883
2024	65.2575
2008	65.1803
1992	65.1716
1976	65.1667
1960	65.2979
1944	65.1807
1928	65.3133
1912	65.1064
1896	65.17
1880	65.2788
1864	65.2576
1848	65.2406
1832	65.2961
1816	65.2668
1800	65.1496
1784	65.157
1768	65.1541
1752	64.9499
1736	64.7782
1720	64.9294
1704	65.2289
1688	65.2238
1672	65.1366
1656	65.0829
1640	65.1451
1624	65.1751
1608	65.1216
1592	65.0135
1576	65.0036
1560	64.9248
1544	65.0748
1528	64.9472
1512	64.9103
1496	65.2289
1480	65.1008
1464	64.831
1448	65.1685
1432	65.0087
1416	65.1135
1400	65.1771
1384	65.1358
1368	64.8472
1352	65.0259
1336	64.8978
1320	64.9861
1304	64.844
1288	64.8787
1272	65.0154
1256	64.9425
1240	64.9929
1224	64.8406
1208	64.9417
1192	64.8857
1176	64.8885
1160	64.8144
1144	64.6813
1128	64.7099
1112	64.9578
1096	64.6454
1080	64.6202
1064	64.7329
1048	64.708
1032	64.6338
1016	64.8558
1000	64.6495
984	 64.8578
968	 64.6361
952	 64.6779
936	 64.677
920	 65.1301
904	 64.4361
888	 64.5286
872	 64.3106
856	 64.7372
840	 64.388
824	 64.3609
808	 64.3201
792	 64.2135
776	 63.9241
760	 63.9394
744	 64.3027
728	 63.59
712	 63.3812
696	 63.1777
680	 63.426
664	 63.0705
648	 63.0816
632	 63.3338
616	 62.7768
600	 63.1806
584	 62.2607
568	 62.8661
552	 62.7805
536	 62.265
520	 60.9206
504	 61.5475
488	 62.0458
472	 61.5691
456	 60.2062
440	 57.9553
424	 60.8372
408	 56.0142
392	 47.554
376	 81.5825
370	 200