File: Bakgrunnsmateriale/MATLAB/FTIR/ftir_data/subBb/Mapping_121/C-4040-8_t11_cm-1.asc
PE IR       SPECTRUM    SPECTRUM    ASCII       PEDS        1.60
  -1
C-1AE4~1.ASC
17/03/27
15:21:42.00
17/03/27
15:21:42.00
tln
$C-4040-8_t0011$<tbV0>[-13.0,-13.0,8.0,0.0,27,1,0]
370
64

2002,4.07
MIRTGS : RIGHTBACK : INTERNAL 2
MIR : ON : INTERNAL 2
OPTKBR

0.200000
8
8.000000
FILLER
RATIO
SPECTRUM
UNLOCKED 256

DOUBLE
64
COMBINED
1
0
0

1.000000
RATIO

1
0
TRUE
51149
0
LEFT NOT FITTED RIGHT NOT FITTED 0
NONE
NONE
15600
12
4.427000
51148
TRUE
1 0 8 72 0 0 0 0

15798

#HDR
-1
-1
#GR
CM-1
%T
2.38419e-05
0.0
5000
-1.000000
4631
8
86.5051
40.4225
#DATA
5000	64.5423
4984	65.2213
4968	64.7858
4952	64.3985
4936	63.8041
4920	64.5119
4904	65.5018
4888	64.8229
4872	65.0423
4856	64.8542
4840	65.1241
4824	64.5893
4808	64.6842
4792	64.7288
4776	65.0768
4760	64.707
4744	65.2048
4728	64.6624
4712	64.9612
4696	64.5631
4680	64.8766
4664	64.9741
4648	64.7995
4632	65.1554
4616	65.2645
4600	64.9508
4584	64.6863
4568	64.7829
4552	64.5698
4536	64.5063
4520	64.7575
4504	64.7836
4488	64.205
4472	64.3021
4456	65.7953
4440	67.124
4424	63.1052
4408	61.9244
4392	63.418
4376	65.2128
4360	66.005
4344	64.9308
4328	64.6213
4312	64.3192
4296	64.4791
4280	64.7002
4264	64.5384
4248	64.4597
4232	64.7617
4216	64.4996
4200	64.4266
4184	64.3057
4168	64.9774
4152	64.788
4136	65.0786
4120	65.1564
4104	65.0153
4088	65.0496
4072	64.9341
4056	65.2868
4040	65.0653
4024	65.1192
4008	65.327
3992	65.1602
3976	64.8711
3960	64.9915
3944	65.0465
3928	65.0718
3912	65.1553
3896	65.135
3880	64.9953
3864	65.1112
3848	65.15
3832	65.2318
3816	65.0404
3800	65.2415
3784	64.7132
3768	65.3942
3752	65.4256
3736	65.188
3720	65.3011
3704	65.1881
3688	65.2452
3672	65.4134
3656	65.2535
3640	64.9659
3624	65.0969
3608	65.0056
3592	65.2204
3576	64.9289
3560	65.1416
3544	64.8929
3528	64.9174
3512	64.6641
3496	64.7521
3480	64.911
3464	65.1025
3448	65.0057
3432	64.9093
3416	64.8222
3400	64.8891
3384	64.8643
3368	64.788
3352	64.6851
3336	64.8875
3320	64.6505
3304	64.8117
3288	64.8097
3272	64.9613
3256	64.7447
3240	64.5822
3224	64.802
3208	64.623
3192	64.7387
3176	64.6629
3160	64.8959
3144	64.7382
3128	65.0276
3112	64.8428
3096	64.8986
3080	64.7176
3064	64.8071
3048	64.8453
3032	64.6212
3016	64.9576
3000	64.8435
2984	64.8036
2968	64.6296
2952	64.4813
2936	64.6784
2920	64.4686
2904	64.5729
2888	64.5252
2872	64.4703
2856	64.4017
2840	64.9995
2824	64.7835
2808	64.6762
2792	64.6319
2776	64.6818
2760	64.6913
2744	64.7116
2728	64.6923
2712	64.6952
2696	64.7488
2680	64.665
2664	64.7373
2648	64.5894
2632	64.6133
2616	64.4625
2600	64.4819
2584	64.5047
2568	64.6121
2552	64.5395
2536	64.5093
2520	64.4876
2504	64.5227
2488	64.4847
2472	64.5028
2456	64.5676
2440	64.4927
2424	64.5936
2408	64.3252
2392	64.5264
2376	64.5494
2360	64.5282
2344	64.4003
2328	64.4874
2312	64.4508
2296	64.4163
2280	64.3692
2264	64.3582
2248	64.355
2232	64.3272
2216	64.3494
2200	64.3618
2184	64.1848
2168	64.3341
2152	64.2611
2136	64.3197
2120	64.2346
2104	64.2193
2088	64.1485
2072	64.2349
2056	64.2139
2040	64.2182
2024	64.0972
2008	64.0993
1992	64.1689
1976	64.1149
1960	63.9962
1944	64.0676
1928	64.079
1912	64.1724
1896	64.1069
1880	64.1403
1864	64.0827
1848	64.1209
1832	64.0432
1816	64.0457
1800	63.8703
1784	64.0148
1768	64.018
1752	63.9103
1736	63.8842
1720	64.0144
1704	64.0975
1688	64.0291
1672	64.1076
1656	64.2749
1640	64.0043
1624	63.8776
1608	63.7151
1592	63.6736
1576	63.8559
1560	64.1041
1544	63.9945
1528	63.8597
1512	63.8918
1496	63.6564
1480	63.6236
1464	63.7449
1448	63.5943
1432	63.6396
1416	63.5557
1400	63.5537
1384	63.4379
1368	63.4924
1352	63.4184
1336	63.3409
1320	63.4191
1304	63.2503
1288	63.2187
1272	63.0292
1256	63.0923
1240	63.0393
1224	63.2092
1208	63.0646
1192	63.095
1176	63.072
1160	63.1119
1144	62.9586
1128	62.8744
1112	62.8106
1096	62.8107
1080	62.8165
1064	62.8808
1048	62.7911
1032	62.7105
1016	62.8198
1000	62.7999
984	 62.7397
968	 62.614
952	 62.5623
936	 62.4292
920	 62.2773
904	 62.6697
888	 62.3166
872	 62.3339
856	 62.2856
840	 62.0786
824	 61.9637
808	 61.9706
792	 61.8564
776	 61.9726
760	 61.7382
744	 61.9141
728	 61.2575
712	 61.2925
696	 61.3272
680	 60.947
664	 60.868
648	 60.8842
632	 60.9816
616	 60.8068
600	 60.5784
584	 60.7128
568	 60.5514
552	 60.0552
536	 59.43
520	 58.9457
504	 59.106
488	 59.2367
472	 58.6666
456	 57.233
440	 57.2508
424	 57.4143
408	 53.4901
392	 64.9058
376	 41.4889
370	 85.3617