File: Bakgrunnsmateriale/MATLAB/FTIR/ftir_data/subBb/Mapping_121/C-4040-8_t115_cm-1.asc
PE IR       SPECTRUM    SPECTRUM    ASCII       PEDS        1.60
  -1
C-4A09~1.ASC
17/03/28
00:12:42.00
17/03/28
00:12:42.00
tln
$C-4040-8_t0115$<tbV0>[2.6,13.0,8.0,0.0,27,1,0]
370
64

2002,4.07
MIRTGS : RIGHTBACK : INTERNAL 2
MIR : ON : INTERNAL 2
OPTKBR

0.200000
8
8.000000
FILLER
RATIO
SPECTRUM
UNLOCKED 256

DOUBLE
64
COMBINED
1
0
0

1.000000
RATIO

1
0
TRUE
51149
0
LEFT NOT FITTED RIGHT NOT FITTED 0
NONE
NONE
15600
12
4.427000
51148
TRUE
1 0 8 72 0 0 0 0

15798

#HDR
-1
-1
#GR
CM-1
%T
2.38419e-05
0.0
5000
-1.000000
4631
8
119.471
46.8151
#DATA
5000	64.9253
4984	65.1173
4968	64.7068
4952	64.9164
4936	64.6054
4920	64.5124
4904	64.8546
4888	64.3564
4872	64.2499
4856	64.7896
4840	64.513
4824	64.5625
4808	64.7823
4792	64.6038
4776	64.5796
4760	64.3547
4744	65.4803
4728	64.6954
4712	64.6273
4696	64.6704
4680	64.7507
4664	65.054
4648	64.6039
4632	65.0614
4616	64.1809
4600	64.9712
4584	64.9748
4568	65.4379
4552	65.6744
4536	64.4843
4520	65.5294
4504	65.2214
4488	65.5918
4472	65.5471
4456	65.4788
4440	64.5741
4424	64.7718
4408	67.8982
4392	52.9563
4376	66.4688
4360	65.9605
4344	65.0716
4328	65.1742
4312	65.2796
4296	65.2281
4280	65.5175
4264	64.8676
4248	65.0087
4232	65.2646
4216	64.9375
4200	64.9413
4184	65.1822
4168	64.8511
4152	65.0207
4136	65.0885
4120	64.9806
4104	64.5677
4088	64.9983
4072	65.2507
4056	65.0559
4040	65.0111
4024	64.895
4008	64.8645
3992	64.9475
3976	65.1434
3960	65.0211
3944	65.0254
3928	64.988
3912	64.7738
3896	64.7205
3880	65.1517
3864	65.2269
3848	65.0441
3832	64.7876
3816	65.0131
3800	65.1795
3784	65.2413
3768	64.9703
3752	65.0656
3736	65.3279
3720	64.8848
3704	65.1668
3688	65.008
3672	65.1431
3656	64.9875
3640	65.0083
3624	64.9906
3608	64.9741
3592	65.1272
3576	64.9056
3560	65.2204
3544	65.0559
3528	65.2305
3512	64.9924
3496	65.4208
3480	65.2032
3464	65.2576
3448	65.0156
3432	65.0059
3416	65.0827
3400	65.1311
3384	65.1221
3368	64.9686
3352	64.9506
3336	65.04
3320	64.902
3304	64.8586
3288	65.0614
3272	64.9078
3256	65.1645
3240	64.8401
3224	64.9139
3208	64.9402
3192	64.7678
3176	65.1486
3160	65.0854
3144	65.0722
3128	65.1973
3112	65.2384
3096	64.9532
3080	65.1473
3064	65.0592
3048	65.0126
3032	65.2348
3016	65.1389
3000	65.0633
2984	65.1422
2968	64.8855
2952	64.9392
2936	64.9637
2920	64.8167
2904	64.842
2888	64.9628
2872	65.0009
2856	64.8811
2840	64.9895
2824	65.0961
2808	65.08
2792	65.0728
2776	64.9834
2760	65.0698
2744	65.0233
2728	65.0234
2712	65.0942
2696	65.1519
2680	65.1396
2664	65.0897
2648	65.0671
2632	64.9749
2616	65.2355
2600	65.061
2584	65.0628
2568	65.1562
2552	65.2389
2536	65.2106
2520	65.3158
2504	65.43
2488	65.0312
2472	65.1549
2456	65.2111
2440	65.1795
2424	64.8559
2408	65.2779
2392	65.1415
2376	65.0989
2360	65.1554
2344	65.2013
2328	65.1955
2312	65.1778
2296	65.2259
2280	65.0764
2264	65.2802
2248	65.2436
2232	65.1545
2216	65.1669
2200	65.2468
2184	65.0612
2168	65.339
2152	65.3355
2136	65.0257
2120	65.0898
2104	65.2126
2088	65.1972
2072	65.2542
2056	65.3124
2040	65.1685
2024	65.2686
2008	65.1811
1992	65.1033
1976	65.1959
1960	65.1071
1944	65.1242
1928	65.2213
1912	65.1828
1896	65.0713
1880	65.1365
1864	65.0595
1848	65.234
1832	65.0828
1816	65.0747
1800	65.1805
1784	65.022
1768	65.1468
1752	65.0054
1736	64.7457
1720	65.0741
1704	65.0713
1688	65.0832
1672	65.0611
1656	64.9509
1640	65.0748
1624	65.0635
1608	65.1012
1592	65.0142
1576	64.749
1560	64.795
1544	64.7621
1528	65.0862
1512	64.9698
1496	65.0062
1480	65.0771
1464	64.9186
1448	64.659
1432	65.0012
1416	64.8598
1400	64.9191
1384	64.8976
1368	64.801
1352	64.8946
1336	64.7802
1320	64.9137
1304	64.6608
1288	64.656
1272	64.9249
1256	64.7198
1240	64.6935
1224	64.752
1208	64.7845
1192	64.6113
1176	64.6264
1160	64.8525
1144	64.5159
1128	64.5516
1112	64.9826
1096	64.6755
1080	64.5749
1064	64.5753
1048	64.4322
1032	64.3772
1016	64.7889
1000	64.1739
984	 64.5429
968	 64.4545
952	 64.6156
936	 64.4598
920	 64.2896
904	 64.3984
888	 63.8919
872	 63.9929
856	 64.3453
840	 64.3574
824	 64.2102
808	 63.7929
792	 63.4984
776	 63.5633
760	 63.5123
744	 64.3733
728	 63.2283
712	 63.2512
696	 63.6944
680	 62.745
664	 63.1936
648	 63.0466
632	 62.5459
616	 62.2399
600	 63.1062
584	 61.8488
568	 61.8996
552	 61.5621
536	 62.1135
520	 60.6797
504	 60.2035
488	 61.3323
472	 60.19
456	 60.7307
440	 58.973
424	 59.4108
408	 66.9149
392	 48.109
376	 119.027
370	 85.9904