File: Bakgrunnsmateriale/MATLAB/FTIR/ftir_data/subBb/Mapping_121/C-4040-8_t114.asc
PE IR       SPECTRUM    SPECTRUM    ASCII       PEDS        1.60
  -1
C-8CC8~1.ASC
17/03/27
23:53:38.00
17/03/27
23:54:04.00
tln
$C-4040-8_t0114$<tbV0>[5.2,13.0,8.0,0.0,27,1,0]
27.028
64

2002,4.07
MIRTGS : RIGHTBACK : INTERNAL 2
MIR : ON : INTERNAL 2
OPTKBR

0.200000
8
8.000000
FILLER
RATIO
SPECTRUM
UNLOCKED 256

DOUBLE
64
COMBINED
1
0
0

0.002000
RATIO

1
0
TRUE
51149
0
LEFT NOT FITTED RIGHT NOT FITTED 0
NONE
NONE
15600
12
4.427000
51148
TRUE
1 0 8 72 0 0 0 0

15798

#HDR
-1
-1
#GR
µM
%T
2.38419e-05
0.0
2.000000
0.002000
12515
8
96.9612
39.6262
#DATA
2.000000	 64.6216
2.084000	 65.1132
2.168000	 65.0479
2.252000	 66.3535
2.336000	 65.8155
2.420000	 64.8674
2.504000	 65.1937
2.588000	 65.469
2.672000	 65.3401
2.756000	 65.3163
2.840000	 65.1346
2.924000	 65.1013
3.008000	 64.9754
3.092000	 65.1567
3.176000	 65.0796
3.260000	 65.1621
3.344000	 65.2651
3.428000	 64.9475
3.512000	 65.0903
3.596000	 65.203
3.680000	 65.2022
3.764000	 65.15
3.848000	 65.2157
3.932000	 65.2685
4.016000	 64.9885
4.100000	 65.2657
4.184000	 65.1749
4.268000	 65.3031
4.352000	 65.4188
4.436000	 65.2781
4.520000	 65.3785
4.604000	 65.4027
4.688000	 65.1485
4.772000	 65.3798
4.856000	 65.2032
4.940000	 65.3835
5.024000	 65.1298
5.108000	 65.2413
5.192000	 65.2189
5.276000	 65.2391
5.359999	 65.1957
5.444000	 65.2374
5.528000	 65.1359
5.612000	 65.2211
5.696000	 65.1163
5.780000	 64.8444
5.864000	 65.1507
5.948000	 65.1841
6.032000	 65.1352
6.116000	 65.1572
6.200000	 65.1077
6.284000	 65.1322
6.368000	 65.0344
6.452000	 65.0918
6.536000	 65.2897
6.620000	 65.0366
6.704000	 65.1075
6.788000	 65.1666
6.872000	 65.211
6.956000	 64.8518
7.040000	 65.0293
7.124000	 65.0674
7.208000	 65.0196
7.292000	 64.7988
7.376000	 65.0648
7.460000	 64.9769
7.544000	 65.0511
7.628000	 65.0296
7.712000	 64.8708
7.796000	 64.9502
7.880000	 64.8549
7.964000	 64.9691
8.048000	 64.8668
8.132000	 64.8594
8.216000	 65.0892
8.300000	 64.8295
8.384000	 64.9168
8.468000	 65.0981
8.552000	 64.8342
8.635999	 64.8466
8.719999	 64.7337
8.804000	 65.1874
8.888000	 64.8422
8.972000	 64.8406
9.056000	 64.8992
9.140000	 64.6475
9.224000	 64.9518
9.308000	 65.0053
9.391999	 64.8546
9.475999	 64.6278
9.560000	 64.7648
9.644000	 64.8219
9.728000	 64.7386
9.812000	 64.5874
9.896000	 64.7254
9.980000	 64.5408
10.064	64.6923
10.148	64.6533
10.232	64.4829
10.316	64.6129
10.4	64.6371
10.484	64.635
10.568	64.6885
10.652	64.4914
10.736	64.7744
10.82	64.7351
10.904	64.7757
10.988	64.9093
11.072	64.797
11.156	64.6765
11.24	64.3817
11.324	64.5987
11.408	64.9248
11.492	64.4148
11.576	64.1668
11.66	63.9913
11.744	64.1283
11.828	64.4854
11.912	64.4476
11.996	63.4526
12.08	63.2622
12.164	64.1016
12.248	64.2945
12.332	63.6211
12.416	63.5432
12.5	64.0559
12.584	64.1717
12.668	64.0812
12.752	64.5241
12.836	64.5697
12.92	64.196
13.004	64.1905
13.088	63.9121
13.172	63.6355
13.256	63.909
13.34	64.2538
13.424	64.1696
13.508	64.0291
13.592	63.988
13.676	63.708
13.76	63.7378
13.844	64.0332
13.928	63.9622
14.012	63.5449
14.096	63.3354
14.18	63.514
14.264	63.6486
14.348	63.5138
14.432	63.4749
14.516	63.693
14.6	63.6668
14.684	63.4061
14.768	63.2959
14.852	63.3248
14.936	63.4982
15.02	63.5917
15.104	63.3643
15.188	63.0962
15.272	63.1097
15.356	63.2455
15.44	63.1462
15.524	62.8999
15.608	62.934
15.692	63.2748
15.776	63.5101
15.86	63.4933
15.944	63.4007
16.028	63.3012
16.112	63.18
16.196	63.096
16.28	63.0335
16.364	62.9101
16.448	62.8173
16.532	62.8851
16.616	62.9884
16.7	62.9854
16.784	62.975
16.868	63.0167
16.952	63.0472
17.036	63.0053
17.12	62.8059
17.204	62.4417
17.288	62.1138
17.372	62.0002
17.456	62.0461
17.54	62.1279
17.624	62.2009
17.708	62.2603
17.792	62.3278
17.876	62.4153
17.96	62.4396
18.044	62.3032
18.128	62.1052
18.212	62.1089
18.296	62.4436
18.38	62.9398
18.464	63.2931
18.548	63.3187
18.632	63.0332
18.716	62.5691
18.8	62.0785
18.884	61.6859
18.968	61.4685
19.052	61.4264
19.136	61.4841
19.22	61.5407
19.304	61.5384
19.388	61.4796
19.472	61.3977
19.556	61.3213
19.64	61.2667
19.724	61.2628
19.808	61.3284
19.892	61.439
19.976	61.5407
20.06	61.6024
20.144	61.6305
20.228	61.6194
20.312	61.5319
20.396	61.3552
20.48	61.1653
20.564	61.069
20.648	61.0851
20.732	61.0814
20.816	60.8941
20.9	60.5065
20.984	60.1138
21.068	59.971
21.152	60.1791
21.236	60.6179
21.32	61.0797
21.404	61.4472
21.488	61.7141
21.572	61.8722
21.656	61.8181
21.74	61.4075
21.824	60.5975
21.908	59.5473
21.992	58.5457
22.076	57.8404
22.16	57.5113
22.244	57.4723
22.328	57.5926
22.412	57.7847
22.496	58.0413
22.58	58.3956
22.664	58.862
22.748	59.3932
22.832	59.8933
22.916	60.2608
23	60.4569
23.084	60.5127
23.168	60.4883
23.252	60.4081
23.336	60.2427
23.42	59.9617
23.504	59.5554
23.588	59.1135
23.672	58.8164
23.756	58.8448
23.84	59.256
23.924	59.9536
24.008	60.7368
24.092	61.3939
24.176	61.8201
24.26	61.9565
24.344	61.7821
24.428	61.3421
24.512	60.7649
24.596	60.2547
24.68	59.942
24.764	59.7388
24.848	59.3514
24.932	58.3201
25.016	56.2738
25.1	53.1689
25.184	49.3772
25.268	45.598
25.352	42.5977
25.436	41.0953
25.52	41.4847
25.604	43.7577
25.688	47.687
25.772	52.8983
25.856	58.9421
25.94	65.2957
26.024	71.3445
26.108	76.4593
26.192	80.1777
26.276	82.3464
26.36	83.225
26.444	83.3518
26.528	83.3611
26.612	83.7975
26.696	85.0366
26.78	87.2594
26.864	90.348
26.948	93.8653
27.028	96.9612