File: Bakgrunnsmateriale/MATLAB/FTIR/ftir_data/subBb/Mapping_121/C-4040-8_t10_cm-1.asc
PE IR       SPECTRUM    SPECTRUM    ASCII       PEDS        1.60
  -1
C-1A61~1.ASC
17/03/27
15:17:06.00
17/03/27
15:17:06.00
tln
$C-4040-8_t0010$<tbV0>[-10.4,-13.0,8.0,0.0,27,1,0]
370
64

2002,4.07
MIRTGS : RIGHTBACK : INTERNAL 2
MIR : ON : INTERNAL 2
OPTKBR

0.200000
8
8.000000
FILLER
RATIO
SPECTRUM
UNLOCKED 256

DOUBLE
64
COMBINED
1
0
0

1.000000
RATIO

1
0
TRUE
51149
0
LEFT NOT FITTED RIGHT NOT FITTED 0
NONE
NONE
15600
12
4.427000
51148
TRUE
1 0 8 72 0 0 0 0

15798

#HDR
-1
-1
#GR
CM-1
%T
2.38419e-05
0.0
5000
-1.000000
4631
8
80.8848
23.4479
#DATA
5000	63.8163
4984	64.5076
4968	63.7141
4952	63.3027
4936	63.8205
4920	63.4305
4904	64.6304
4888	64.294
4872	63.6675
4856	64.4221
4840	64.6135
4824	63.9663
4808	63.59
4792	64.1996
4776	64.069
4760	63.8028
4744	64.3737
4728	63.6728
4712	64.2332
4696	63.9918
4680	64.1637
4664	64.0063
4648	64.162
4632	64.1068
4616	64.0807
4600	63.8836
4584	63.6698
4568	63.7301
4552	63.5843
4536	63.2989
4520	63.2855
4504	63.7698
4488	62.9248
4472	63.6276
4456	64.4056
4440	66.0455
4424	61.8433
4408	61.1684
4392	64.9195
4376	65.7192
4360	63.5382
4344	63.312
4328	63.0969
4312	62.9417
4296	63.1063
4280	62.7462
4264	63.186
4248	62.9568
4232	63.1107
4216	63.3277
4200	63.5798
4184	62.8959
4168	62.8294
4152	63.3829
4136	63.1011
4120	63.4539
4104	63.5917
4088	63.4933
4072	63.3419
4056	63.2792
4040	63.4643
4024	63.4152
4008	63.6088
3992	63.6186
3976	62.857
3960	63.0709
3944	63.4171
3928	63.2627
3912	63.167
3896	63.2398
3880	62.962
3864	62.9911
3848	63.0271
3832	63.0407
3816	62.8252
3800	63.0763
3784	62.5351
3768	62.8122
3752	63.1268
3736	63.0067
3720	62.7459
3704	62.5458
3688	63.0039
3672	62.8226
3656	62.7085
3640	62.3989
3624	62.4084
3608	62.2643
3592	62.2412
3576	62.2174
3560	62.2632
3544	61.9545
3528	61.9843
3512	61.8053
3496	62.0089
3480	62.1156
3464	61.9178
3448	61.9114
3432	61.543
3416	61.465
3400	61.4274
3384	61.2737
3368	61.2566
3352	61.3027
3336	61.1468
3320	61.1325
3304	60.9698
3288	61.1192
3272	60.9591
3256	60.6327
3240	60.5796
3224	60.6442
3208	60.7715
3192	60.5469
3176	60.4897
3160	60.4642
3144	60.3353
3128	60.1319
3112	60.1987
3096	60.1235
3080	59.9885
3064	59.9415
3048	59.767
3032	59.7754
3016	59.7618
3000	59.5894
2984	59.4953
2968	59.2907
2952	59.0855
2936	59.0912
2920	58.963
2904	58.8826
2888	58.8446
2872	58.6866
2856	58.4491
2840	58.6744
2824	58.6062
2808	58.3667
2792	58.3321
2776	58.1758
2760	58.1169
2744	58.116
2728	57.8307
2712	57.7109
2696	57.7671
2680	57.6047
2664	57.4823
2648	57.2957
2632	57.233
2616	57.0782
2600	56.8639
2584	56.7822
2568	56.7157
2552	56.6448
2536	56.3983
2520	56.4137
2504	56.1642
2488	56.224
2472	55.9503
2456	55.627
2440	55.8905
2424	55.4385
2408	55.3457
2392	55.3689
2376	55.2049
2360	55.2046
2344	54.9617
2328	54.9033
2312	54.6232
2296	54.4945
2280	54.46
2264	54.3071
2248	54.2198
2232	54.1122
2216	53.9466
2200	53.7047
2184	53.5016
2168	53.4859
2152	53.3365
2136	53.2609
2120	53.121
2104	52.9944
2088	52.6668
2072	52.5003
2056	52.3915
2040	52.3375
2024	52.0548
2008	51.9929
1992	51.8868
1976	51.6575
1960	51.4479
1944	51.3977
1928	51.2967
1912	51.0789
1896	50.9791
1880	50.8517
1864	50.6358
1848	50.5535
1832	50.3531
1816	50.2062
1800	50.1122
1784	49.9328
1768	49.8815
1752	49.6021
1736	49.4403
1720	49.2352
1704	49.2529
1688	49.0298
1672	48.9291
1656	48.9425
1640	48.5217
1624	48.3181
1608	48.0425
1592	47.7901
1576	47.9422
1560	48.0175
1544	47.6242
1528	47.3335
1512	47.3123
1496	46.9709
1480	46.7449
1464	46.7335
1448	46.4621
1432	46.2461
1416	46.0668
1400	45.9922
1384	45.6684
1368	45.4745
1352	45.4472
1336	45.1024
1320	45.1269
1304	44.936
1288	44.7455
1272	44.398
1256	44.3047
1240	44.2129
1224	44.0912
1208	43.9779
1192	43.5751
1176	43.4145
1160	43.3645
1144	43.0708
1128	42.936
1112	42.8768
1096	42.7502
1080	42.3922
1064	42.2267
1048	42.1452
1032	41.8467
1016	41.9055
1000	41.5982
984	 41.4208
968	 41.1295
952	 40.6392
936	 40.3346
920	 39.9913
904	 39.9096
888	 39.6659
872	 40.132
856	 39.8448
840	 39.2345
824	 38.6149
808	 38.6746
792	 38.4769
776	 38.217
760	 37.917
744	 37.6506
728	 37.347
712	 36.8907
696	 36.8849
680	 36.0633
664	 35.7094
648	 35.2427
632	 34.9095
616	 34.3922
600	 33.4742
584	 33.6598
568	 32.3126
552	 32.1263
536	 31.7999
520	 30.8451
504	 31.0388
488	 29.9029
472	 29.6483
456	 28.0395
440	 26.388
424	 26.5374
408	 25.3794
392	 28.8101
376	 45.9508
370	 50.6879