File: Bakgrunnsmateriale/MATLAB/FTIR/ftir_data/subBb/Mapping_121/C-4040-8_t90.asc
PE IR       SPECTRUM    SPECTRUM    ASCII       PEDS        1.60
  -1
C-A94A~1.ASC
17/03/27
21:56:01.00
17/03/27
21:56:27.00
tln
$C-4040-8_t0090$<tbV0>[10.4,7.8,8.0,0.0,27,1,0]
27.028
64

2002,4.07
MIRTGS : RIGHTBACK : INTERNAL 2
MIR : ON : INTERNAL 2
OPTKBR

0.200000
8
8.000000
FILLER
RATIO
SPECTRUM
UNLOCKED 256

DOUBLE
64
COMBINED
1
0
0

0.002000
RATIO

1
0
TRUE
51149
0
LEFT NOT FITTED RIGHT NOT FITTED 0
NONE
NONE
15600
12
4.427000
51148
TRUE
1 0 8 72 0 0 0 0

15798

#HDR
-1
-1
#GR
µM
%T
2.38419e-05
0.0
2.000000
0.002000
12515
8
163.401
53.4166
#DATA
2.000000	 65.1561
2.084000	 65.3417
2.168000	 65.2341
2.252000	 62.9023
2.336000	 63.8679
2.420000	 65.2865
2.504000	 65.4102
2.588000	 65.0357
2.672000	 65.2705
2.756000	 65.3626
2.840000	 65.4058
2.924000	 65.2556
3.008000	 65.2644
3.092000	 65.2209
3.176000	 65.4215
3.260000	 65.2539
3.344000	 65.3436
3.428000	 64.9596
3.512000	 64.9118
3.596000	 65.4215
3.680000	 65.4352
3.764000	 65.4294
3.848000	 65.1823
3.932000	 65.3083
4.016000	 65.3418
4.100000	 65.2057
4.184000	 65.3036
4.268000	 65.3102
4.352000	 65.4712
4.436000	 65.3348
4.520000	 65.3354
4.604000	 65.4353
4.688000	 65.4167
4.772000	 65.3367
4.856000	 65.2168
4.940000	 65.3794
5.024000	 65.3289
5.108000	 65.355
5.192000	 65.3602
5.276000	 65.4329
5.359999	 65.2975
5.444000	 65.4561
5.528000	 65.435
5.612000	 65.3131
5.696000	 65.2439
5.780000	 65.0379
5.864000	 65.3327
5.948000	 65.3158
6.032000	 65.3313
6.116000	 65.2166
6.200000	 65.2589
6.284000	 65.2672
6.368000	 65.0982
6.452000	 65.1384
6.536000	 65.2123
6.620000	 65.1311
6.704000	 65.184
6.788000	 65.1975
6.872000	 65.1735
6.956000	 65.2121
7.040000	 65.309
7.124000	 65.3412
7.208000	 65.1486
7.292000	 65.0482
7.376000	 65.2119
7.460000	 65.1049
7.544000	 65.2165
7.628000	 64.9718
7.712000	 65.1872
7.796000	 65.0486
7.880000	 64.9347
7.964000	 65.0672
8.048000	 65.0285
8.132000	 65.0224
8.216000	 65.1359
8.300000	 65.0664
8.384000	 65.0303
8.468000	 65.0116
8.552000	 65.0339
8.635999	 64.9771
8.719999	 64.8988
8.804000	 64.9385
8.888000	 64.8498
8.972000	 65.0098
9.056000	 64.8484
9.140000	 64.5425
9.224000	 64.5623
9.308000	 64.8717
9.391999	 64.8444
9.475999	 64.9949
9.560000	 65.1399
9.644000	 64.9012
9.728000	 65.1366
9.812000	 64.7177
9.896000	 64.6405
9.980000	 64.6427
10.064	64.835
10.148	64.7221
10.232	64.8198
10.316	64.9526
10.4	64.8704
10.484	64.7822
10.568	65.1546
10.652	64.4698
10.736	64.0945
10.82	64.405
10.904	64.1479
10.988	64.4774
11.072	64.0775
11.156	64.2487
11.24	64.4535
11.324	64.1745
11.408	64.3386
11.492	64.4062
11.576	64.5527
11.66	64.6857
11.744	64.5747
11.828	64.2538
11.912	64.3698
11.996	64.4704
12.08	64.3926
12.164	64.3665
12.248	64.4702
12.332	64.3537
12.416	64.4007
12.5	64.2835
12.584	64.2871
12.668	63.8996
12.752	63.6244
12.836	63.7422
12.92	63.9673
13.004	63.9544
13.088	64.1603
13.172	64.3284
13.256	64.1454
13.34	63.9937
13.424	63.8239
13.508	63.2869
13.592	63.1525
13.676	63.1601
13.76	63.355
13.844	63.7678
13.928	63.7287
14.012	63.372
14.096	63.2016
14.18	63.2174
14.264	63.2617
14.348	63.1754
14.432	63.2133
14.516	63.4382
14.6	63.441
14.684	63.2641
14.768	63.1474
14.852	63.0867
14.936	63.0943
15.02	63.1798
15.104	63.1304
15.188	62.9291
15.272	62.9159
15.356	63.1091
15.44	63.0999
15.524	62.7981
15.608	62.5916
15.692	62.5712
15.776	62.4751
15.86	62.3376
15.944	62.3685
16.028	62.5208
16.112	62.6209
16.196	62.5909
16.28	62.3994
16.364	62.1027
16.448	62.0075
16.532	62.3514
16.616	62.8327
16.7	62.9491
16.784	62.6945
16.868	62.4427
16.952	62.3474
17.036	62.2681
17.12	62.1398
17.204	62.0977
17.288	62.2173
17.372	62.3503
17.456	62.2979
17.54	62.0679
17.624	61.8741
17.708	61.8414
17.792	61.862
17.876	61.8128
17.96	61.7815
18.044	61.9296
18.128	62.2142
18.212	62.3559
18.296	62.1308
18.38	61.6536
18.464	61.2943
18.548	61.2789
18.632	61.4439
18.716	61.4758
18.8	61.2957
18.884	61.0746
18.968	60.9607
19.052	60.9591
19.136	61.0281
19.22	61.1525
19.304	61.3051
19.388	61.3998
19.472	61.3561
19.556	61.1689
19.64	60.9067
19.724	60.6544
19.808	60.4775
19.892	60.4246
19.976	60.5218
20.06	60.7429
20.144	60.9716
20.228	61.0425
20.312	60.8689
20.396	60.5433
20.48	60.2881
20.564	60.2825
20.648	60.5107
20.732	60.7838
20.816	60.9097
20.9	60.8346
20.984	60.6414
21.068	60.4419
21.152	60.2856
21.236	60.1587
21.32	60.0385
21.404	59.9293
21.488	59.8702
21.572	59.9014
21.656	60.0414
21.74	60.2733
21.824	60.5277
21.908	60.6903
21.992	60.6544
22.076	60.3849
22.16	59.9585
22.244	59.5388
22.328	59.2808
22.412	59.2455
22.496	59.3515
22.58	59.4292
22.664	59.3158
22.748	58.9504
22.832	58.4116
22.916	57.8698
23	57.5027
23.084	57.4101
23.168	57.558
23.252	57.8119
23.336	58.0275
23.42	58.1416
23.504	58.1715
23.588	58.2127
23.672	58.3677
23.756	58.6517
23.84	58.9439
23.924	59.0731
24.008	58.9276
24.092	58.5138
24.176	57.9494
24.26	57.3667
24.344	56.842
24.428	56.4073
24.512	56.1528
24.596	56.3192
24.68	57.1527
24.764	58.666
24.848	60.7147
24.932	62.7289
25.016	63.8562
25.1	63.3324
25.184	61.0545
25.268	57.7919
25.352	54.8288
25.436	53.439
25.52	54.2469
25.604	57.0414
25.688	61.0432
25.772	65.2068
25.856	68.5824
25.94	70.3486
26.024	69.9316
26.108	67.2399
26.192	63.0465
26.276	59.153
26.36	58.0849
26.444	62.5011
26.528	74.01
26.612	92.5249
26.696	115.543
26.78	138.485
26.864	155.875
26.948	163.299
27.028	159.689