File: Bakgrunnsmateriale/MATLAB/FTIR/ftir_data/subBb/Mapping_121/C-4040-8_t60_cm-1.asc
PE IR       SPECTRUM    SPECTRUM    ASCII       PEDS        1.60
  -1
C-9C61~1.ASC
17/03/27
19:23:46.00
17/03/27
19:23:46.00
tln
$C-4040-8_t0060$<tbV0>[2.6,0.0,8.0,0.0,27,1,0]
370
64

2002,4.07
MIRTGS : RIGHTBACK : INTERNAL 2
MIR : ON : INTERNAL 2
OPTKBR

0.200000
8
8.000000
FILLER
RATIO
SPECTRUM
UNLOCKED 256

DOUBLE
64
COMBINED
1
0
0

1.000000
RATIO

1
0
TRUE
51149
0
LEFT NOT FITTED RIGHT NOT FITTED 0
NONE
NONE
15600
12
4.427000
51148
TRUE
1 0 8 72 0 0 0 0

15798

#HDR
-1
-1
#GR
CM-1
%T
2.38419e-05
0.0
5000
-1.000000
4631
8
93.423
39.5074
#DATA
5000	65.136
4984	64.8387
4968	65.3248
4952	65.2358
4936	64.8295
4920	65.2811
4904	65.1307
4888	64.9515
4872	64.7679
4856	64.7225
4840	65.0372
4824	64.5126
4808	64.9241
4792	65.2698
4776	65.3912
4760	64.3011
4744	64.5955
4728	64.5065
4712	64.7104
4696	65.0207
4680	64.4559
4664	64.3375
4648	64.5406
4632	64.834
4616	64.5183
4600	64.9137
4584	65.2684
4568	64.9241
4552	64.6665
4536	65.3047
4520	64.9365
4504	65.4189
4488	65.0166
4472	65.3452
4456	65.6849
4440	65.677
4424	65.9874
4408	65.8756
4392	65.7462
4376	65.7798
4360	40.8295
4344	68.5806
4328	65.4179
4312	66.0782
4296	65.7079
4280	65.9389
4264	65.586
4248	65.2591
4232	64.9926
4216	65.0792
4200	65.3179
4184	65.5886
4168	64.6067
4152	65.2775
4136	64.8563
4120	64.8356
4104	65.138
4088	64.8557
4072	64.8756
4056	64.7234
4040	64.9677
4024	64.9447
4008	65.0115
3992	64.8549
3976	65.1569
3960	64.9424
3944	64.948
3928	65.0767
3912	65.0523
3896	64.9565
3880	65.143
3864	65.1175
3848	65.2323
3832	64.728
3816	65.0314
3800	65.2512
3784	65.3141
3768	65.277
3752	65.086
3736	65.2618
3720	65.2899
3704	65.0121
3688	65.2377
3672	65.1891
3656	65.1605
3640	65.1047
3624	64.8433
3608	65.0454
3592	64.9176
3576	65.34
3560	65.0603
3544	65.1273
3528	65.0455
3512	65.2205
3496	65.2445
3480	65.1674
3464	65.4618
3448	65.0705
3432	65.1885
3416	65.192
3400	65.4365
3384	65.0711
3368	65.1649
3352	65.2513
3336	65.2832
3320	65.3872
3304	65.1743
3288	65.2444
3272	65.2663
3256	65.2309
3240	65.0412
3224	65.2734
3208	65.2859
3192	65.0914
3176	65.2853
3160	65.0026
3144	64.9834
3128	64.8085
3112	65.1085
3096	65.102
3080	65.1944
3064	65.2082
3048	65.2949
3032	65.0827
3016	65.1353
3000	65.13
2984	65.1982
2968	65.2786
2952	65.0171
2936	64.939
2920	64.9726
2904	65.1651
2888	65.1866
2872	64.9916
2856	64.9155
2840	64.9022
2824	64.9952
2808	65.2024
2792	65.2329
2776	65.2143
2760	65.1235
2744	65.2138
2728	65.2464
2712	65.2284
2696	65.2059
2680	65.1609
2664	65.218
2648	65.2918
2632	65.1479
2616	65.3909
2600	65.2774
2584	65.2134
2568	65.3187
2552	65.2639
2536	65.1922
2520	65.2968
2504	65.2972
2488	65.1972
2472	65.146
2456	65.1146
2440	65.255
2424	65.926
2408	65.0602
2392	65.3067
2376	65.2056
2360	65.2572
2344	65.1219
2328	65.2854
2312	65.0824
2296	65.3223
2280	65.2545
2264	65.2402
2248	65.301
2232	65.2143
2216	65.2563
2200	65.096
2184	65.2699
2168	65.4031
2152	65.1347
2136	65.3951
2120	65.3482
2104	65.3166
2088	65.2748
2072	65.2191
2056	65.0526
2040	65.1685
2024	65.4091
2008	65.2372
1992	65.2255
1976	65.1773
1960	65.1292
1944	65.1623
1928	65.3243
1912	65.3445
1896	65.1901
1880	65.2835
1864	65.1633
1848	65.3292
1832	65.2881
1816	65.284
1800	65.2234
1784	65.2641
1768	65.1656
1752	65.0935
1736	65.002
1720	64.8363
1704	65.1831
1688	65.0844
1672	65.2162
1656	65.1589
1640	65.1033
1624	65.1706
1608	65.0941
1592	64.961
1576	65.1377
1560	65.0312
1544	65.0417
1528	64.9275
1512	65.0293
1496	64.9936
1480	65.1192
1464	65.1165
1448	64.7486
1432	65.0203
1416	65.0496
1400	65.1262
1384	64.8838
1368	64.8254
1352	65.0828
1336	64.8524
1320	64.94
1304	64.9454
1288	64.9883
1272	65.0102
1256	64.8361
1240	65.0171
1224	64.8337
1208	64.8366
1192	64.8436
1176	64.7955
1160	64.9093
1144	64.9289
1128	64.9908
1112	64.9999
1096	64.8109
1080	64.9542
1064	64.6515
1048	64.7229
1032	64.6201
1016	64.5791
1000	64.571
984	 64.6454
968	 64.5343
952	 64.2856
936	 64.1127
920	 64.5211
904	 64.4699
888	 64.1742
872	 63.9048
856	 63.9811
840	 64.1511
824	 64.0787
808	 63.9012
792	 63.9943
776	 63.7632
760	 63.8881
744	 63.733
728	 63.5149
712	 63.3372
696	 63.7816
680	 62.7671
664	 62.9673
648	 62.7813
632	 62.3189
616	 62.7579
600	 62.2328
584	 61.8667
568	 61.4511
552	 61.85
536	 61.9392
520	 60.9892
504	 59.9226
488	 59.256
472	 60.2833
456	 59.4853
440	 59.5553
424	 55.0798
408	 55.2309
392	 92.6419
376	 46.5385
370	 67.7962