File: Bakgrunnsmateriale/MATLAB/FTIR/ftir_data/subBb/Mapping_121/C-4040-8_t29_cm-1.asc
PE IR       SPECTRUM    SPECTRUM    ASCII       PEDS        1.60
  -1
C-9AE0~1.ASC
17/03/27
16:52:31.00
17/03/27
16:52:31.00
tln
$C-4040-8_t0029$<tbV0>[-2.6,-7.8,8.0,0.0,27,1,0]
370
64

2002,4.07
MIRTGS : RIGHTBACK : INTERNAL 2
MIR : ON : INTERNAL 2
OPTKBR

0.200000
8
8.000000
FILLER
RATIO
SPECTRUM
UNLOCKED 256

DOUBLE
64
COMBINED
1
0
0

1.000000
RATIO

1
0
TRUE
51149
0
LEFT NOT FITTED RIGHT NOT FITTED 0
NONE
NONE
15600
12
4.427000
51148
TRUE
1 0 8 72 0 0 0 0

15798

#HDR
-1
-1
#GR
CM-1
%T
2.38419e-05
0.0
5000
-1.000000
4631
8
67.9355
28.9262
#DATA
5000	63.9295
4984	63.5723
4968	63.9062
4952	64.0151
4936	63.9716
4920	63.5786
4904	64.0993
4888	64.1909
4872	63.6759
4856	63.6394
4840	63.9167
4824	64.2106
4808	64.1437
4792	63.8525
4776	63.4958
4760	64.1887
4744	64.1286
4728	63.8739
4712	63.7446
4696	63.6044
4680	63.481
4664	63.7835
4648	63.3013
4632	63.554
4616	63.9158
4600	63.8063
4584	63.7823
4568	63.9731
4552	63.7634
4536	63.601
4520	64.1588
4504	63.8258
4488	64.3976
4472	64.3046
4456	64.5608
4440	64.3067
4424	64.0853
4408	63.9496
4392	65.0752
4376	65.7302
4360	43.3894
4344	66.9577
4328	63.8408
4312	64.6435
4296	64.316
4280	64.3988
4264	64.5922
4248	63.9968
4232	64.0707
4216	63.7269
4200	63.3254
4184	63.1647
4168	63.9033
4152	63.6387
4136	63.829
4120	63.298
4104	63.2038
4088	63.2659
4072	63.4405
4056	63.1969
4040	63.3262
4024	63.1866
4008	63.003
3992	63.3546
3976	63.2904
3960	63.3904
3944	62.9832
3928	63.393
3912	63.3273
3896	63.057
3880	63.7016
3864	63.1899
3848	63.3549
3832	63.1869
3816	63.2395
3800	63.0299
3784	63.0252
3768	63.0795
3752	63.0201
3736	63.047
3720	63.0172
3704	62.8644
3688	62.82
3672	62.6868
3656	62.8623
3640	62.6405
3624	62.7245
3608	62.6509
3592	62.6698
3576	62.5523
3560	62.5807
3544	62.4762
3528	62.4289
3512	62.4835
3496	62.3525
3480	62.3678
3464	62.4072
3448	62.428
3432	62.3999
3416	62.0749
3400	62.1178
3384	61.9843
3368	62.049
3352	62.0729
3336	62.0898
3320	61.9785
3304	61.5763
3288	61.868
3272	61.6377
3256	61.7291
3240	61.5367
3224	61.3847
3208	61.3696
3192	61.2535
3176	61.4808
3160	61.0975
3144	61.1196
3128	60.632
3112	61.1991
3096	60.8851
3080	60.9416
3064	60.9511
3048	60.766
3032	60.9351
3016	60.6524
3000	60.6041
2984	60.4938
2968	60.4184
2952	60.3578
2936	60.184
2920	59.8944
2904	60.0352
2888	59.9307
2872	60.0198
2856	59.6906
2840	59.9971
2824	59.7347
2808	59.6165
2792	59.6721
2776	59.5767
2760	59.5407
2744	59.4328
2728	59.2827
2712	59.0757
2696	59.1861
2680	59.0236
2664	58.8584
2648	58.8506
2632	58.7555
2616	58.51
2600	58.5152
2584	58.4605
2568	58.3473
2552	58.3591
2536	58.3082
2520	58.125
2504	57.9607
2488	57.9514
2472	57.8129
2456	57.5918
2440	57.6394
2424	57.5042
2408	57.2101
2392	57.3443
2376	57.0897
2360	57.0052
2344	56.8828
2328	56.6824
2312	56.7153
2296	56.6396
2280	56.4757
2264	56.2455
2248	56.3303
2232	56.2175
2216	56.0327
2200	55.9064
2184	55.8928
2168	55.6805
2152	55.5711
2136	55.524
2120	55.3403
2104	55.2229
2088	55.1218
2072	54.7564
2056	55.034
2040	54.6531
2024	54.6319
2008	54.4896
1992	54.3466
1976	54.2446
1960	54.1152
1944	53.8871
1928	53.8387
1912	53.7062
1896	53.4957
1880	53.4929
1864	53.299
1848	53.1669
1832	52.9979
1816	52.9425
1800	52.8888
1784	52.6484
1768	52.4888
1752	52.4149
1736	52.2356
1720	52.031
1704	52.0541
1688	51.8168
1672	51.6642
1656	51.5986
1640	51.5017
1624	51.1162
1608	51.1099
1592	51.0944
1576	50.7879
1560	50.6154
1544	50.5139
1528	50.4282
1512	50.3417
1496	50.077
1480	50.0976
1464	49.8973
1448	49.8593
1432	49.5792
1416	49.3374
1400	49.2442
1384	49.0514
1368	48.8303
1352	48.7916
1336	48.6737
1320	48.5816
1304	48.4025
1288	48.2567
1272	48.1405
1256	47.9719
1240	47.9045
1224	47.6957
1208	47.4449
1192	47.3509
1176	47.443
1160	47.0596
1144	47.0261
1128	46.4447
1112	46.723
1096	46.9044
1080	46.1522
1064	46.3155
1048	45.6376
1032	45.5547
1016	45.7004
1000	45.3783
984	 45.5207
968	 45.1012
952	 45.0311
936	 44.6236
920	 44.5108
904	 44.3947
888	 44.401
872	 44.0186
856	 43.7041
840	 43.5211
824	 43.1019
808	 43.1247
792	 42.9557
776	 42.5711
760	 42.3356
744	 41.8905
728	 41.5442
712	 41.5152
696	 40.9452
680	 40.6036
664	 40.3132
648	 39.727
632	 39.2869
616	 39.2497
600	 38.9465
584	 38.3282
568	 37.7257
552	 37.6171
536	 37.2023
520	 36.5223
504	 35.4136
488	 35.5999
472	 34.9357
456	 34.2544
440	 32.426
424	 32.1721
408	 35.9041
392	 29.515
376	 38.392
370	 49.364