File: Bakgrunnsmateriale/MATLAB/FTIR/ftir_data/subBb/Mapping_121/C-4040-8_t106.asc
PE IR       SPECTRUM    SPECTRUM    ASCII       PEDS        1.60
  -1
C-84D6~1.ASC
17/03/27
23:10:29.00
17/03/27
23:10:55.00
tln
$C-4040-8_t0106$<tbV0>[-2.6,10.4,8.0,0.0,27,1,0]
27.028
64

2002,4.07
MIRTGS : RIGHTBACK : INTERNAL 2
MIR : ON : INTERNAL 2
OPTKBR

0.200000
8
8.000000
FILLER
RATIO
SPECTRUM
UNLOCKED 256

DOUBLE
64
COMBINED
1
0
0

0.002000
RATIO

1
0
TRUE
51149
0
LEFT NOT FITTED RIGHT NOT FITTED 0
NONE
NONE
15600
12
4.427000
51148
TRUE
1 0 8 72 0 0 0 0

15798

#HDR
-1
-1
#GR
µM
%T
2.38419e-05
0.0
2.000000
0.002000
12515
8
180.946
22.6701
#DATA
2.000000	 65.4725
2.084000	 65.1835
2.168000	 65.1391
2.252000	 64.8568
2.336000	 64.7449
2.420000	 65.185
2.504000	 65.1877
2.588000	 65.4626
2.672000	 65.1743
2.756000	 65.2938
2.840000	 65.4715
2.924000	 65.2626
3.008000	 65.3136
3.092000	 65.175
3.176000	 65.1787
3.260000	 65.2294
3.344000	 65.275
3.428000	 65.0186
3.512000	 65.1275
3.596000	 65.2932
3.680000	 65.4046
3.764000	 65.3386
3.848000	 65.2007
3.932000	 65.2804
4.016000	 65.512
4.100000	 65.263
4.184000	 65.3138
4.268000	 65.3294
4.352000	 65.3671
4.436000	 65.4331
4.520000	 65.375
4.604000	 65.4046
4.688000	 65.3221
4.772000	 65.3441
4.856000	 65.3159
4.940000	 65.3783
5.024000	 65.241
5.108000	 65.2921
5.192000	 65.4117
5.276000	 65.3671
5.359999	 65.3468
5.444000	 65.3903
5.528000	 65.2848
5.612000	 65.3577
5.696000	 65.1811
5.780000	 65.1664
5.864000	 65.2973
5.948000	 65.1063
6.032000	 65.1721
6.116000	 65.2949
6.200000	 65.1784
6.284000	 65.0075
6.368000	 65.0191
6.452000	 65.1053
6.536000	 65.0825
6.620000	 65.1371
6.704000	 65.2976
6.788000	 65.1571
6.872000	 65.0469
6.956000	 65.09
7.040000	 65.0836
7.124000	 65.2261
7.208000	 64.9991
7.292000	 65.0617
7.376000	 65.1214
7.460000	 65.0851
7.544000	 65.0897
7.628000	 64.7679
7.712000	 65.1259
7.796000	 65.15
7.880000	 64.9487
7.964000	 65.1471
8.048000	 64.9658
8.132000	 64.9183
8.216000	 65.0096
8.300000	 64.9774
8.384000	 64.9822
8.468000	 65.0347
8.552000	 64.9473
8.635999	 64.8963
8.719999	 64.8419
8.804000	 64.8156
8.888000	 64.9033
8.972000	 64.8956
9.056000	 64.8141
9.140000	 64.5448
9.224000	 64.8831
9.308000	 64.7954
9.391999	 64.6462
9.475999	 64.6704
9.560000	 64.8564
9.644000	 64.5056
9.728000	 64.7475
9.812000	 64.4795
9.896000	 64.7291
9.980000	 64.8257
10.064	64.4326
10.148	64.6857
10.232	64.8881
10.316	64.626
10.4	64.6175
10.484	64.6439
10.568	64.353
10.652	64.488
10.736	64.5623
10.82	64.8831
10.904	64.8756
10.988	64.7742
11.072	64.732
11.156	64.4964
11.24	64.7456
11.324	64.4976
11.408	65.1142
11.492	64.9944
11.576	64.8432
11.66	64.5013
11.744	64.4167
11.828	64.4768
11.912	64.0388
11.996	64.3552
12.08	64.0898
12.164	64.0062
12.248	64.3288
12.332	64.2358
12.416	63.8083
12.5	63.6648
12.584	63.9271
12.668	63.8942
12.752	63.6546
12.836	63.4981
12.92	63.7033
13.004	63.8305
13.088	63.7345
13.172	63.7576
13.256	63.6491
13.34	63.6192
13.424	63.7684
13.508	63.4977
13.592	63.2355
13.676	63.4033
13.76	63.5733
13.844	63.4174
13.928	63.3854
14.012	63.4456
14.096	63.5487
14.18	63.5033
14.264	63.3133
14.348	63.2961
14.432	63.3517
14.516	63.3611
14.6	63.3967
14.684	63.3297
14.768	63.1734
14.852	63.135
14.936	63.0567
15.02	62.7403
15.104	62.5331
15.188	62.7435
15.272	63.0947
15.356	63.1743
15.44	62.9821
15.524	62.8822
15.608	62.9921
15.692	63.0667
15.776	63.0391
15.86	63.0247
15.944	63.0207
16.028	62.9851
16.112	62.8732
16.196	62.6659
16.28	62.5219
16.364	62.5525
16.448	62.5829
16.532	62.5064
16.616	62.4662
16.7	62.5099
16.784	62.4883
16.868	62.3336
16.952	62.1559
17.036	62.0973
17.12	62.1495
17.204	62.1491
17.288	62.0667
17.372	62.0478
17.456	62.0792
17.54	61.9635
17.624	61.6919
17.708	61.5111
17.792	61.583
17.876	61.8532
17.96	62.164
18.044	62.3443
18.128	62.2818
18.212	62.012
18.296	61.6865
18.38	61.4372
18.464	61.3108
18.548	61.2921
18.632	61.3137
18.716	61.3049
18.8	61.2631
18.884	61.2255
18.968	61.1733
19.052	61.029
19.136	60.7753
19.22	60.5231
19.304	60.424
19.388	60.5382
19.472	60.8017
19.556	61.0763
19.64	61.2226
19.724	61.1708
19.808	60.973
19.892	60.7877
19.976	60.7799
20.06	60.9943
20.144	61.331
20.228	61.6232
20.312	61.7333
20.396	61.6081
20.48	61.2893
20.564	60.8956
20.648	60.5683
20.732	60.4059
20.816	60.4248
20.9	60.5741
20.984	60.7873
21.068	60.9943
21.152	61.092
21.236	60.9515
21.32	60.5023
21.404	59.8187
21.488	59.1096
21.572	58.5954
21.656	58.3949
21.74	58.4881
21.824	58.7587
21.908	59.083
21.992	59.3816
22.076	59.6121
22.16	59.756
22.244	59.8059
22.328	59.7622
22.412	59.6373
22.496	59.4478
22.58	59.2074
22.664	58.9297
22.748	58.6304
22.832	58.3282
22.916	58.0487
23	57.8223
23.084	57.7136
23.168	57.7926
23.252	58.1029
23.336	58.6642
23.42	59.3895
23.504	60.082
23.588	60.5123
23.672	60.5193
23.756	60.0668
23.84	59.2782
23.924	58.406
24.008	57.731
24.092	57.4365
24.176	57.4818
24.26	57.7047
24.344	57.9182
24.428	58.0699
24.512	58.3434
24.596	59.1667
24.68	61.025
24.764	64.1308
24.848	68.4969
24.932	73.4021
25.016	77.4563
25.1	79.166
25.184	77.7594
25.268	73.7787
25.352	68.8565
25.436	64.6432
25.52	61.8862
25.604	60.2378
25.688	58.8105
25.772	56.7903
25.856	53.848
25.94	49.7937
26.024	44.3898
26.108	37.4117
26.192	29.7535
26.276	23.8306
26.36	23.3489
26.444	31.744
26.528	50.5075
26.612	78.0379
26.696	110.028
26.78	140.595
26.864	164.311
26.948	177.885
27.028	180.946