File: Bakgrunnsmateriale/MATLAB/FTIR/ftir_data/subBb/Mapping_121/C-4040-8_t37.asc
PE IR       SPECTRUM    SPECTRUM    ASCII       PEDS        1.60
  -1
C-B136~1.ASC
17/03/27
17:30:04.00
17/03/27
17:30:30.00
tln
$C-4040-8_t0037$<tbV0>[5.2,-5.2,8.0,0.0,27,1,0]
27.028
64

2002,4.07
MIRTGS : RIGHTBACK : INTERNAL 2
MIR : ON : INTERNAL 2
OPTKBR

0.200000
8
8.000000
FILLER
RATIO
SPECTRUM
UNLOCKED 256

DOUBLE
64
COMBINED
1
0
0

0.002000
RATIO

1
0
TRUE
51149
0
LEFT NOT FITTED RIGHT NOT FITTED 0
NONE
NONE
15600
12
4.427000
51148
TRUE
1 0 8 72 0 0 0 0

15798

#HDR
-1
-1
#GR
µM
%T
2.38419e-05
0.0
2.000000
0.002000
12515
8
64.8404
-5.943586
#DATA
2.000000	 63.0311
2.084000	 62.6339
2.168000	 62.6269
2.252000	 63.1637
2.336000	 62.6558
2.420000	 61.6885
2.504000	 60.7238
2.588000	 60.525
2.672000	 59.9496
2.756000	 59.0828
2.840000	 58.4384
2.924000	 57.8095
3.008000	 57.2578
3.092000	 56.632
3.176000	 55.6537
3.260000	 55.0253
3.344000	 54.2961
3.428000	 53.2586
3.512000	 52.668
3.596000	 51.949
3.680000	 51.2627
3.764000	 50.5254
3.848000	 49.8356
3.932000	 49.2068
4.016000	 48.3641
4.100000	 47.7055
4.184000	 47.2524
4.268000	 46.4963
4.352000	 45.9041
4.436000	 45.346
4.520000	 44.8364
4.604000	 44.2585
4.688000	 43.6045
4.772000	 43.1846
4.856000	 42.436
4.940000	 42.2863
5.024000	 41.685
5.108000	 41.2243
5.192000	 40.8095
5.276000	 40.3384
5.359999	 39.9341
5.444000	 39.5755
5.528000	 38.9991
5.612000	 38.6477
5.696000	 38.413
5.780000	 37.787
5.864000	 37.6309
5.948000	 37.1904
6.032000	 36.9012
6.116000	 36.583
6.200000	 36.3017
6.284000	 35.9508
6.368000	 35.6684
6.452000	 35.4204
6.536000	 35.1652
6.620000	 34.7949
6.704000	 34.5938
6.788000	 34.3358
6.872000	 34.2745
6.956000	 33.7324
7.040000	 33.6946
7.124000	 33.3488
7.208000	 33.2637
7.292000	 32.9027
7.376000	 32.7379
7.460000	 32.4713
7.544000	 32.1423
7.628000	 32.0382
7.712000	 31.8268
7.796000	 31.8089
7.880000	 31.4936
7.964000	 31.372
8.048000	 31.2463
8.132000	 31.029
8.216000	 30.8327
8.300000	 30.6955
8.384000	 30.692
8.468000	 30.3607
8.552000	 30.0784
8.635999	 29.8611
8.719999	 29.7137
8.804000	 29.5015
8.888000	 29.1586
8.972000	 29.5598
9.056000	 29.2363
9.140000	 29.1241
9.224000	 29.3047
9.308000	 28.7927
9.391999	 28.4209
9.475999	 28.4539
9.560000	 28.2455
9.644000	 28.273
9.728000	 28.1772
9.812000	 28.0089
9.896000	 28.0487
9.980000	 27.9025
10.064	27.6944
10.148	27.3842
10.232	27.2228
10.316	27.0707
10.4	27.0896
10.484	27.0684
10.568	26.715
10.652	26.6737
10.736	26.7151
10.82	26.3085
10.904	26.2601
10.988	26.4495
11.072	25.9579
11.156	25.6388
11.24	25.7023
11.324	25.7305
11.408	25.6643
11.492	25.5149
11.576	25.461
11.66	25.3166
11.744	25.1061
11.828	24.9397
11.912	24.8611
11.996	24.8425
12.08	24.8372
12.164	24.6689
12.248	24.6314
12.332	24.5087
12.416	24.2273
12.5	24.1387
12.584	24.0383
12.668	24.0927
12.752	24.099
12.836	23.9463
12.92	23.6219
13.004	23.4584
13.088	23.5
13.172	23.4582
13.256	23.0355
13.34	22.8173
13.424	22.9755
13.508	23.0079
13.592	23.0549
13.676	23.184
13.76	23.0252
13.844	22.6527
13.928	22.473
14.012	22.3832
14.096	22.2158
14.18	21.98
14.264	21.6344
14.348	21.4498
14.432	21.4219
14.516	21.382
14.6	21.3803
14.684	21.4269
14.768	21.2432
14.852	20.8731
14.936	20.7931
15.02	20.9478
15.104	20.9118
15.188	20.6905
15.272	20.5225
15.356	20.4297
15.44	20.3549
15.524	20.2987
15.608	20.2231
15.692	20.1374
15.776	20.0767
15.86	19.9503
15.944	19.6908
16.028	19.4962
16.112	19.5161
16.196	19.5388
16.28	19.3555
16.364	19.0988
16.448	19.0274
16.532	19.2039
16.616	19.3899
16.7	19.2917
16.784	18.9574
16.868	18.7099
16.952	18.7138
17.036	18.8152
17.12	18.8046
17.204	18.6641
17.288	18.482
17.372	18.2886
17.456	18.0845
17.54	17.9146
17.624	17.7973
17.708	17.688
17.792	17.5733
17.876	17.4871
17.96	17.4305
18.044	17.3602
18.128	17.2455
18.212	17.0917
18.296	16.9223
18.38	16.7766
18.464	16.6835
18.548	16.615
18.632	16.5057
18.716	16.3365
18.8	16.1821
18.884	16.1503
18.968	16.2519
19.052	16.3503
19.136	16.2913
19.22	16.0691
19.304	15.8282
19.388	15.6973
19.472	15.6724
19.556	15.6719
19.64	15.6647
19.724	15.6885
19.808	15.7571
19.892	15.8101
19.976	15.7749
20.06	15.6601
20.144	15.5547
20.228	15.5201
20.312	15.4907
20.396	15.3145
20.48	14.9079
20.564	14.3638
20.648	13.8919
20.732	13.655
20.816	13.6533
20.9	13.7568
20.984	13.8321
21.068	13.8331
21.152	13.7899
21.236	13.745
21.32	13.7295
21.404	13.7612
21.488	13.847
21.572	13.9729
21.656	14.0992
21.74	14.1806
21.824	14.2
21.908	14.1796
21.992	14.1617
22.076	14.1846
22.16	14.2595
22.244	14.3658
22.328	14.4556
22.412	14.4571
22.496	14.2867
22.58	13.9002
22.664	13.3315
22.748	12.7175
22.832	12.2399
22.916	12.042
23	12.1296
23.084	12.3538
23.168	12.4648
23.252	12.2713
23.336	11.721
23.42	10.9227
23.504	10.0875
23.588	9.428815
23.672	9.064695
23.756	8.976445
23.84	9.044500
23.924	9.113950
24.008	9.082334
24.092	8.945477
24.176	8.778862
24.26	8.672353
24.344	8.620990
24.428	8.508348
24.512	8.203778
24.596	7.689725
24.68	7.082836
24.764	6.585622
24.848	6.427013
24.932	6.811483
25.016	7.804970
25.1	9.338257
25.184	10.9914
25.268	12.1702
25.352	12.4556
25.436	11.7221
25.52	10.3857
25.604	9.293765
25.688	9.092719
25.772	9.749726
25.856	10.5337
25.94	10.497
26.024	8.915071
26.108	5.721481
26.192	1.532577
26.276	-2.548424
26.36	-5.315477
26.444	-5.836991
26.528	-3.745460
26.612	0.689085
26.696	6.735346
26.78	13.3899
26.864	19.9726
26.948	26.4733
27.028	33.1064