File: Bakgrunnsmateriale/MATLAB/FTIR/ftir_data/subBb/Mapping_121/C-4040-8_t38_cm-1.asc
PE IR       SPECTRUM    SPECTRUM    ASCII       PEDS        1.60
  -1
C-1B65~1.ASC
17/03/27
17:34:40.00
17/03/27
17:34:40.00
tln
$C-4040-8_t0038$<tbV0>[2.6,-5.2,8.0,0.0,27,1,0]
370
64

2002,4.07
MIRTGS : RIGHTBACK : INTERNAL 2
MIR : ON : INTERNAL 2
OPTKBR

0.200000
8
8.000000
FILLER
RATIO
SPECTRUM
UNLOCKED 256

DOUBLE
64
COMBINED
1
0
0

1.000000
RATIO

1
0
TRUE
51149
0
LEFT NOT FITTED RIGHT NOT FITTED 0
NONE
NONE
15600
12
4.427000
51148
TRUE
1 0 8 72 0 0 0 0

15798

#HDR
-1
-1
#GR
CM-1
%T
2.38419e-05
0.0
5000
-1.000000
4631
8
76.201
4.040956
#DATA
5000	63.8367
4984	63.0793
4968	63.2613
4952	63.4215
4936	63.2368
4920	63.2732
4904	63.5971
4888	63.2799
4872	63.0402
4856	62.8194
4840	63.1425
4824	63.3739
4808	62.9856
4792	62.8778
4776	63.043
4760	63.2015
4744	63.5472
4728	63.1356
4712	63.2993
4696	63.3498
4680	63.1078
4664	62.9303
4648	63.1888
4632	63.5558
4616	63.2397
4600	63.2402
4584	63.0576
4568	63.0343
4552	62.8148
4536	62.216
4520	62.4954
4504	62.5821
4488	62.9286
4472	62.4274
4456	62.8004
4440	62.3281
4424	61.9539
4408	62.3521
4392	62.8821
4376	62.6608
4360	63.9736
4344	70.5813
4328	62.0932
4312	61.6716
4296	62.1313
4280	62.0708
4264	62.5492
4248	61.8508
4232	61.9891
4216	62.198
4200	61.9314
4184	61.6816
4168	62.3342
4152	62.2213
4136	62.0009
4120	61.9773
4104	61.7132
4088	61.8356
4072	61.9942
4056	62.03
4040	62.0424
4024	62.0034
4008	61.545
3992	61.742
3976	61.7709
3960	61.5485
3944	61.3045
3928	61.2057
3912	61.2487
3896	61.1842
3880	61.3924
3864	61.1833
3848	61.3319
3832	60.8792
3816	60.9448
3800	60.8225
3784	60.7421
3768	60.8135
3752	60.9333
3736	60.6594
3720	60.6319
3704	60.4889
3688	60.4946
3672	60.1665
3656	60.3397
3640	60.2634
3624	60.1141
3608	60.0829
3592	59.9012
3576	59.9348
3560	59.9147
3544	59.6203
3528	59.6553
3512	59.6646
3496	59.4555
3480	59.2994
3464	59.4985
3448	59.3255
3432	59.1651
3416	58.7805
3400	58.8077
3384	58.5366
3368	58.6232
3352	58.6519
3336	58.4001
3320	58.2511
3304	58.4014
3288	58.154
3272	57.908
3256	57.6367
3240	57.6941
3224	57.6431
3208	57.3078
3192	57.3871
3176	56.9799
3160	56.8739
3144	56.8277
3128	56.5537
3112	56.8502
3096	56.4134
3080	56.4262
3064	56.2592
3048	55.9046
3032	55.8352
3016	55.7106
3000	55.6529
2984	55.4536
2968	55.3769
2952	55.0917
2936	54.8958
2920	54.4459
2904	54.6862
2888	54.4944
2872	54.5953
2856	54.0666
2840	54.2263
2824	54.0766
2808	53.97
2792	53.6987
2776	53.4615
2760	53.4453
2744	53.1261
2728	53.0216
2712	52.7953
2696	52.7336
2680	52.3918
2664	52.2926
2648	52.1671
2632	51.9893
2616	51.7272
2600	51.4934
2584	51.366
2568	51.1316
2552	50.997
2536	50.862
2520	50.6573
2504	50.4569
2488	50.2183
2472	49.9195
2456	49.7926
2440	49.6196
2424	49.4911
2408	49.0775
2392	49.0763
2376	48.8736
2360	48.6887
2344	48.5145
2328	48.3387
2312	47.961
2296	47.775
2280	47.6732
2264	47.3726
2248	47.2511
2232	47.0576
2216	46.7721
2200	46.5283
2184	46.4633
2168	46.1611
2152	45.9324
2136	45.7901
2120	45.5528
2104	45.3034
2088	45.2707
2072	44.9275
2056	44.9047
2040	44.4951
2024	44.2863
2008	44.0084
1992	43.7874
1976	43.5711
1960	43.4337
1944	43.1376
1928	43.0063
1912	42.7836
1896	42.3548
1880	42.1993
1864	42.1036
1848	41.8763
1832	41.6368
1816	41.4467
1800	41.268
1784	40.9099
1768	40.8074
1752	40.5271
1736	40.1384
1720	39.956
1704	39.8024
1688	39.7049
1672	39.3533
1656	39.1907
1640	38.9074
1624	38.7385
1608	38.5115
1592	38.2739
1576	38.094
1560	37.9013
1544	37.556
1528	37.3493
1512	37.1663
1496	36.8936
1480	36.6858
1464	36.4712
1448	36.1298
1432	35.9612
1416	35.8792
1400	35.6229
1384	35.4384
1368	35.0085
1352	34.8616
1336	34.7796
1320	34.394
1304	34.2871
1288	34.0521
1272	33.8002
1256	33.6928
1240	33.3963
1224	32.9725
1208	32.8367
1192	32.6742
1176	32.6206
1160	32.1179
1144	31.9617
1128	31.8926
1112	31.3683
1096	31.5928
1080	30.9085
1064	30.851
1048	30.669
1032	30.3949
1016	30.0517
1000	29.7464
984	 29.6641
968	 29.4486
952	 28.9781
936	 28.7068
920	 28.5561
904	 28.2376
888	 27.9143
872	 27.9732
856	 27.285
840	 27.2116
824	 26.7478
808	 26.6238
792	 26.2812
776	 25.8693
760	 25.3995
744	 25.0403
728	 24.8613
712	 24.8462
696	 23.8981
680	 23.1952
664	 23.0283
648	 22.6541
632	 22.2389
616	 21.5794
600	 20.7635
584	 20.5065
568	 19.6516
552	 19.6328
536	 18.2053
520	 18.8811
504	 17.8982
488	 16.6771
472	 15.6795
456	 14.5918
440	 14.4988
424	 16.2315
408	 12.6264
392	 22.7138
376	 29.4996
370	 15.0346