File: Bakgrunnsmateriale/MATLAB/FTIR/ftir_data/subBb/Mapping_121/C-4040-8_t115.asc
PE IR       SPECTRUM    SPECTRUM    ASCII       PEDS        1.60
  -1
C-80D8~1.ASC
17/03/28
00:12:42.00
17/03/28
00:13:09.00
tln
$C-4040-8_t0115$<tbV0>[2.6,13.0,8.0,0.0,27,1,0]
27.028
64

2002,4.07
MIRTGS : RIGHTBACK : INTERNAL 2
MIR : ON : INTERNAL 2
OPTKBR

0.200000
8
8.000000
FILLER
RATIO
SPECTRUM
UNLOCKED 256

DOUBLE
64
COMBINED
1
0
0

0.002000
RATIO

1
0
TRUE
51149
0
LEFT NOT FITTED RIGHT NOT FITTED 0
NONE
NONE
15600
12
4.427000
51148
TRUE
1 0 8 72 0 0 0 0

15798

#HDR
-1
-1
#GR
µM
%T
2.38419e-05
0.0
2.000000
0.002000
12515
8
119.56
47.0807
#DATA
2.000000	 64.9253
2.084000	 64.7047
2.168000	 64.4921
2.252000	 64.5468
2.336000	 65.548
2.420000	 65.0945
2.504000	 64.9624
2.588000	 65.2269
2.672000	 65.1734
2.756000	 65.0101
2.840000	 65.3443
2.924000	 65.0556
3.008000	 64.9934
3.092000	 64.9689
3.176000	 65.1608
3.260000	 64.9938
3.344000	 65.3385
3.428000	 64.8482
3.512000	 64.9171
3.596000	 65.0864
3.680000	 65.0858
3.764000	 65.0911
3.848000	 65.0869
3.932000	 65.151
4.016000	 64.9941
4.100000	 65.1574
4.184000	 65.1475
4.268000	 65.1768
4.352000	 65.2664
4.436000	 65.1465
4.520000	 65.1593
4.604000	 65.2544
4.688000	 65.042
4.772000	 65.1537
4.856000	 65.5206
4.940000	 65.2707
5.024000	 65.0868
5.108000	 65.0915
5.192000	 65.2357
5.276000	 65.0714
5.359999	 65.0916
5.444000	 65.0776
5.528000	 64.9079
5.612000	 65.0811
5.696000	 64.9976
5.780000	 64.7439
5.864000	 65.0798
5.948000	 65.0141
6.032000	 64.883
6.116000	 65.0282
6.200000	 65.1299
6.284000	 65.0039
6.368000	 64.7474
6.452000	 64.8073
6.536000	 65.1062
6.620000	 65.0029
6.704000	 65.0042
6.788000	 65.005
6.872000	 64.7296
6.956000	 64.8252
7.040000	 64.8989
7.124000	 64.8987
7.208000	 64.9926
7.292000	 64.838
7.376000	 64.917
7.460000	 64.7267
7.544000	 64.8937
7.628000	 64.8399
7.712000	 64.7574
7.796000	 64.7025
7.880000	 64.802
7.964000	 64.7302
8.048000	 64.6682
8.132000	 64.815
8.216000	 64.7712
8.300000	 64.7214
8.384000	 64.5993
8.468000	 64.6855
8.552000	 64.6815
8.635999	 64.7848
8.719999	 64.457
8.804000	 64.714
8.888000	 64.4774
8.972000	 64.9449
9.056000	 64.7068
9.140000	 64.665
9.224000	 64.6509
9.308000	 64.5973
9.391999	 64.6106
9.475999	 64.3044
9.560000	 64.4905
9.644000	 64.55
9.728000	 64.257
9.812000	 64.6843
9.896000	 64.8243
9.980000	 64.3174
10.064	64.2859
10.148	64.5448
10.232	64.5134
10.316	64.4433
10.4	64.4795
10.484	64.6201
10.568	64.6053
10.652	64.467
10.736	64.5748
10.82	64.3039
10.904	64.3683
10.988	64.466
11.072	64.3515
11.156	64.0516
11.24	63.9616
11.324	63.7912
11.408	63.7301
11.492	64.1158
11.576	64.2561
11.66	64.3162
11.744	64.0512
11.828	63.6137
11.912	64.4114
11.996	64.3721
12.08	64.2962
12.164	64.1888
12.248	64.1464
12.332	63.8224
12.416	63.7688
12.5	63.5378
12.584	63.4011
12.668	63.6847
12.752	63.7965
12.836	63.6216
12.92	63.4824
13.004	63.3934
13.088	63.5027
13.172	63.5306
13.256	63.6556
13.34	63.8184
13.424	64.3042
13.508	64.2876
13.592	63.5237
13.676	63.0775
13.76	63.3411
13.844	63.706
13.928	63.6932
14.012	63.3431
14.096	63.2323
14.18	63.4192
14.264	63.6522
14.348	63.7077
14.432	63.6442
14.516	63.5299
14.6	63.1712
14.684	62.7998
14.768	62.6908
14.852	62.813
14.936	63.1136
15.02	63.2709
15.104	63.033
15.188	62.8445
15.272	63.0654
15.356	63.2692
15.44	63.0022
15.524	62.4634
15.608	62.202
15.692	62.3707
15.776	62.5447
15.86	62.5264
15.944	62.5271
16.028	62.5141
16.112	62.354
16.196	62.2292
16.28	62.31
16.364	62.5471
16.448	62.8631
16.532	63.1376
16.616	63.1949
16.7	63.0135
16.784	62.7302
16.868	62.4407
16.952	62.1782
17.036	61.975
17.12	61.8518
17.204	61.8293
17.288	61.9174
17.372	62.031
17.456	62.0432
17.54	61.9581
17.624	61.8904
17.708	61.8714
17.792	61.8331
17.876	61.7521
17.96	61.6771
18.044	61.62
18.128	61.5523
18.212	61.5188
18.296	61.6209
18.38	61.8586
18.464	62.0982
18.548	62.2106
18.632	62.1582
18.716	61.9585
18.8	61.6496
18.884	61.3047
18.968	61.0137
19.052	60.8207
19.136	60.7118
19.22	60.678
19.304	60.7293
19.388	60.8383
19.472	60.9106
19.556	60.8514
19.64	60.661
19.724	60.4339
19.808	60.2562
19.892	60.1362
19.976	60.0517
20.06	60.0372
20.144	60.1819
20.228	60.5215
20.312	60.9456
20.396	61.2589
20.48	61.3391
20.564	61.2212
20.648	61.0279
20.732	60.8358
20.816	60.642
20.9	60.4301
20.984	60.2426
21.068	60.1508
21.152	60.1668
21.236	60.2236
21.32	60.2666
21.404	60.3365
21.488	60.5302
21.572	60.8738
21.656	61.2524
21.74	61.464
21.824	61.347
21.908	60.8902
21.992	60.23
22.076	59.5606
22.16	59.0444
22.244	58.7544
22.328	58.6792
22.412	58.7479
22.496	58.8612
22.58	58.942
22.664	58.9694
22.748	58.9735
22.832	58.9868
22.916	59.0373
23	59.1253
23.084	59.2445
23.168	59.3776
23.252	59.4931
23.336	59.5528
23.42	59.557
23.504	59.5024
23.588	59.4071
23.672	59.3086
23.756	59.2201
23.84	59.1024
23.924	58.9595
24.008	58.878
24.092	59.0382
24.176	59.7141
24.26	61.0281
24.344	62.8729
24.428	64.9715
24.512	66.9634
24.596	68.6527
24.68	69.9263
24.764	70.6202
24.848	70.4663
24.932	69.136
25.016	66.4347
25.1	62.3996
25.184	57.5012
25.268	52.6153
25.352	48.7664
25.436	47.0905
25.52	48.4387
25.604	53.1098
25.688	60.7495
25.772	70.3757
25.856	80.704
25.94	90.343
26.024	98.1408
26.108	103.545
26.192	106.873
26.276	109.022
26.36	111.21
26.444	114.043
26.528	117.123
26.612	119.282
26.696	119.001
26.78	115.177
26.864	107.633
26.948	97.1941
27.028	85.9904