File: Bakgrunnsmateriale/MATLAB/FTIR/ftir_data/subBb/Mapping_121/C-4040-8_t13_cm-1.asc
PE IR       SPECTRUM    SPECTRUM    ASCII       PEDS        1.60
  -1
C-1AE1~1.ASC
17/03/27
15:31:33.00
17/03/27
15:31:33.00
tln
$C-4040-8_t0013$<tbV0>[10.4,-10.4,8.0,0.0,27,1,0]
370
64

2002,4.07
MIRTGS : RIGHTBACK : INTERNAL 2
MIR : ON : INTERNAL 2
OPTKBR

0.200000
8
8.000000
FILLER
RATIO
SPECTRUM
UNLOCKED 256

DOUBLE
64
COMBINED
1
0
0

1.000000
RATIO

1
0
TRUE
51149
0
LEFT NOT FITTED RIGHT NOT FITTED 0
NONE
NONE
15600
12
4.427000
51148
TRUE
1 0 8 72 0 0 0 0

15798

#HDR
-1
-1
#GR
CM-1
%T
2.38419e-05
0.0
5000
-1.000000
4631
8
77.6714
31.798
#DATA
5000	63.8203
4984	64.3723
4968	64.058
4952	63.2979
4936	63.4448
4920	63.2882
4904	64.4379
4888	64.6827
4872	64.3625
4856	63.9336
4840	64.429
4824	64.0466
4808	64.0421
4792	63.8349
4776	64.1006
4760	63.8762
4744	64.3279
4728	63.9601
4712	64.1207
4696	64.0391
4680	64.0246
4664	64.1029
4648	64.1331
4632	64.1057
4616	64.0194
4600	63.7007
4584	63.766
4568	63.774
4552	63.6811
4536	63.4224
4520	63.5472
4504	63.6493
4488	62.8415
4472	63.57
4456	65.1295
4440	65.9388
4424	62.367
4408	61.2558
4392	64.4296
4376	68.0918
4360	64.6902
4344	62.798
4328	63.0184
4312	63.1715
4296	63.2595
4280	63.1918
4264	63.2252
4248	63.167
4232	63.5348
4216	63.4859
4200	63.0985
4184	63.1191
4168	63.3961
4152	63.411
4136	63.2471
4120	63.7913
4104	63.5171
4088	63.8666
4072	63.8323
4056	63.8372
4040	63.6132
4024	63.9853
4008	63.98
3992	63.7974
3976	63.3925
3960	63.5262
3944	63.6579
3928	63.403
3912	63.4894
3896	63.5286
3880	63.5057
3864	63.4323
3848	63.4972
3832	63.6366
3816	63.4273
3800	63.6892
3784	63.2685
3768	63.5416
3752	63.7618
3736	63.6239
3720	63.466
3704	63.451
3688	63.4746
3672	63.5079
3656	63.255
3640	62.9864
3624	63.0177
3608	63.2035
3592	63.2105
3576	63.0174
3560	63.1623
3544	63.064
3528	63.0131
3512	62.9609
3496	62.9032
3480	62.9687
3464	62.7485
3448	62.7096
3432	62.6767
3416	62.4126
3400	62.6187
3384	62.3373
3368	62.4624
3352	62.3963
3336	62.6452
3320	62.1858
3304	62.3005
3288	62.3781
3272	62.3041
3256	62.122
3240	62.2239
3224	62.2224
3208	62.0732
3192	62.0796
3176	61.9777
3160	62.0749
3144	61.7895
3128	61.7599
3112	61.884
3096	61.8839
3080	61.8558
3064	61.9797
3048	61.7484
3032	61.6592
3016	61.7255
3000	61.4765
2984	61.385
2968	61.2602
2952	61.2271
2936	61.3537
2920	61.0944
2904	61.0353
2888	61.029
2872	61.123
2856	61.0634
2840	61.1115
2824	60.947
2808	60.9215
2792	60.8566
2776	60.8629
2760	60.7668
2744	60.8313
2728	60.7085
2712	60.6072
2696	60.6378
2680	60.5129
2664	60.3735
2648	60.3014
2632	60.281
2616	60.0865
2600	60.0496
2584	60.1184
2568	60.0254
2552	59.9033
2536	59.8244
2520	59.8247
2504	59.7968
2488	59.6033
2472	59.7656
2456	59.5425
2440	59.5852
2424	59.3098
2408	59.0857
2392	59.2296
2376	59.1843
2360	59.2314
2344	59.0044
2328	58.9852
2312	58.8245
2296	58.9041
2280	58.8665
2264	58.8506
2248	58.7181
2232	58.6334
2216	58.4867
2200	58.354
2184	58.3157
2168	58.2723
2152	58.2148
2136	58.0272
2120	57.9952
2104	57.8245
2088	57.9313
2072	57.8601
2056	57.6537
2040	57.6466
2024	57.4429
2008	57.5882
1992	57.4082
1976	57.3135
1960	57.3395
1944	57.221
1928	57.1217
1912	57.032
1896	56.9676
1880	56.8357
1864	56.6967
1848	56.6639
1832	56.5953
1816	56.5935
1800	56.504
1784	56.5778
1768	56.5726
1752	56.3486
1736	56.3125
1720	56.1311
1704	56.1749
1688	55.9869
1672	55.9481
1656	56.0663
1640	55.7116
1624	55.4308
1608	55.4515
1592	55.3394
1576	55.4566
1560	55.5997
1544	55.4936
1528	55.1976
1512	55.2436
1496	55.0551
1480	54.8382
1464	54.7987
1448	54.7102
1432	54.5938
1416	54.3989
1400	54.4807
1384	54.2091
1368	54.1789
1352	54.0955
1336	53.9835
1320	54.0137
1304	53.8628
1288	53.7687
1272	53.6038
1256	53.7852
1240	53.5283
1224	53.4558
1208	53.4399
1192	53.3039
1176	53.0917
1160	53.0931
1144	53.0025
1128	53.0005
1112	52.9988
1096	52.6054
1080	52.6123
1064	52.5356
1048	52.6632
1032	52.6384
1016	52.5022
1000	52.3568
984	 52.3301
968	 52.3623
952	 51.8331
936	 51.7344
920	 51.3643
904	 51.1004
888	 51.4888
872	 51.4663
856	 51.262
840	 51.1819
824	 51.2634
808	 51.1647
792	 51.1252
776	 51.1091
760	 50.5667
744	 50.5272
728	 50.2173
712	 50.3004
696	 50.2417
680	 49.4039
664	 49.5059
648	 49.5532
632	 49.3411
616	 49.2486
600	 48.7837
584	 48.8481
568	 47.9329
552	 47.9988
536	 47.5653
520	 46.561
504	 47.0828
488	 47.3804
472	 46.1496
456	 44.1059
440	 46.4792
424	 45.1356
408	 44.3729
392	 48.4198
376	 33.8693
370	 31.798