File: Bakgrunnsmateriale/MATLAB/FTIR/ftir_data/subBb/Mapping_121/C-4040-8_t76.asc
PE IR       SPECTRUM    SPECTRUM    ASCII       PEDS        1.60
  -1
C-B142~1.ASC
17/03/27
20:44:20.00
17/03/27
20:44:46.00
tln
$C-4040-8_t0076$<tbV0>[-10.4,2.6,8.0,0.0,27,1,0]
27.028
64

2002,4.07
MIRTGS : RIGHTBACK : INTERNAL 2
MIR : ON : INTERNAL 2
OPTKBR

0.200000
8
8.000000
FILLER
RATIO
SPECTRUM
UNLOCKED 256

DOUBLE
64
COMBINED
1
0
0

0.002000
RATIO

1
0
TRUE
51149
0
LEFT NOT FITTED RIGHT NOT FITTED 0
NONE
NONE
15600
12
4.427000
51148
TRUE
1 0 8 72 0 0 0 0

15798

#HDR
-1
-1
#GR
µM
%T
2.38419e-05
0.0
2.000000
0.002000
12515
8
80.8699
25.9197
#DATA
2.000000	 65.3125
2.084000	 65.3633
2.168000	 65.2605
2.252000	 64.8341
2.336000	 64.6188
2.420000	 64.9436
2.504000	 65.2818
2.588000	 65.3723
2.672000	 65.0148
2.756000	 65.1947
2.840000	 65.2567
2.924000	 65.3449
3.008000	 65.1793
3.092000	 65.2249
3.176000	 65.3199
3.260000	 65.3479
3.344000	 65.1368
3.428000	 64.7728
3.512000	 65.0336
3.596000	 65.3603
3.680000	 65.2731
3.764000	 65.1815
3.848000	 65.1567
3.932000	 65.3126
4.016000	 65.2798
4.100000	 65.2626
4.184000	 65.3073
4.268000	 65.2818
4.352000	 65.3096
4.436000	 65.3417
4.520000	 65.3179
4.604000	 65.3083
4.688000	 65.324
4.772000	 65.3292
4.856000	 65.3295
4.940000	 65.2324
5.024000	 65.2545
5.108000	 65.4427
5.192000	 65.3764
5.276000	 65.2533
5.359999	 65.2622
5.444000	 65.4538
5.528000	 65.341
5.612000	 65.3724
5.696000	 65.4388
5.780000	 64.9439
5.864000	 65.2179
5.948000	 65.2978
6.032000	 65.2546
6.116000	 65.1473
6.200000	 65.0925
6.284000	 65.0322
6.368000	 64.9499
6.452000	 65.0565
6.536000	 65.0717
6.620000	 65.0316
6.704000	 64.9874
6.788000	 65.1227
6.872000	 65.2276
6.956000	 65.0863
7.040000	 65.1938
7.124000	 65.125
7.208000	 65.1757
7.292000	 65.1207
7.376000	 65.1437
7.460000	 65.0541
7.544000	 65.1298
7.628000	 65.0169
7.712000	 65.0506
7.796000	 65.1551
7.880000	 64.9931
7.964000	 64.9446
8.048000	 65.0114
8.132000	 65.0843
8.216000	 64.9959
8.300000	 65.1098
8.384000	 64.8004
8.468000	 64.9948
8.552000	 64.7419
8.635999	 64.8766
8.719999	 64.9515
8.804000	 64.8337
8.888000	 64.7512
8.972000	 64.6935
9.056000	 64.7198
9.140000	 64.7054
9.224000	 64.9664
9.308000	 64.9902
9.391999	 64.8513
9.475999	 64.6933
9.560000	 64.833
9.644000	 64.8652
9.728000	 64.6036
9.812000	 64.6621
9.896000	 64.6579
9.980000	 64.6463
10.064	64.6255
10.148	64.704
10.232	64.7185
10.316	64.8319
10.4	64.7422
10.484	65.1587
10.568	64.7575
10.652	64.3986
10.736	64.358
10.82	64.1769
10.904	64.9297
10.988	65.5431
11.072	64.8822
11.156	64.6474
11.24	64.8468
11.324	64.8366
11.408	64.6896
11.492	64.4646
11.576	64.6763
11.66	64.5416
11.744	64.5921
11.828	64.6016
11.912	64.5281
11.996	64.5473
12.08	64.5648
12.164	64.3283
12.248	64.3328
12.332	64.5669
12.416	64.5269
12.5	64.3944
12.584	64.2323
12.668	64.1748
12.752	64.3306
12.836	64.4561
12.92	64.3444
13.004	64.2675
13.088	64.4497
13.172	64.3552
13.256	63.806
13.34	63.5661
13.424	63.9918
13.508	64.3329
13.592	63.9614
13.676	63.9172
13.76	64.0417
13.844	63.9629
13.928	64.0344
14.012	64.0924
14.096	63.8015
14.18	63.4608
14.264	63.4884
14.348	63.6499
14.432	63.6537
14.516	63.6325
14.6	63.628
14.684	63.5815
14.768	63.4479
14.852	63.3555
14.936	63.3552
15.02	63.2949
15.104	63.2049
15.188	63.2448
15.272	63.4088
15.356	63.5175
15.44	63.422
15.524	63.1333
15.608	62.8443
15.692	62.7246
15.776	62.7072
15.86	62.7526
15.944	62.8553
16.028	62.8377
16.112	62.6859
16.196	62.615
16.28	62.6124
16.364	62.5913
16.448	62.7418
16.532	63.0504
16.616	63.1424
16.7	62.9334
16.784	62.7593
16.868	62.8356
16.952	63.0415
17.036	63.1384
17.12	63.0283
17.204	62.8321
17.288	62.6559
17.372	62.4648
17.456	62.2831
17.54	62.2567
17.624	62.4206
17.708	62.5875
17.792	62.5809
17.876	62.4334
17.96	62.3047
18.044	62.2819
18.128	62.3204
18.212	62.3323
18.296	62.2581
18.38	62.068
18.464	61.8079
18.548	61.6046
18.632	61.5481
18.716	61.5959
18.8	61.6421
18.884	61.6397
18.968	61.6144
19.052	61.6128
19.136	61.6768
19.22	61.8372
19.304	62.058
19.388	62.2024
19.472	62.1167
19.556	61.7723
19.64	61.3078
19.724	60.9171
19.808	60.7013
19.892	60.6289
19.976	60.623
20.06	60.648
20.144	60.7024
20.228	60.7741
20.312	60.8482
20.396	60.9496
20.48	61.1348
20.564	61.4129
20.648	61.6812
20.732	61.7921
20.816	61.6973
20.9	61.5018
20.984	61.3468
21.068	61.2687
21.152	61.1785
21.236	60.9764
21.32	60.6551
21.404	60.299
21.488	60.0109
21.572	59.8414
21.656	59.7969
21.74	59.872
21.824	60.0581
21.908	60.3137
21.992	60.5514
22.076	60.6756
22.16	60.6346
22.244	60.4767
22.328	60.3121
22.412	60.2464
22.496	60.315
22.58	60.4504
22.664	60.5278
22.748	60.4442
22.832	60.1886
22.916	59.8422
23	59.5266
23.084	59.3276
23.168	59.2598
23.252	59.257
23.336	59.1942
23.42	58.959
23.504	58.4997
23.588	57.8518
23.672	57.1273
23.756	56.5085
23.84	56.1939
23.924	56.31
24.008	56.8432
24.092	57.6248
24.176	58.3798
24.26	58.9227
24.344	59.2006
24.428	59.2632
24.512	59.1881
24.596	58.981
24.68	58.5283
24.764	57.6624
24.848	56.3262
24.932	54.7612
25.016	53.4793
25.1	52.9941
25.184	53.6094
25.268	55.1857
25.352	57.1632
25.436	58.7916
25.52	59.503
25.604	59.1191
25.688	57.6301
25.772	55.0938
25.856	51.5704
25.94	47.137
26.024	42.0143
26.108	36.6709
26.192	31.8775
26.276	28.5457
26.36	27.5584
26.444	29.1747
26.528	32.7952
26.612	37.18
26.696	40.6804
26.78	41.6923
26.864	39.3394
26.948	33.6744
27.028	25.9197