File: Bakgrunnsmateriale/MATLAB/FTIR/ftir_data/subBb/Mapping_121/C-4040-8_t03_cm-1.asc
PE IR       SPECTRUM    SPECTRUM    ASCII       PEDS        1.60
  -1
C-99E1~1.ASC
17/03/27
14:44:48.00
17/03/27
14:44:48.00
tln
$C-4040-8_t0003$<tbV0>[7.8,-13.0,8.0,0.0,27,1,0]
370
64

2002,4.07
MIRTGS : RIGHTBACK : INTERNAL 2
MIR : ON : INTERNAL 2
OPTKBR

0.200000
8
8.000000
FILLER
RATIO
SPECTRUM
UNLOCKED 256

DOUBLE
64
COMBINED
1
0
0

1.000000
RATIO

1
0
TRUE
51149
0
LEFT NOT FITTED RIGHT NOT FITTED 0
NONE
NONE
15600
12
4.427000
51148
TRUE
1 0 8 72 0 0 0 0

15798

#HDR
-1
-1
#GR
CM-1
%T
2.38419e-05
0.0
5000
-1.000000
4631
8
67.8765
12.5589
#DATA
5000	62.3075
4984	63.5535
4968	62.5123
4952	62.9842
4936	62.4991
4920	62.9695
4904	63.6844
4888	63.6137
4872	63.0872
4856	62.7985
4840	63.7592
4824	62.9337
4808	62.6571
4792	62.9622
4776	63.1071
4760	62.7763
4744	63.0688
4728	62.5041
4712	62.3689
4696	62.7679
4680	62.7562
4664	62.5358
4648	62.9002
4632	62.8276
4616	62.6956
4600	62.8738
4584	63.1433
4568	62.8953
4552	63.1127
4536	62.5798
4520	63.059
4504	63.2037
4488	62.2212
4472	62.4406
4456	63.3322
4440	63.4715
4424	60.6317
4408	58.4321
4392	63.2704
4376	63.2434
4360	63.6723
4344	62.4959
4328	62.5468
4312	61.9933
4296	62.2322
4280	62.268
4264	62.1464
4248	62.1039
4232	61.8755
4216	62.0979
4200	62.0556
4184	61.6067
4168	61.2143
4152	61.5583
4136	61.7877
4120	61.8515
4104	61.7615
4088	61.9351
4072	61.4618
4056	61.6707
4040	61.46
4024	61.844
4008	61.7515
3992	61.6712
3976	61.2579
3960	61.4793
3944	61.3445
3928	61.1685
3912	61.3495
3896	61.3257
3880	60.9869
3864	61.028
3848	61.3307
3832	60.9379
3816	60.9241
3800	61.1251
3784	60.2959
3768	60.8028
3752	60.8504
3736	60.7058
3720	60.6298
3704	60.4992
3688	60.4988
3672	60.3667
3656	60.33
3640	59.9508
3624	59.968
3608	59.8531
3592	59.9388
3576	59.599
3560	59.7444
3544	59.5968
3528	59.5386
3512	59.2305
3496	59.0614
3480	59.2263
3464	59.1839
3448	59.1356
3432	58.7544
3416	58.646
3400	58.6318
3384	58.4315
3368	58.2404
3352	58.2345
3336	58.2871
3320	58.0218
3304	57.8143
3288	57.6363
3272	57.7548
3256	57.5631
3240	57.4244
3224	57.3234
3208	57.2625
3192	56.9432
3176	56.9881
3160	56.8366
3144	56.6842
3128	56.4282
3112	56.2393
3096	56.3704
3080	56.3367
3064	55.9002
3048	55.9659
3032	55.6904
3016	55.7527
3000	55.51
2984	55.284
2968	55.0344
2952	54.884
2936	54.9576
2920	54.5517
2904	54.3833
2888	54.5496
2872	54.2747
2856	54.0474
2840	53.993
2824	53.7888
2808	53.6937
2792	53.4062
2776	53.3407
2760	53.2212
2744	53.1444
2728	52.8136
2712	52.5635
2696	52.5784
2680	52.4123
2664	52.2307
2648	52.0029
2632	51.9256
2616	51.6687
2600	51.396
2584	51.1596
2568	51.0637
2552	50.9643
2536	50.8941
2520	50.5956
2504	50.3939
2488	50.1651
2472	50.0846
2456	49.7706
2440	49.8299
2424	49.3145
2408	49.1859
2392	48.9664
2376	48.8822
2360	48.6332
2344	48.3819
2328	48.2533
2312	48.0611
2296	47.8687
2280	47.6432
2264	47.4693
2248	47.2523
2232	46.8931
2216	46.8632
2200	46.5773
2184	46.4252
2168	46.1989
2152	45.9803
2136	45.6626
2120	45.5438
2104	45.4072
2088	45.2304
2072	44.8688
2056	44.6712
2040	44.4452
2024	44.2924
2008	44.1322
1992	43.9121
1976	43.639
1960	43.3386
1944	43.155
1928	42.9313
1912	42.7956
1896	42.5777
1880	42.3874
1864	42.1485
1848	41.9535
1832	41.7755
1816	41.5275
1800	41.3527
1784	41.155
1768	40.9866
1752	40.818
1736	40.4941
1720	40.3669
1704	40.0668
1688	39.8419
1672	39.6811
1656	39.5737
1640	39.243
1624	38.994
1608	38.7186
1592	38.4557
1576	38.2212
1560	38.1957
1544	38.1437
1528	37.7528
1512	37.4657
1496	37.1296
1480	36.9268
1464	36.838
1448	36.458
1432	36.4279
1416	36.1556
1400	35.8888
1384	35.6575
1368	35.5196
1352	35.1773
1336	35.0015
1320	34.8947
1304	34.516
1288	34.4108
1272	34.1285
1256	34.0282
1240	33.5736
1224	33.5497
1208	33.2397
1192	33.1203
1176	32.746
1160	32.6511
1144	32.3412
1128	32.1089
1112	31.8696
1096	31.5693
1080	31.321
1064	31.113
1048	31.0218
1032	30.7199
1016	30.4028
1000	30.149
984	 30.001
968	 29.7082
952	 29.5727
936	 29.3384
920	 28.8759
904	 28.6807
888	 28.3526
872	 28.0211
856	 27.8655
840	 27.4334
824	 27.4291
808	 26.87
792	 26.4606
776	 26.3712
760	 25.478
744	 25.7614
728	 25.3982
712	 24.2279
696	 23.9126
680	 22.8364
664	 23.284
648	 22.9537
632	 21.8845
616	 22.2451
600	 21.0868
584	 20.7567
568	 20.7241
552	 19.8876
536	 19.192
520	 18.6035
504	 17.3285
488	 16.9363
472	 16.738
456	 14.7123
440	 16.2477
424	 14.4432
408	 13.529
392	 14.7825
376	 30.8855
370	 21.0089