File: Bakgrunnsmateriale/MATLAB/FTIR/ftir_data/subBb/Mapping_121/C-4040-8_t103.asc
PE IR       SPECTRUM    SPECTRUM    ASCII       PEDS        1.60
  -1
C-88C6~1.ASC
17/03/27
22:56:38.00
17/03/27
22:57:04.00
tln
$C-4040-8_t0103$<tbV0>[5.2,10.4,8.0,0.0,27,1,0]
27.028
64

2002,4.07
MIRTGS : RIGHTBACK : INTERNAL 2
MIR : ON : INTERNAL 2
OPTKBR

0.200000
8
8.000000
FILLER
RATIO
SPECTRUM
UNLOCKED 256

DOUBLE
64
COMBINED
1
0
0

0.002000
RATIO

1
0
TRUE
51149
0
LEFT NOT FITTED RIGHT NOT FITTED 0
NONE
NONE
15600
12
4.427000
51148
TRUE
1 0 8 72 0 0 0 0

15798

#HDR
-1
-1
#GR
µM
%T
2.38419e-05
0.0
2.000000
0.002000
12515
8
139.052
2.287772
#DATA
2.000000	 64.6749
2.084000	 65.2523
2.168000	 65.4098
2.252000	 63.3726
2.336000	 64.0996
2.420000	 65.2703
2.504000	 65.3157
2.588000	 65.4093
2.672000	 65.2612
2.756000	 65.5665
2.840000	 65.6548
2.924000	 65.2307
3.008000	 65.2796
3.092000	 65.0708
3.176000	 65.2304
3.260000	 65.2895
3.344000	 65.3334
3.428000	 64.9647
3.512000	 65.0573
3.596000	 65.3753
3.680000	 65.4621
3.764000	 65.4353
3.848000	 65.2736
3.932000	 65.517
4.016000	 65.5497
4.100000	 65.2125
4.184000	 65.2611
4.268000	 65.4442
4.352000	 65.3815
4.436000	 65.308
4.520000	 65.4292
4.604000	 65.3041
4.688000	 65.4825
4.772000	 65.3968
4.856000	 65.1772
4.940000	 65.5153
5.024000	 65.3506
5.108000	 65.406
5.192000	 65.4946
5.276000	 65.5508
5.359999	 65.3426
5.444000	 65.3897
5.528000	 65.4571
5.612000	 65.3822
5.696000	 65.3884
5.780000	 65.0815
5.864000	 65.3902
5.948000	 65.3253
6.032000	 65.2714
6.116000	 65.2986
6.200000	 65.2331
6.284000	 65.1941
6.368000	 65.0464
6.452000	 65.1545
6.536000	 65.2037
6.620000	 65.098
6.704000	 65.185
6.788000	 65.2939
6.872000	 65.1365
6.956000	 65.1741
7.040000	 65.2311
7.124000	 65.3116
7.208000	 65.3196
7.292000	 65.1057
7.376000	 65.0655
7.460000	 65.0686
7.544000	 65.2835
7.628000	 64.9336
7.712000	 65.1389
7.796000	 65.0603
7.880000	 65.0047
7.964000	 65.1659
8.048000	 65.1522
8.132000	 65.0826
8.216000	 65.0256
8.300000	 65.0165
8.384000	 65.062
8.468000	 64.9916
8.552000	 64.9629
8.635999	 65.0509
8.719999	 64.925
8.804000	 64.8524
8.888000	 64.943
8.972000	 65.112
9.056000	 64.9432
9.140000	 64.6963
9.224000	 64.6945
9.308000	 64.6481
9.391999	 64.8579
9.475999	 64.7136
9.560000	 64.9603
9.644000	 64.7998
9.728000	 64.9678
9.812000	 64.809
9.896000	 64.1921
9.980000	 64.486
10.064	64.6498
10.148	64.6174
10.232	64.5137
10.316	64.7727
10.4	64.768
10.484	64.7233
10.568	64.5636
10.652	64.2562
10.736	64.3991
10.82	65.3899
10.904	65.4372
10.988	64.7589
11.072	64.6281
11.156	63.9112
11.24	64.4613
11.324	64.5403
11.408	64.3551
11.492	64.6702
11.576	65.0549
11.66	65.0636
11.744	64.8144
11.828	64.2633
11.912	64.155
11.996	64.2403
12.08	64.1947
12.164	64.0822
12.248	64.0295
12.332	64.1728
12.416	64.0746
12.5	64.2603
12.584	64.4256
12.668	64.2303
12.752	63.9768
12.836	63.8427
12.92	64.0697
13.004	64.1693
13.088	63.9863
13.172	63.9443
13.256	64.3241
13.34	64.5315
13.424	64.4072
13.508	63.9659
13.592	63.7825
13.676	63.9032
13.76	63.694
13.844	63.3651
13.928	63.3233
14.012	63.2176
14.096	63.2196
14.18	63.4025
14.264	63.5242
14.348	63.5023
14.432	63.3394
14.516	63.2632
14.6	63.319
14.684	63.3576
14.768	63.4291
14.852	63.4788
14.936	63.2585
15.02	62.9412
15.104	62.8056
15.188	62.8743
15.272	63.1098
15.356	63.3024
15.44	63.2916
15.524	63.1998
15.608	63.1377
15.692	63.0563
15.776	62.9564
15.86	62.9855
15.944	63.1723
16.028	63.3028
16.112	63.1613
16.196	62.7782
16.28	62.439
16.364	62.3776
16.448	62.4937
16.532	62.5798
16.616	62.6146
16.7	62.6494
16.784	62.6469
16.868	62.573
16.952	62.4968
17.036	62.5379
17.12	62.6978
17.204	62.8164
17.288	62.8367
17.372	62.8579
17.456	62.864
17.54	62.7182
17.624	62.4373
17.708	62.1984
17.792	62.0951
17.876	62.1065
17.96	62.1703
18.044	62.1766
18.128	62.0348
18.212	61.8122
18.296	61.705
18.38	61.8325
18.464	62.1018
18.548	62.2968
18.632	62.2574
18.716	61.9789
18.8	61.5975
18.884	61.2921
18.968	61.1837
19.052	61.2594
19.136	61.3876
19.22	61.4233
19.304	61.3268
19.388	61.1592
19.472	60.9772
19.556	60.7899
19.64	60.6061
19.724	60.4973
19.808	60.5449
19.892	60.7547
19.976	61.0307
20.06	61.2496
20.144	61.3499
20.228	61.3572
20.312	61.3631
20.396	61.4602
20.48	61.6554
20.564	61.83
20.648	61.7994
20.732	61.4508
20.816	60.8426
20.9	60.184
20.984	59.7044
21.068	59.5102
21.152	59.5361
21.236	59.6108
21.32	59.5814
21.404	59.3936
21.488	59.1101
21.572	58.8434
21.656	58.6886
21.74	58.6813
21.824	58.7885
21.908	58.9349
21.992	59.0388
22.076	59.0433
22.16	58.9407
22.244	58.7622
22.328	58.5678
22.412	58.4009
22.496	58.2654
22.58	58.1186
22.664	57.8922
22.748	57.5366
22.832	57.0643
22.916	56.5489
23	56.0865
23.084	55.7701
23.168	55.6581
23.252	55.7649
23.336	56.0982
23.42	56.6756
23.504	57.4621
23.588	58.3954
23.672	59.4071
23.756	60.3891
23.84	61.1813
23.924	61.6175
24.008	61.6157
24.092	61.2185
24.176	60.54
24.26	59.7602
24.344	59.0583
24.428	58.6048
24.512	58.7202
24.596	59.7637
24.68	61.8797
24.764	64.742
24.848	67.5659
24.932	69.1968
25.016	68.6255
25.1	65.3933
25.184	60.019
25.268	53.9717
25.352	49.134
25.436	46.9565
25.52	47.7368
25.604	50.646
25.688	54.029
25.772	56.0951
25.856	55.5917
25.94	51.7643
26.024	44.4545
26.108	34.1634
26.192	22.4308
26.276	11.5598
26.36	4.287693
26.444	2.349813
26.528	5.696462
26.612	12.2254
26.696	18.7972
26.78	22.4457
26.864	21.7033
26.948	17.128
27.028	11.2208