File: Bakgrunnsmateriale/MATLAB/FTIR/ftir_data/subBb/Mapping_121/C-4040-8_e123.asc
PE IR       SPECTRUM    SPECTRUM    ASCII       PEDS        1.60
  -1
C-78C3~1.ASC
17/03/27
16:18:59.00
17/03/27
16:19:26.00
tln
$C-4040-8_e0123$<ebV0>[-23.3,12.1,10.0,0.0,27,1,0]
27.028
64

2002,4.07
MIRTGS : RIGHTBACK : INTERNAL 2
MIR : ON : INTERNAL 2
OPTKBR

0.200000
8
8.000000
FILLER
SINGLE
SPECTRUM
UNLOCKED 256

DOUBLE

COMBINED
1
0
0

0.002000
BACKG

1
0
TRUE
51149
0
LEFT NOT FITTED RIGHT NOT FITTED 0
NONE
NONE
15600
12
4.427000
51148
TRUE
1 0 8 72 0 0 0 0

15798

#HDR
-1
-1
#GR
µM
EGY
2.38419e-05
0.0
2.000000
0.002000
12515
8
2.455999
0.008106
#DATA
2.000000	 0.769138
2.084000	 0.868033
2.168000	 0.928707
2.252000	 1.010591
2.336000	 1.138180
2.420000	 1.230179
2.504000	 1.394549
2.588000	 1.450144
2.672000	 1.551965
2.756000	 1.574354
2.840000	 1.628183
2.924000	 1.590452
3.008000	 1.689147
3.092000	 1.781991
3.176000	 1.815220
3.260000	 1.933647
3.344000	 2.031171
3.428000	 1.840317
3.512000	 2.013668
3.596000	 2.216589
3.680000	 2.254841
3.764000	 2.221360
3.848000	 2.228031
3.932000	 2.293339
4.016000	 2.330116
4.100000	 2.288759
4.184000	 2.248191
4.268000	 2.265204
4.352000	 2.343096
4.436000	 2.380840
4.520000	 2.370594
4.604000	 2.337986
4.688000	 2.333481
4.772000	 2.339709
4.856000	 2.383678
4.940000	 2.443921
5.024000	 2.454355
5.108000	 2.429662
5.192000	 2.401531
5.276000	 2.374081
5.359999	 2.380935
5.444000	 2.405656
5.528000	 2.432175
5.612000	 2.429789
5.696000	 2.397912
5.780000	 2.323987
5.864000	 2.280658
5.948000	 2.238949
6.032000	 2.190296
6.116000	 2.138900
6.200000	 2.007277
6.284000	 2.014276
6.368000	 1.979820
6.452000	 1.957241
6.536000	 2.098634
6.620000	 2.082106
6.704000	 1.689173
6.788000	 1.975575
6.872000	 1.790196
6.956000	 1.863092
7.040000	 1.857157
7.124000	 1.728680
7.208000	 1.787352
7.292000	 1.817131
7.376000	 1.815159
7.460000	 1.817691
7.544000	 1.850114
7.628000	 1.856272
7.712000	 1.856684
7.796000	 1.851136
7.880000	 1.773772
7.964000	 1.758803
8.048000	 1.831857
8.132000	 1.823317
8.216000	 1.784029
8.300000	 1.745909
8.384000	 1.740490
8.468000	 1.713806
8.552000	 1.672569
8.635999	 1.621866
8.719999	 1.601496
8.804000	 1.572486
8.888000	 1.525775
8.972000	 1.470947
9.056000	 1.429698
9.140000	 1.419691
9.224000	 1.424597
9.308000	 1.430015
9.391999	 1.440096
9.475999	 1.360751
9.560000	 1.324895
9.644000	 1.385087
9.728000	 1.367104
9.812000	 1.356742
9.896000	 1.379875
9.980000	 1.400466
10.064	1.401335
10.148	1.379987
10.232	1.369968
10.316	1.348947
10.4	1.324486
10.484	1.292823
10.568	1.269296
10.652	1.258458
10.736	1.241867
10.82	1.227187
10.904	1.204391
10.988	1.176575
11.072	1.158324
11.156	1.148594
11.24	1.128034
11.324	1.076882
11.408	1.030371
11.492	1.047326
11.576	1.082353
11.66	1.092691
11.744	1.086597
11.828	1.076898
11.912	1.058180
11.996	0.991765
12.08	0.882019
12.164	0.852149
12.248	0.915242
12.332	0.948437
12.416	0.947635
12.5	0.946164
12.584	0.953914
12.668	0.966381
12.752	0.975695
12.836	0.977639
12.92	0.976703
13.004	0.973958
13.088	0.968004
13.172	0.963951
13.256	0.962001
13.34	0.955757
13.424	0.945240
13.508	0.933969
13.592	0.923065
13.676	0.910640
13.76	0.898016
13.844	0.885747
13.928	0.873505
14.012	0.861533
14.096	0.847248
14.18	0.831288
14.264	0.815715
14.348	0.797513
14.432	0.769919
14.516	0.740995
14.6	0.730484
14.684	0.734528
14.768	0.735855
14.852	0.730125
14.936	0.720040
15.02	0.710161
15.104	0.702554
15.188	0.694880
15.272	0.685868
15.356	0.676176
15.44	0.666007
15.524	0.656394
15.608	0.648201
15.692	0.639614
15.776	0.629673
15.86	0.620139
15.944	0.611334
16.028	0.602145
16.112	0.592624
16.196	0.582694
16.28	0.569992
16.364	0.553162
16.448	0.536308
16.532	0.525333
16.616	0.521799
16.7	0.522045
16.784	0.521767
16.868	0.519356
16.952	0.515490
17.036	0.511469
17.12	0.508046
17.204	0.505235
17.288	0.502601
17.372	0.499818
17.456	0.496966
17.54	0.494000
17.624	0.490846
17.708	0.487423
17.792	0.483613
17.876	0.479387
17.96	0.474763
18.044	0.469781
18.128	0.464478
18.212	0.459320
18.296	0.454619
18.38	0.450414
18.464	0.446386
18.548	0.442228
18.632	0.437793
18.716	0.433145
18.8	0.428132
18.884	0.422598
18.968	0.416557
19.052	0.410307
19.136	0.404366
19.22	0.398959
19.304	0.393998
19.388	0.389150
19.472	0.384132
19.556	0.378802
19.64	0.373270
19.724	0.367560
19.808	0.361705
19.892	0.355629
19.976	0.349343
20.06	0.342894
20.144	0.336139
20.228	0.328913
20.312	0.321303
20.396	0.313569
20.48	0.305863
20.564	0.298358
20.648	0.290927
20.732	0.283628
20.816	0.276491
20.9	0.269768
20.984	0.263601
21.068	0.257976
21.152	0.252761
21.236	0.247650
21.32	0.242338
21.404	0.236617
21.488	0.230512
21.572	0.224106
21.656	0.217673
21.74	0.211292
21.824	0.205004
21.908	0.198741
21.992	0.192460
22.076	0.186352
22.16	0.180568
22.244	0.175351
22.328	0.170695
22.412	0.166516
22.496	0.162507
22.58	0.158433
22.664	0.154100
22.748	0.149490
22.832	0.144495
22.916	0.139277
23	0.133890
23.084	0.128488
23.168	0.123329
23.252	0.118511
23.336	0.114118
23.42	0.110039
23.504	0.106077
23.588	0.102083
23.672	0.097902
23.756	0.093514
23.84	0.089043
23.924	0.084634
24.008	0.080490
24.092	0.076652
24.176	0.073131
24.26	0.069776
24.344	0.066485
24.428	0.063185
24.512	0.059926
24.596	0.056867
24.68	0.054132
24.764	0.051762
24.848	0.049596
24.932	0.047348
25.016	0.044649
25.1	0.041389
25.184	0.037484
25.268	0.033163
25.352	0.028784
25.436	0.024711
25.52	0.021264
25.604	0.018616
25.688	0.016731
25.772	0.015510
25.856	0.014849
25.94	0.014510
26.024	0.014300
26.108	0.014095
26.192	0.013757
26.276	0.013203
26.36	0.012489
26.444	0.011653
26.528	0.010797
26.612	0.010054
26.696	0.009491
26.78	0.009059
26.864	0.008741
26.948	0.008440
27.028	0.008106