File: Bakgrunnsmateriale/MATLAB/FTIR/ftir_data/subBb/Mapping_121/C-4040-8_t82_cm-1.asc
PE IR       SPECTRUM    SPECTRUM    ASCII       PEDS        1.60
  -1
C-9D64~1.ASC
17/03/27
21:12:38.00
17/03/27
21:12:38.00
tln
$C-4040-8_t0082$<tbV0>[2.6,5.2,8.0,0.0,27,1,0]
370
64

2002,4.07
MIRTGS : RIGHTBACK : INTERNAL 2
MIR : ON : INTERNAL 2
OPTKBR

0.200000
8
8.000000
FILLER
RATIO
SPECTRUM
UNLOCKED 256

DOUBLE
64
COMBINED
1
0
0

1.000000
RATIO

1
0
TRUE
51149
0
LEFT NOT FITTED RIGHT NOT FITTED 0
NONE
NONE
15600
12
4.427000
51148
TRUE
1 0 8 72 0 0 0 0

15798

#HDR
-1
-1
#GR
CM-1
%T
2.38419e-05
0.0
5000
-1.000000
4631
8
91.2029
51.1184
#DATA
5000	64.9535
4984	65.0192
4968	64.6444
4952	65.9827
4936	64.8584
4920	64.9187
4904	64.8287
4888	64.8638
4872	65.6
4856	65.4937
4840	64.716
4824	65.3477
4808	65.0259
4792	65.05
4776	65.0225
4760	65.4002
4744	65.5726
4728	64.9465
4712	65.8216
4696	64.909
4680	65.2659
4664	65.361
4648	65.1599
4632	65.1873
4616	64.9536
4600	64.8098
4584	64.6784
4568	64.7429
4552	64.8581
4536	64.9146
4520	64.2039
4504	64.8158
4488	64.7656
4472	64.6558
4456	64.487
4440	64.5492
4424	65.0047
4408	64.221
4392	62.6417
4376	73.3693
4360	64.4209
4344	64.8647
4328	64.6752
4312	65.0739
4296	65.1275
4280	64.8303
4264	64.7011
4248	64.6926
4232	65.1424
4216	65.2059
4200	65.1347
4184	64.9493
4168	64.9611
4152	65.3488
4136	65.0199
4120	65.1803
4104	65.166
4088	65.2317
4072	65.1419
4056	65.2704
4040	65.1538
4024	65.0836
4008	65.3113
3992	65.1912
3976	65.2714
3960	65.1977
3944	65.1391
3928	65.101
3912	65.4287
3896	65.3075
3880	65.1233
3864	65.28
3848	64.9089
3832	65.0866
3816	65.2075
3800	65.0928
3784	65.0573
3768	65.2086
3752	65.4125
3736	65.1839
3720	65.3129
3704	65.0698
3688	65.0852
3672	65.3543
3656	65.302
3640	65.328
3624	65.2714
3608	65.1682
3592	65.4747
3576	65.0229
3560	65.3445
3544	65.0134
3528	65.1051
3512	65.1137
3496	65.4018
3480	65.3219
3464	65.2688
3448	65.281
3432	65.0509
3416	65.3057
3400	64.7772
3384	65.3648
3368	65.3198
3352	65.0961
3336	65.2507
3320	65.1274
3304	65.2797
3288	65.2184
3272	65.3808
3256	65.294
3240	65.1462
3224	65.0784
3208	65.3967
3192	65.4025
3176	65.1009
3160	65.2511
3144	65.4464
3128	65.4804
3112	65.2472
3096	65.3143
3080	65.2267
3064	65.3792
3048	65.2501
3032	65.2259
3016	65.0747
3000	65.0295
2984	65.2328
2968	65.1285
2952	65.0936
2936	65.0957
2920	64.7284
2904	65.1082
2888	65.2262
2872	65.0353
2856	65.2809
2840	65.1684
2824	65.1924
2808	65.3645
2792	65.3032
2776	65.323
2760	65.4014
2744	65.3985
2728	65.3434
2712	65.5149
2696	65.2024
2680	65.4083
2664	65.2657
2648	65.2503
2632	65.3354
2616	65.369
2600	65.2213
2584	65.3109
2568	65.2432
2552	65.3281
2536	65.2051
2520	65.4312
2504	65.3696
2488	65.3915
2472	65.2888
2456	65.3336
2440	65.489
2424	65.382
2408	65.3762
2392	65.3149
2376	65.295
2360	65.2651
2344	65.3644
2328	65.363
2312	65.3579
2296	65.2994
2280	65.4026
2264	65.3414
2248	65.3592
2232	65.4581
2216	65.4208
2200	65.2689
2184	65.2932
2168	65.3634
2152	65.2998
2136	65.1894
2120	65.3864
2104	65.4916
2088	65.4252
2072	65.4851
2056	65.6963
2040	65.4532
2024	65.3141
2008	65.5082
1992	65.2762
1976	65.3394
1960	65.3992
1944	65.358
1928	65.402
1912	65.3704
1896	65.4069
1880	65.2907
1864	65.4679
1848	65.3358
1832	65.3662
1816	65.6049
1800	65.329
1784	65.2909
1768	65.3694
1752	65.3241
1736	65.2104
1720	65.1411
1704	65.2533
1688	65.379
1672	65.3573
1656	65.4644
1640	65.159
1624	65.1213
1608	65.1851
1592	65.1532
1576	65.0666
1560	65.0903
1544	65.0982
1528	65.1565
1512	65.1432
1496	65.1865
1480	65.2059
1464	65.2454
1448	64.9113
1432	65.4062
1416	65.3564
1400	65.0551
1384	65.0796
1368	65.0535
1352	65.0174
1336	65.3764
1320	65.149
1304	65.1834
1288	65.2791
1272	65.0791
1256	65.1099
1240	65.0806
1224	64.9872
1208	65.2236
1192	64.9887
1176	64.9535
1160	65.0159
1144	64.9688
1128	65.1554
1112	64.8182
1096	64.8444
1080	64.8978
1064	64.6818
1048	64.7799
1032	64.8221
1016	64.4537
1000	64.6257
984	 64.8928
968	 64.8548
952	 65.0865
936	 65.161
920	 64.8992
904	 64.9035
888	 64.8411
872	 64.6655
856	 64.4655
840	 64.7944
824	 64.4984
808	 64.601
792	 64.0906
776	 64.3667
760	 64.4085
744	 63.8147
728	 63.7276
712	 64.0933
696	 63.8841
680	 63.5091
664	 63.6559
648	 63.4872
632	 62.9025
616	 62.3852
600	 62.7021
584	 63.2873
568	 63.29
552	 62.9308
536	 62.0194
520	 61.9634
504	 62.0565
488	 61.7393
472	 60.7003
456	 60.4552
440	 59.3278
424	 54.3694
408	 52.9184
392	 68.1951
376	 51.6585
370	 70.2437