File: Bakgrunnsmateriale/MATLAB/FTIR/ftir_data/subBb/Mapping_121/C-4040-8_e122_cm-1.asc
PE IR       SPECTRUM    SPECTRUM    ASCII       PEDS        1.60
  -1
C-4040~1.ASC
17/03/27
14:29:38.00
17/03/27
14:29:38.00
tln
$C-4040-8_e0122$<ebV0>[-23.3,12.1,10.0,0.0,27,1,0]
370
64

2002,4.07
MIRTGS : RIGHTBACK : INTERNAL 2
MIR : ON : INTERNAL 2
OPTKBR

0.200000
8
8.000000
FILLER
SINGLE
SPECTRUM
UNLOCKED 256

DOUBLE

COMBINED
1
0
0

1.000000
BACKG

1
0
TRUE
51149
0
LEFT NOT FITTED RIGHT NOT FITTED 0
NONE
NONE
15600
12
4.427000
51148
TRUE
1 0 8 72 0 0 0 0

15798

#HDR
-1
-1
#GR
CM-1
EGY
2.38419e-05
0.0
5000
-1.000000
4631
8
2.455806
0.009918
#DATA
5000	0.768876
4984	0.772309
4968	0.783729
4952	0.793409
4936	0.800871
4920	0.802087
4904	0.795531
4888	0.808787
4872	0.818896
4856	0.827026
4840	0.833725
4824	0.850915
4808	0.863432
4792	0.871133
4776	0.878047
4760	0.890302
4744	0.893306
4728	0.902795
4712	0.904822
4696	0.906753
4680	0.907206
4664	0.911808
4648	0.915050
4632	0.918340
4616	0.924968
4600	0.934052
4584	0.947475
4568	0.959086
4552	0.971055
4536	0.984311
4520	0.989127
4504	0.992059
4488	1.005744
4472	1.001787
4456	0.978159
4440	0.958871
4424	1.024103
4408	1.020002
4392	1.028037
4376	1.037096
4360	1.045465
4344	1.061725
4328	1.083278
4312	1.104736
4296	1.119685
4280	1.137733
4264	1.152348
4248	1.166749
4232	1.177263
4216	1.185059
4200	1.192665
4184	1.206731
4168	1.212906
4152	1.218318
4136	1.229429
4120	1.241040
4104	1.260375
4088	1.276016
4072	1.300048
4056	1.319742
4040	1.341795
4024	1.359295
4008	1.374673
3992	1.389932
3976	1.408505
3960	1.409244
3944	1.411771
3928	1.417660
3912	1.423573
3896	1.424980
3880	1.437401
3864	1.442408
3848	1.453018
3832	1.475381
3816	1.491904
3800	1.503777
3784	1.539301
3768	1.544785
3752	1.532387
3736	1.547431
3720	1.566123
3704	1.571178
3688	1.560592
3672	1.552391
3656	1.566362
3640	1.579475
3624	1.574707
3608	1.583933
3592	1.590275
3576	1.604461
3560	1.612377
3544	1.620459
3528	1.621222
3512	1.629853
3496	1.622128
3480	1.609396
3464	1.602387
3448	1.591658
3432	1.583766
3416	1.587462
3400	1.597809
3384	1.606559
3368	1.621699
3352	1.646709
3336	1.667690
3320	1.693701
3304	1.716041
3288	1.737356
3272	1.753878
3256	1.772570
3240	1.782727
3224	1.785850
3208	1.786136
3192	1.795721
3176	1.798582
3160	1.803135
3144	1.816916
3128	1.836538
3112	1.853156
3096	1.883721
3080	1.915597
3064	1.933670
3048	1.961135
3032	1.976394
3016	1.961398
3000	2.023077
2984	2.024173
2968	1.959657
2952	1.920604
2936	1.810598
2920	1.801252
2904	1.947498
2888	1.994657
2872	1.984047
2856	1.926493
2840	2.063989
2824	2.126359
2808	2.164030
2792	2.193975
2776	2.225041
2760	2.242469
2744	2.250266
2728	2.253866
2712	2.250623
2696	2.238321
2680	2.233576
2664	2.222418
2648	2.217030
2632	2.215337
2616	2.221941
2600	2.225971
2584	2.238821
2568	2.264332
2552	2.283430
2536	2.303600
2520	2.314901
2504	2.325010
2488	2.325940
2472	2.316212
2456	2.303791
2440	2.282786
2424	2.272319
2408	2.263092
2392	2.248358
2376	2.239060
2360	2.232336
2344	2.263927
2328	2.282214
2312	2.315926
2296	2.342796
2280	2.361559
2264	2.372145
2248	2.379250
2232	2.379274
2216	2.370977
2200	2.358579
2184	2.347755
2168	2.335834
2152	2.333378
2136	2.331948
2120	2.334332
2104	2.338528
2088	2.334928
2072	2.360916
2056	2.392649
2040	2.420711
2024	2.443456
2008	2.451968
1992	2.453541
1976	2.446079
1960	2.429866
1944	2.415418
1928	2.403545
1912	2.383089
1896	2.368688
1880	2.374339
1864	2.381181
1848	2.389430
1832	2.405047
1816	2.421331
1800	2.426028
1784	2.422761
1768	2.403903
1752	2.377295
1736	2.313852
1720	2.295398
1704	2.259635
1688	2.236557
1672	2.214550
1656	2.158761
1640	2.145147
1624	2.097296
1608	1.968502
1592	2.013254
1576	1.973605
1560	1.909947
1544	1.939010
1528	2.095627
1512	2.075219
1496	1.696324
1480	1.954865
1464	1.926875
1448	1.779747
1432	1.865220
1416	1.837086
1400	1.727867
1384	1.781511
1368	1.814484
1352	1.812291
1336	1.824188
1320	1.848721
1304	1.852965
1288	1.851272
1272	1.806592
1256	1.754498
1240	1.833915
1224	1.810097
1208	1.745152
1192	1.737022
1176	1.697039
1160	1.625466
1144	1.593852
1128	1.537179
1112	1.454877
1096	1.424980
1080	1.428771
1064	1.434755
1048	1.303529
1032	1.377272
1016	1.365065
1000	1.395726
984	 1.378726
968	 1.341867
952	 1.287102
936	 1.251578
920	 1.215243
904	 1.162552
888	 1.118326
872	 1.037597
856	 1.090407
840	 1.059746
824	 0.846529
808	 0.949096
792	 0.958395
776	 0.974893
760	 0.961971
744	 0.937724
728	 0.901222
712	 0.855326
696	 0.788331
680	 0.734639
664	 0.704026
648	 0.661253
632	 0.619864
616	 0.574970
600	 0.522089
584	 0.504565
568	 0.489807
552	 0.465774
536	 0.435638
520	 0.402259
504	 0.359916
488	 0.302314
472	 0.248241
456	 0.195860
440	 0.148582
424	 0.099730
408	 0.057554
392	 0.031065
376	 0.012874
370	 0.009918