File: Bakgrunnsmateriale/MATLAB/FTIR/ftir_data/subBb/Mapping_121/C-4040-8_t75.asc
PE IR       SPECTRUM    SPECTRUM    ASCII       PEDS        1.60
  -1
C-B14E~1.ASC
17/03/27
20:39:43.00
17/03/27
20:40:09.00
tln
$C-4040-8_t0075$<tbV0>[-7.8,2.6,8.0,0.0,27,1,0]
27.028
64

2002,4.07
MIRTGS : RIGHTBACK : INTERNAL 2
MIR : ON : INTERNAL 2
OPTKBR

0.200000
8
8.000000
FILLER
RATIO
SPECTRUM
UNLOCKED 256

DOUBLE
64
COMBINED
1
0
0

0.002000
RATIO

1
0
TRUE
51149
0
LEFT NOT FITTED RIGHT NOT FITTED 0
NONE
NONE
15600
12
4.427000
51148
TRUE
1 0 8 72 0 0 0 0

15798

#HDR
-1
-1
#GR
µM
%T
2.38419e-05
0.0
2.000000
0.002000
12515
8
79.4645
29.3774
#DATA
2.000000	 65.2743
2.084000	 64.8053
2.168000	 65.0279
2.252000	 65.097
2.336000	 65.0237
2.420000	 64.6703
2.504000	 64.9311
2.588000	 65.1832
2.672000	 65.2055
2.756000	 65.0339
2.840000	 65.2167
2.924000	 65.0475
3.008000	 65.1222
3.092000	 65.1858
3.176000	 65.1548
3.260000	 65.2172
3.344000	 65.0967
3.428000	 64.6113
3.512000	 64.865
3.596000	 65.2269
3.680000	 65.1671
3.764000	 65.1113
3.848000	 65.1229
3.932000	 65.2344
4.016000	 65.1926
4.100000	 65.3502
4.184000	 65.2316
4.268000	 65.2183
4.352000	 65.3051
4.436000	 65.255
4.520000	 65.1683
4.604000	 65.1522
4.688000	 65.1461
4.772000	 65.2671
4.856000	 65.1073
4.940000	 65.2993
5.024000	 65.0839
5.108000	 65.1586
5.192000	 65.2697
5.276000	 65.211
5.359999	 65.0154
5.444000	 65.2393
5.528000	 65.0901
5.612000	 65.1787
5.696000	 65.3085
5.780000	 65.0695
5.864000	 64.9809
5.948000	 65.1641
6.032000	 65.0987
6.116000	 65.1493
6.200000	 64.9385
6.284000	 65.0193
6.368000	 65.0056
6.452000	 64.8368
6.536000	 65.0155
6.620000	 64.9466
6.704000	 65.0441
6.788000	 65.0338
6.872000	 64.9751
6.956000	 65.0789
7.040000	 65.0196
7.124000	 64.8668
7.208000	 64.964
7.292000	 65.082
7.376000	 65.0715
7.460000	 65.0055
7.544000	 65.0462
7.628000	 64.9427
7.712000	 64.984
7.796000	 65.0105
7.880000	 64.9245
7.964000	 64.9808
8.048000	 64.7887
8.132000	 64.9515
8.216000	 64.821
8.300000	 64.8476
8.384000	 64.7247
8.468000	 64.889
8.552000	 64.7328
8.635999	 64.735
8.719999	 64.5547
8.804000	 64.5895
8.888000	 64.6638
8.972000	 64.7656
9.056000	 64.7275
9.140000	 64.6014
9.224000	 64.5229
9.308000	 64.531
9.391999	 64.5129
9.475999	 64.6922
9.560000	 64.7362
9.644000	 64.6763
9.728000	 64.4169
9.812000	 64.5328
9.896000	 64.5072
9.980000	 64.6929
10.064	64.7248
10.148	64.4399
10.232	64.3534
10.316	64.7251
10.4	64.5155
10.484	64.8392
10.568	65.0073
10.652	64.6123
10.736	64.242
10.82	64.4811
10.904	64.0841
10.988	64.1096
11.072	64.1774
11.156	64.5676
11.24	64.688
11.324	64.5201
11.408	64.4293
11.492	64.5362
11.576	64.5079
11.66	64.2876
11.744	64.3954
11.828	64.4356
11.912	64.5156
11.996	64.596
12.08	64.6388
12.164	64.5148
12.248	64.3224
12.332	64.3423
12.416	64.1755
12.5	64.1843
12.584	63.9991
12.668	64.1225
12.752	64.4807
12.836	64.5818
12.92	64.3281
13.004	64.1381
13.088	64.0645
13.172	63.9995
13.256	63.9922
13.34	63.943
13.424	63.8664
13.508	63.7369
13.592	63.5715
13.676	63.5481
13.76	63.5329
13.844	63.6083
13.928	63.4802
14.012	63.2686
14.096	63.3193
14.18	63.4118
14.264	63.3369
14.348	63.3023
14.432	63.3455
14.516	63.2936
14.6	63.2375
14.684	63.3218
14.768	63.3183
14.852	63.1064
14.936	63
15.02	62.9737
15.104	62.7567
15.188	62.5627
15.272	62.6425
15.356	62.8384
15.44	62.9746
15.524	62.9985
15.608	62.8849
15.692	62.7155
15.776	62.5805
15.86	62.5679
15.944	62.7004
16.028	62.7508
16.112	62.6017
16.196	62.4578
16.28	62.4479
16.364	62.5483
16.448	62.7212
16.532	62.8352
16.616	62.7684
16.7	62.5724
16.784	62.3842
16.868	62.3482
16.952	62.5093
17.036	62.7333
17.12	62.8786
17.204	62.9481
17.288	62.9736
17.372	62.9466
17.456	62.9055
17.54	62.8935
17.624	62.8457
17.708	62.6694
17.792	62.4107
17.876	62.2313
17.96	62.2054
18.044	62.2328
18.128	62.1804
18.212	62.0491
18.296	61.9552
18.38	61.971
18.464	62.0537
18.548	62.1137
18.632	62.1132
18.716	62.0785
18.8	62.0351
18.884	61.9532
18.968	61.7822
19.052	61.5489
19.136	61.3891
19.22	61.4325
19.304	61.6325
19.388	61.781
19.472	61.7157
19.556	61.4765
19.64	61.2311
19.724	61.0869
19.808	61.0059
19.892	60.901
19.976	60.7798
20.06	60.7628
20.144	60.9389
20.228	61.253
20.312	61.5532
20.396	61.7481
20.48	61.8717
20.564	61.9955
20.648	62.1079
20.732	62.1072
20.816	61.9259
20.9	61.6119
20.984	61.2701
21.068	60.9484
21.152	60.6095
21.236	60.2195
21.32	59.8375
21.404	59.6148
21.488	59.683
21.572	60.0322
21.656	60.4927
21.74	60.8248
21.824	60.8477
21.908	60.5299
21.992	59.9803
22.076	59.3691
22.16	58.8344
22.244	58.4481
22.328	58.2361
22.412	58.2251
22.496	58.4526
22.58	58.9161
22.664	59.5307
22.748	60.1169
22.832	60.4906
22.916	60.5605
23	60.4071
23.084	60.2095
23.168	60.1036
23.252	60.0462
23.336	59.8357
23.42	59.261
23.504	58.2589
23.588	57.0117
23.672	55.8447
23.756	55.056
23.84	54.7941
23.924	54.9885
24.008	55.4501
24.092	56.0012
24.176	56.5214
24.26	56.975
24.344	57.3415
24.428	57.5734
24.512	57.5989
24.596	57.401
24.68	57.0567
24.764	56.723
24.848	56.5985
24.932	56.7794
25.016	57.1513
25.1	57.4407
25.184	57.2409
25.268	56.2228
25.352	54.3235
25.436	51.5659
25.52	48.1404
25.604	44.4329
25.688	40.7921
25.772	37.4461
25.856	34.519
25.94	32.1281
26.024	30.4102
26.108	29.5062
26.192	29.4764
26.276	30.3581
26.36	32.1373
26.444	34.8338
26.528	38.4248
26.612	42.8026
26.696	47.592
26.78	52.0907
26.864	55.5203
26.948	57.5556
27.028	58.7693