File: Bakgrunnsmateriale/MATLAB/FTIR/ftir_data/subBb/Mapping_121/C-4040-8_t32_cm-1.asc
PE IR       SPECTRUM    SPECTRUM    ASCII       PEDS        1.60
  -1
C-1B64~1.ASC
17/03/27
17:06:22.00
17/03/27
17:06:22.00
tln
$C-4040-8_t0032$<tbV0>[-10.4,-7.8,8.0,0.0,27,1,0]
370
64

2002,4.07
MIRTGS : RIGHTBACK : INTERNAL 2
MIR : ON : INTERNAL 2
OPTKBR

0.200000
8
8.000000
FILLER
RATIO
SPECTRUM
UNLOCKED 256

DOUBLE
64
COMBINED
1
0
0

1.000000
RATIO

1
0
TRUE
51149
0
LEFT NOT FITTED RIGHT NOT FITTED 0
NONE
NONE
15600
12
4.427000
51148
TRUE
1 0 8 72 0 0 0 0

15798

#HDR
-1
-1
#GR
CM-1
%T
2.38419e-05
0.0
5000
-1.000000
4631
8
91.395
45.2042
#DATA
5000	64.6104
4984	64.1473
4968	64.9996
4952	65.0169
4936	64.8805
4920	64.4951
4904	64.8571
4888	64.4125
4872	64.681
4856	64.5538
4840	64.8419
4824	65.0526
4808	64.4797
4792	64.5056
4776	64.4929
4760	64.8232
4744	64.9823
4728	64.5791
4712	64.5686
4696	64.6609
4680	64.5175
4664	64.6641
4648	64.6019
4632	64.944
4616	64.8227
4600	64.7224
4584	64.5963
4568	64.7288
4552	64.7647
4536	64.2756
4520	64.7777
4504	64.7072
4488	64.5278
4472	64.1596
4456	64.5202
4440	63.9551
4424	64.0944
4408	64.1007
4392	64.7267
4376	64.4993
4360	75.2678
4344	63.7369
4328	64.5231
4312	65.0074
4296	64.4072
4280	64.5617
4264	64.2645
4248	64.2742
4232	64.4935
4216	64.3878
4200	64.5468
4184	63.7217
4168	64.6723
4152	64.4418
4136	64.7836
4120	64.5095
4104	64.5043
4088	64.6718
4072	64.7542
4056	64.3443
4040	64.6347
4024	64.4761
4008	64.4986
3992	64.9527
3976	64.6572
3960	64.8179
3944	64.3849
3928	64.5075
3912	64.272
3896	64.5448
3880	64.8441
3864	64.4687
3848	64.5311
3832	64.4681
3816	64.6193
3800	64.5435
3784	64.4088
3768	64.463
3752	64.5607
3736	64.4646
3720	64.6236
3704	64.4435
3688	64.5213
3672	64.427
3656	64.5348
3640	64.5951
3624	64.5761
3608	64.423
3592	64.3551
3576	64.4162
3560	64.3724
3544	64.3119
3528	64.2878
3512	64.4021
3496	64.4274
3480	64.4076
3464	64.2645
3448	64.4186
3432	64.2983
3416	64.152
3400	64.1386
3384	64.0919
3368	64.1002
3352	64.1796
3336	64.1957
3320	64.3527
3304	64.0744
3288	64.287
3272	64.1451
3256	64.0131
3240	64.2863
3224	64.1289
3208	63.9941
3192	64.0121
3176	64.1623
3160	64.0792
3144	63.8689
3128	64.1125
3112	64.0911
3096	64.0699
3080	63.9088
3064	63.71
3048	63.8386
3032	63.831
3016	63.8312
3000	63.8063
2984	63.8723
2968	63.8285
2952	63.601
2936	63.5184
2920	63.4307
2904	63.4762
2888	63.7133
2872	63.6182
2856	63.4282
2840	63.5547
2824	63.5915
2808	63.5828
2792	63.6334
2776	63.4539
2760	63.55
2744	63.6202
2728	63.3723
2712	63.3205
2696	63.3826
2680	63.4007
2664	63.3395
2648	63.1487
2632	63.1777
2616	63.2015
2600	63.2525
2584	63.1904
2568	63.1286
2552	63.2015
2536	63.1958
2520	63.1103
2504	63.0644
2488	62.8838
2472	62.8538
2456	62.9005
2440	63.009
2424	62.5751
2408	62.8585
2392	62.8368
2376	62.8212
2360	62.8067
2344	62.6252
2328	62.7022
2312	62.7282
2296	62.5942
2280	62.5939
2264	62.4784
2248	62.5252
2232	62.6034
2216	62.3382
2200	62.5631
2184	62.5035
2168	62.4753
2152	62.2121
2136	62.1383
2120	62.3344
2104	62.1245
2088	62.2319
2072	61.9549
2056	62.1063
2040	62.0309
2024	62.0313
2008	61.9925
1992	62.0311
1976	61.9251
1960	61.9116
1944	61.8842
1928	61.8811
1912	61.8148
1896	61.645
1880	61.7172
1864	61.6628
1848	61.5777
1832	61.5959
1816	61.4974
1800	61.4272
1784	61.4285
1768	61.3439
1752	61.3914
1736	61.1936
1720	60.9985
1704	61.2649
1688	61.1986
1672	61.0861
1656	61.1069
1640	61.1547
1624	60.9934
1608	60.9783
1592	61.0565
1576	60.8425
1560	60.6678
1544	60.5717
1528	60.7446
1512	60.571
1496	60.5381
1480	60.6063
1464	60.5262
1448	60.5891
1432	60.5023
1416	60.29
1400	60.3052
1384	60.2421
1368	60.1276
1352	60.3194
1336	60.1595
1320	60.0529
1304	60.075
1288	59.8433
1272	59.8612
1256	59.9267
1240	59.7538
1224	59.6662
1208	59.6381
1192	59.716
1176	59.6051
1160	59.4574
1144	59.702
1128	59.5026
1112	59.0113
1096	59.7556
1080	59.1015
1064	58.9179
1048	59.2669
1032	59.1957
1016	59.042
1000	58.5601
984	 59.1336
968	 58.5174
952	 58.7293
936	 58.3181
920	 58.5487
904	 58.4368
888	 58.3163
872	 58.5025
856	 58.0836
840	 58.008
824	 57.911
808	 57.7476
792	 57.8399
776	 57.5794
760	 57.0961
744	 57.1347
728	 56.8011
712	 56.9157
696	 56.6838
680	 56.3054
664	 56.3457
648	 55.8415
632	 56.1942
616	 55.494
600	 55.8496
584	 55.384
568	 55.484
552	 54.6198
536	 54.5532
520	 54.3597
504	 54.1516
488	 53.5473
472	 53.0419
456	 51.9245
440	 52.1499
424	 49.4907
408	 48.8502
392	 77.0032
376	 61.5694
370	 45.2042