File: Bakgrunnsmateriale/MATLAB/FTIR/ftir_data/subBb/Mapping_121/C-4040-8_t87_cm-1.asc
PE IR       SPECTRUM    SPECTRUM    ASCII       PEDS        1.60
  -1
C-9DEF~1.ASC
17/03/27
21:35:42.00
17/03/27
21:35:42.00
tln
$C-4040-8_t0087$<tbV0>[-10.4,5.2,8.0,0.0,27,1,0]
370
64

2002,4.07
MIRTGS : RIGHTBACK : INTERNAL 2
MIR : ON : INTERNAL 2
OPTKBR

0.200000
8
8.000000
FILLER
RATIO
SPECTRUM
UNLOCKED 256

DOUBLE
64
COMBINED
1
0
0

1.000000
RATIO

1
0
TRUE
51149
0
LEFT NOT FITTED RIGHT NOT FITTED 0
NONE
NONE
15600
12
4.427000
51148
TRUE
1 0 8 72 0 0 0 0

15798

#HDR
-1
-1
#GR
CM-1
%T
2.38419e-05
0.0
5000
-1.000000
4631
8
92.1895
32.3265
#DATA
5000	65.4676
4984	64.4895
4968	65.2988
4952	65.2534
4936	64.6991
4920	64.889
4904	65.287
4888	64.5839
4872	64.6949
4856	64.9949
4840	64.6264
4824	65.4322
4808	65.4862
4792	65.1205
4776	65.2644
4760	65.3278
4744	65.6162
4728	65.3054
4712	65.494
4696	65.1187
4680	65.352
4664	65.6251
4648	65.1593
4632	65.1124
4616	65.069
4600	64.8204
4584	64.8171
4568	64.2477
4552	65.1065
4536	65.0453
4520	63.8863
4504	64.6592
4488	64.1612
4472	63.9549
4456	63.8492
4440	63.8218
4424	63.561
4408	62.9822
4392	62.8425
4376	71.6063
4360	63.9239
4344	64.3286
4328	64.5606
4312	64.7511
4296	64.6677
4280	64.5997
4264	64.8307
4248	64.6181
4232	64.2729
4216	64.7305
4200	64.7558
4184	65.0561
4168	64.9126
4152	65.2722
4136	65.3834
4120	65.1035
4104	64.8154
4088	65.2241
4072	64.9277
4056	65.0146
4040	65.2901
4024	65.1969
4008	65.3723
3992	65.2463
3976	65.4641
3960	65.2664
3944	64.9875
3928	65.2585
3912	65.0256
3896	65.0309
3880	64.9317
3864	65.2583
3848	65.1475
3832	65.2143
3816	65.1231
3800	64.9485
3784	65.0693
3768	65.1412
3752	65.3116
3736	65.1334
3720	65.3536
3704	65.1437
3688	65.1968
3672	65.3829
3656	65.3052
3640	65.3473
3624	65.4792
3608	65.076
3592	65.1716
3576	65.3594
3560	65.3695
3544	65.1839
3528	65.3437
3512	65.1656
3496	65.0422
3480	65.3367
3464	65.1585
3448	65.3364
3432	65.2005
3416	65.2631
3400	64.8948
3384	65.5456
3368	65.0131
3352	65.3257
3336	65.1456
3320	65.0301
3304	65.3393
3288	65.0665
3272	65.3638
3256	65.15
3240	65.0993
3224	65.1847
3208	65.1351
3192	65.3209
3176	64.9216
3160	64.9361
3144	65.3625
3128	65.0074
3112	64.8562
3096	65.112
3080	65.0486
3064	65.1365
3048	65.0941
3032	65.1974
3016	65.1989
3000	65.0787
2984	65.1678
2968	64.9649
2952	64.9327
2936	64.958
2920	64.5123
2904	65.0061
2888	65.1478
2872	65.0458
2856	64.9828
2840	65.1417
2824	65.1884
2808	65.1546
2792	65.2045
2776	65.3111
2760	65.132
2744	65.1981
2728	65.2845
2712	65.3414
2696	65.2637
2680	65.2204
2664	65.2262
2648	65.1798
2632	65.2434
2616	65.2252
2600	65.1781
2584	65.2136
2568	65.1455
2552	65.2743
2536	65.222
2520	65.3862
2504	65.0938
2488	65.2021
2472	65.2048
2456	65.1927
2440	65.134
2424	64.9616
2408	65.3855
2392	65.2885
2376	65.4117
2360	65.182
2344	65.2786
2328	65.3884
2312	65.2039
2296	65.192
2280	65.252
2264	65.1919
2248	65.211
2232	65.2216
2216	65.1524
2200	65.2527
2184	65.2594
2168	65.1489
2152	65.1474
2136	64.9679
2120	65.1692
2104	65.2501
2088	65.3167
2072	65.3428
2056	64.8933
2040	65.2723
2024	65.0951
2008	65.2602
1992	65.3147
1976	65.1646
1960	65.199
1944	65.3383
1928	65.3243
1912	65.2589
1896	65.2998
1880	65.2545
1864	65.3517
1848	65.1951
1832	65.2609
1816	65.2935
1800	65.2519
1784	65.3121
1768	65.1779
1752	65.3356
1736	65.0302
1720	64.9193
1704	64.9764
1688	65.381
1672	65.2871
1656	65.3033
1640	65.1476
1624	65.2302
1608	65.1398
1592	64.9945
1576	64.9442
1560	64.9068
1544	65.0812
1528	65.0542
1512	65.0169
1496	64.9934
1480	64.9967
1464	64.953
1448	64.5041
1432	64.9067
1416	65.1009
1400	65.0851
1384	64.9956
1368	64.8808
1352	64.982
1336	65.0684
1320	64.9064
1304	64.9656
1288	64.8771
1272	64.9059
1256	64.9726
1240	64.8575
1224	64.7996
1208	65.0291
1192	64.6448
1176	64.8201
1160	64.5545
1144	64.6965
1128	64.6371
1112	65.0314
1096	64.8221
1080	64.6807
1064	64.6774
1048	64.8915
1032	64.5731
1016	65.0823
1000	64.8839
984	 64.4253
968	 64.4747
952	 64.9367
936	 64.5284
920	 64.8894
904	 64.1359
888	 64.5532
872	 64.2038
856	 63.9786
840	 64.2058
824	 64.2467
808	 63.9508
792	 63.7044
776	 64.1157
760	 64.1509
744	 62.8893
728	 63.9422
712	 63.5352
696	 63.9281
680	 63.2037
664	 63.4414
648	 63.026
632	 63.2075
616	 62.5496
600	 63.0213
584	 62.7287
568	 61.9775
552	 61.7187
536	 61.9833
520	 61.5259
504	 60.9336
488	 59.6249
472	 61.679
456	 59.057
440	 59.304
424	 61.0807
408	 50.7226
392	 48.6353
376	 55.3223
370	 44.6348