File: Bakgrunnsmateriale/MATLAB/FTIR/ftir_data/subBb/Mapping_121/C-4040-8_t119.asc
PE IR       SPECTRUM    SPECTRUM    ASCII       PEDS        1.60
  -1
C-80E8~1.ASC
17/03/28
00:31:10.00
17/03/28
00:31:36.00
tln
$C-4040-8_t0119$<tbV0>[-7.8,13.0,8.0,0.0,27,1,0]
27.028
64

2002,4.07
MIRTGS : RIGHTBACK : INTERNAL 2
MIR : ON : INTERNAL 2
OPTKBR

0.200000
8
8.000000
FILLER
RATIO
SPECTRUM
UNLOCKED 256

DOUBLE
64
COMBINED
1
0
0

0.002000
RATIO

1
0
TRUE
51149
0
LEFT NOT FITTED RIGHT NOT FITTED 0
NONE
NONE
15600
12
4.427000
51148
TRUE
1 0 8 72 0 0 0 0

15798

#HDR
-1
-1
#GR
µM
%T
2.38419e-05
0.0
2.000000
0.002000
12515
8
72.9892
26.0724
#DATA
2.000000	 64.6321
2.084000	 64.8856
2.168000	 64.2991
2.252000	 65.1541
2.336000	 65.5362
2.420000	 64.9573
2.504000	 64.9661
2.588000	 64.8689
2.672000	 65.1977
2.756000	 65.1893
2.840000	 65.0989
2.924000	 64.988
3.008000	 64.8672
3.092000	 65.029
3.176000	 64.9172
3.260000	 65.0469
3.344000	 65.2692
3.428000	 64.7178
3.512000	 64.8479
3.596000	 65.1651
3.680000	 65.0255
3.764000	 65.0273
3.848000	 65.1151
3.932000	 65.2215
4.016000	 65.1883
4.100000	 65.0851
4.184000	 65.1164
4.268000	 65.1485
4.352000	 65.1702
4.436000	 65.0854
4.520000	 65.1439
4.604000	 65.0683
4.688000	 64.9868
4.772000	 65.1134
4.856000	 65.3379
4.940000	 65.1933
5.024000	 65.0366
5.108000	 65.1305
5.192000	 65.0167
5.276000	 65.099
5.359999	 64.8298
5.444000	 64.9103
5.528000	 64.763
5.612000	 64.9397
5.696000	 64.9315
5.780000	 64.5627
5.864000	 64.9454
5.948000	 64.9195
6.032000	 64.9116
6.116000	 64.9913
6.200000	 64.8685
6.284000	 64.859
6.368000	 64.8563
6.452000	 64.8006
6.536000	 64.8972
6.620000	 64.9071
6.704000	 65.0069
6.788000	 65.0151
6.872000	 64.7332
6.956000	 64.7742
7.040000	 64.8408
7.124000	 64.6998
7.208000	 64.876
7.292000	 64.6409
7.376000	 64.8183
7.460000	 64.7192
7.544000	 64.8947
7.628000	 64.7458
7.712000	 64.7323
7.796000	 64.6721
7.880000	 64.5579
7.964000	 64.8428
8.048000	 64.6232
8.132000	 64.6094
8.216000	 64.5811
8.300000	 64.7176
8.384000	 64.5378
8.468000	 64.7614
8.552000	 64.5729
8.635999	 64.4719
8.719999	 64.5959
8.804000	 64.6531
8.888000	 64.4766
8.972000	 64.5768
9.056000	 64.8102
9.140000	 64.3107
9.224000	 64.4318
9.308000	 64.4206
9.391999	 64.3566
9.475999	 64.2643
9.560000	 64.4912
9.644000	 64.5083
9.728000	 64.3132
9.812000	 64.2342
9.896000	 64.3168
9.980000	 64.2101
10.064	64.3984
10.148	64.5295
10.232	64.1876
10.316	64.2769
10.4	64.2286
10.484	64.3372
10.568	64.3036
10.652	63.9714
10.736	64.2261
10.82	64.2106
10.904	64.2177
10.988	64.432
11.072	64.3764
11.156	64.0192
11.24	63.9341
11.324	63.7705
11.408	63.8919
11.492	63.4251
11.576	63.5228
11.66	63.5669
11.744	63.6244
11.828	63.6194
11.912	63.746
11.996	63.5991
12.08	63.1107
12.164	64.2367
12.248	64.6796
12.332	63.8306
12.416	63.1997
12.5	63.314
12.584	63.4302
12.668	63.4157
12.752	63.4694
12.836	63.4931
12.92	63.4571
13.004	63.5888
13.088	63.2778
13.172	63.0436
13.256	63.2035
13.34	63.5028
13.424	63.8683
13.508	63.8352
13.592	63.5985
13.676	63.2411
13.76	62.9646
13.844	63.039
13.928	62.9708
14.012	62.6172
14.096	62.4711
14.18	62.5563
14.264	62.6132
14.348	62.6594
14.432	62.7684
14.516	62.8674
14.6	62.6105
14.684	62.2212
14.768	62.2156
14.852	62.4327
14.936	62.6623
15.02	62.8152
15.104	62.6058
15.188	62.114
15.272	61.8145
15.356	61.8365
15.44	61.9172
15.524	61.9192
15.608	61.8971
15.692	61.8279
15.776	61.6643
15.86	61.5143
15.944	61.5581
16.028	61.7516
16.112	61.8588
16.196	61.7957
16.28	61.6543
16.364	61.544
16.448	61.5834
16.532	61.716
16.616	61.7023
16.7	61.5141
16.784	61.352
16.868	61.2729
16.952	61.2098
17.036	61.1588
17.12	61.1071
17.204	61.0135
17.288	60.8966
17.372	60.8139
17.456	60.7763
17.54	60.7557
17.624	60.7373
17.708	60.7295
17.792	60.7437
17.876	60.7709
17.96	60.7952
18.044	60.7864
18.128	60.6839
18.212	60.5097
18.296	60.4337
18.38	60.5895
18.464	60.8623
18.548	60.9947
18.632	60.8806
18.716	60.6447
18.8	60.4597
18.884	60.3859
18.968	60.4005
19.052	60.4418
19.136	60.3976
19.22	60.1517
19.304	59.7264
19.388	59.3125
19.472	59.086
19.556	59.0464
19.64	59.068
19.724	59.0891
19.808	59.1576
19.892	59.3076
19.976	59.4495
20.06	59.4475
20.144	59.2907
20.228	59.1389
20.312	59.1808
20.396	59.4697
20.48	59.8912
20.564	60.2661
20.648	60.4634
20.732	60.4368
20.816	60.2071
20.9	59.8389
20.984	59.4357
21.068	59.1059
21.152	58.9103
21.236	58.8476
21.32	58.8995
21.404	59.0722
21.488	59.378
21.572	59.7708
21.656	60.1256
21.74	60.287
21.824	60.1571
21.908	59.7526
21.992	59.1722
22.076	58.5326
22.16	57.9331
22.244	57.4566
22.328	57.1821
22.412	57.1586
22.496	57.3698
22.58	57.7212
22.664	58.0859
22.748	58.356
22.832	58.4704
22.916	58.4129
23	58.1974
23.084	57.8599
23.168	57.4482
23.252	57.0344
23.336	56.7444
23.42	56.697
23.504	56.923
23.588	57.3729
23.672	57.9408
23.756	58.4608
23.84	58.8482
23.924	59.1252
24.008	59.4403
24.092	60.0124
24.176	60.9584
24.26	62.1428
24.344	63.2173
24.428	63.8668
24.512	64.0039
24.596	63.9269
24.68	64.231
24.764	65.4848
24.848	67.8305
24.932	70.6495
25.016	72.6828
25.1	72.5771
25.184	69.4278
25.268	63.3296
25.352	55.3075
25.436	46.8489
25.52	39.2647
25.604	33.287
25.688	29.1416
25.772	26.7593
25.856	26.0817
25.94	27.149
26.024	29.9552
26.108	34.2053
26.192	39.2634
26.276	44.2615
26.36	48.2383
26.444	50.4818
26.528	50.7458
26.612	49.3513
26.696	46.9845
26.78	44.434
26.864	42.3678
26.948	41.1481
27.028	40.7348