File: Bakgrunnsmateriale/MATLAB/FTIR/ftir_data/subBb/Mapping_121/C-4040-8_t41.asc
PE IR       SPECTRUM    SPECTRUM    ASCII       PEDS        1.60
  -1
C-A53E~1.ASC
17/03/27
17:48:30.00
17/03/27
17:48:56.00
tln
$C-4040-8_t0041$<tbV0>[-5.2,-5.2,8.0,0.0,27,1,0]
27.028
64

2002,4.07
MIRTGS : RIGHTBACK : INTERNAL 2
MIR : ON : INTERNAL 2
OPTKBR

0.200000
8
8.000000
FILLER
RATIO
SPECTRUM
UNLOCKED 256

DOUBLE
64
COMBINED
1
0
0

0.002000
RATIO

1
0
TRUE
51149
0
LEFT NOT FITTED RIGHT NOT FITTED 0
NONE
NONE
15600
12
4.427000
51148
TRUE
1 0 8 72 0 0 0 0

15798

#HDR
-1
-1
#GR
µM
%T
2.38419e-05
0.0
2.000000
0.002000
12515
8
78.0812
16.2821
#DATA
2.000000	 63.6328
2.084000	 63.3825
2.168000	 63.6782
2.252000	 62.7813
2.336000	 62.2624
2.420000	 62.7865
2.504000	 62.7082
2.588000	 61.9371
2.672000	 61.7497
2.756000	 61.4179
2.840000	 61.0624
2.924000	 60.3774
3.008000	 59.93
3.092000	 59.469
3.176000	 58.8123
3.260000	 58.4701
3.344000	 57.7918
3.428000	 57.1179
3.512000	 56.6432
3.596000	 56.3128
3.680000	 55.8667
3.764000	 55.3022
3.848000	 54.7503
3.932000	 54.3084
4.016000	 53.7323
4.100000	 53.2003
4.184000	 52.8038
4.268000	 52.3448
4.352000	 51.7824
4.436000	 51.4251
4.520000	 50.8978
4.604000	 50.5575
4.688000	 50.106
4.772000	 49.6388
4.856000	 49.4459
4.940000	 48.9338
5.024000	 48.6454
5.108000	 48.2165
5.192000	 47.8613
5.276000	 47.3478
5.359999	 47.0378
5.444000	 46.7206
5.528000	 46.4764
5.612000	 46.1696
5.696000	 45.8003
5.780000	 45.3513
5.864000	 45.3595
5.948000	 44.9658
6.032000	 44.5472
6.116000	 44.3029
6.200000	 44.172
6.284000	 43.8714
6.368000	 43.4775
6.452000	 43.4712
6.536000	 43.0937
6.620000	 42.9199
6.704000	 42.7127
6.788000	 42.54
6.872000	 42.2016
6.956000	 42.0087
7.040000	 41.8767
7.124000	 41.6734
7.208000	 41.4013
7.292000	 41.176
7.376000	 41.0644
7.460000	 40.8478
7.544000	 40.6266
7.628000	 40.4836
7.712000	 40.3651
7.796000	 40.1216
7.880000	 39.9546
7.964000	 39.8177
8.048000	 39.628
8.132000	 39.4985
8.216000	 39.3362
8.300000	 39.1277
8.384000	 39.1353
8.468000	 38.8513
8.552000	 38.8515
8.635999	 38.6977
8.719999	 38.4929
8.804000	 38.7477
8.888000	 37.8398
8.972000	 37.9389
9.056000	 37.943
9.140000	 38.062
9.224000	 37.793
9.308000	 37.4994
9.391999	 37.2878
9.475999	 37.182
9.560000	 37.3014
9.644000	 37.2583
9.728000	 36.9946
9.812000	 37.1172
9.896000	 36.6823
9.980000	 36.3015
10.064	36.3443
10.148	36.4758
10.232	36.2579
10.316	35.9836
10.4	35.8537
10.484	35.8384
10.568	35.7186
10.652	35.5643
10.736	35.5749
10.82	35.3901
10.904	35.4976
10.988	35.2883
11.072	35.051
11.156	34.9614
11.24	35.1612
11.324	34.773
11.408	34.6651
11.492	34.4769
11.576	34.4268
11.66	34.4075
11.744	34.1629
11.828	34.1177
11.912	34.0377
11.996	34.0919
12.08	33.8477
12.164	33.8235
12.248	33.6703
12.332	33.5032
12.416	33.3916
12.5	33.3892
12.584	33.3496
12.668	33.2468
12.752	33.135
12.836	33.02
12.92	32.6821
13.004	32.3834
13.088	32.3953
13.172	32.6436
13.256	32.5182
13.34	32.1328
13.424	32.0179
13.508	32.006
13.592	31.983
13.676	31.7042
13.76	31.472
13.844	31.399
13.928	31.3251
14.012	31.3338
14.096	31.4887
14.18	31.5454
14.264	31.2541
14.348	30.8897
14.432	30.7928
14.516	30.7861
14.6	30.6847
14.684	30.4895
14.768	30.3435
14.852	30.299
14.936	30.1627
15.02	29.9395
15.104	29.8298
15.188	29.7913
15.272	29.6728
15.356	29.5952
15.44	29.6994
15.524	29.7007
15.608	29.3632
15.692	29.0229
15.776	28.956
15.86	29.0083
15.944	29.0544
16.028	29.0754
16.112	28.9515
16.196	28.6459
16.28	28.3659
16.364	28.3179
16.448	28.4625
16.532	28.6229
16.616	28.6669
16.7	28.531
16.784	28.2503
16.868	27.994
16.952	27.8854
17.036	27.8463
17.12	27.7384
17.204	27.5572
17.288	27.4288
17.372	27.458
17.456	27.579
17.54	27.5726
17.624	27.3046
17.708	26.9196
17.792	26.6899
17.876	26.7021
17.96	26.7937
18.044	26.7847
18.128	26.6638
18.212	26.5482
18.296	26.5253
18.38	26.5447
18.464	26.4902
18.548	26.3306
18.632	26.1577
18.716	26.0513
18.8	25.9677
18.884	25.8122
18.968	25.606
19.052	25.4938
19.136	25.5564
19.22	25.6788
19.304	25.6573
19.388	25.4175
19.472	25.0722
19.556	24.7855
19.64	24.6218
19.724	24.5455
19.808	24.5121
19.892	24.5169
19.976	24.5613
20.06	24.6167
20.144	24.6309
20.228	24.5726
20.312	24.4593
20.396	24.344
20.48	24.2717
20.564	24.2445
20.648	24.2218
20.732	24.151
20.816	23.9996
20.9	23.7695
20.984	23.488
21.068	23.1967
21.152	22.9439
21.236	22.7755
21.32	22.7189
21.404	22.76
21.488	22.8503
21.572	22.9327
21.656	22.9759
21.74	22.9802
21.824	22.9627
21.908	22.9254
21.992	22.8397
22.076	22.6736
22.16	22.4312
22.244	22.173
22.328	21.9869
22.412	21.9303
22.496	21.9787
22.58	22.0388
22.664	22.0087
22.748	21.8433
22.832	21.5766
22.916	21.279
23	20.9801
23.084	20.6338
23.168	20.1663
23.252	19.5732
23.336	18.9591
23.42	18.4971
23.504	18.3546
23.588	18.5832
23.672	19.0849
23.756	19.6433
23.84	20.0114
23.924	20.0263
24.008	19.6734
24.092	19.0862
24.176	18.4965
24.26	18.1161
24.344	18.0441
24.428	18.2059
24.512	18.3673
24.596	18.3084
24.68	17.9236
24.764	17.2764
24.848	16.6085
24.932	16.2827
25.016	16.6089
25.1	17.7348
25.184	19.4899
25.268	21.4722
25.352	23.3078
25.436	24.7712
25.52	25.9549
25.604	27.2118
25.688	28.748
25.772	30.4408
25.856	31.9113
25.94	32.757
26.024	32.7789
26.108	32.1509
26.192	31.5033
26.276	31.6763
26.36	33.4437
26.444	36.9845
26.528	41.7976
26.612	46.8167
26.696	51.0472
26.78	54.027
26.864	56.2485
26.948	58.8142
27.028	62.3085