File: Bakgrunnsmateriale/MATLAB/FTIR/ftir_data/subBb/Mapping_121/C-4040-8_t01_cm-1.asc
PE IR       SPECTRUM    SPECTRUM    ASCII       PEDS        1.60
  -1
C-4040~3.ASC
17/03/27
14:35:34.00
17/03/27
14:35:34.00
tln
$C-4040-8_t0001$<tbV0>[13.0,-13.0,8.0,0.0,27,1,0]
370
64

2002,4.07
MIRTGS : RIGHTBACK : INTERNAL 2
MIR : ON : INTERNAL 2
OPTKBR

0.200000
8
8.000000
FILLER
RATIO
SPECTRUM
UNLOCKED 256

DOUBLE
64
COMBINED
1
0
0

1.000000
RATIO

1
0
TRUE
51149
0
LEFT NOT FITTED RIGHT NOT FITTED 0
NONE
NONE
15600
12
4.427000
51148
TRUE
1 0 8 72 0 0 0 0

15798

#HDR
-1
-1
#GR
CM-1
%T
2.38419e-05
0.0
5000
-1.000000
4631
8
70.6951
36.7219
#DATA
5000	62.916
4984	63.8592
4968	64.6149
4952	64.747
4936	64.122
4920	64.2497
4904	65.6576
4888	64.903
4872	64.9676
4856	65.0818
4840	64.7939
4824	64.7155
4808	64.2619
4792	64.6799
4776	64.8823
4760	64.4179
4744	64.5215
4728	64.2876
4712	64.4208
4696	64.5286
4680	64.6981
4664	64.8819
4648	65.0217
4632	65.2405
4616	65.4334
4600	65.1361
4584	65.2534
4568	65.3599
4552	65.2321
4536	64.7036
4520	65.2487
4504	65.837
4488	65.2956
4472	65.2868
4456	67.441
4440	44.1009
4424	61.3692
4408	66.5072
4392	67.0838
4376	66.317
4360	66.2299
4344	65.5901
4328	65.2713
4312	64.9269
4296	65.4052
4280	65.2881
4264	64.7177
4248	64.8637
4232	64.9523
4216	64.8807
4200	64.9751
4184	64.4292
4168	64.8417
4152	64.8187
4136	64.5765
4120	64.7792
4104	64.7823
4088	64.8257
4072	64.9931
4056	65.0383
4040	65.0193
4024	65.1306
4008	65.204
3992	65.1536
3976	64.9385
3960	65.0922
3944	65.1294
3928	65.2551
3912	65.6173
3896	65.0811
3880	64.8017
3864	65.3861
3848	65.1683
3832	64.9697
3816	64.9606
3800	65.3417
3784	64.8905
3768	65.2261
3752	65.4357
3736	65.2323
3720	65.3053
3704	65.1901
3688	65.2234
3672	65.1912
3656	65.0377
3640	64.8767
3624	64.9039
3608	64.9824
3592	65.0537
3576	65.2475
3560	65.2626
3544	64.9423
3528	65.1352
3512	64.8578
3496	65.0381
3480	65.0229
3464	65.1573
3448	65.2331
3432	64.9812
3416	64.9456
3400	65.0158
3384	65.0888
3368	64.9759
3352	65.0076
3336	65.0808
3320	64.9953
3304	65.112
3288	65.0407
3272	65.1202
3256	64.9774
3240	64.9846
3224	65.0053
3208	65.1858
3192	64.7884
3176	64.9589
3160	65.0078
3144	64.9004
3128	64.8562
3112	65.3249
3096	65.1266
3080	65.1082
3064	65.211
3048	65.1144
3032	65.1337
3016	65.1356
3000	65.1249
2984	65.0255
2968	64.9608
2952	64.9357
2936	65.087
2920	64.944
2904	64.7947
2888	64.9953
2872	64.9425
2856	64.9453
2840	65.2171
2824	65.0257
2808	65.0903
2792	64.9919
2776	65.053
2760	65.236
2744	65.1634
2728	65.1459
2712	65.113
2696	65.3134
2680	65.1452
2664	65.1967
2648	65.1662
2632	65.3034
2616	65.2448
2600	65.1446
2584	65.1917
2568	65.1837
2552	65.2051
2536	65.2592
2520	65.2508
2504	65.0533
2488	65.1254
2472	65.1179
2456	65.1389
2440	65.1852
2424	65.1181
2408	64.919
2392	65.217
2376	65.2774
2360	65.3457
2344	65.0364
2328	65.254
2312	65.2655
2296	65.1742
2280	65.2833
2264	65.3271
2248	65.327
2232	65.0309
2216	65.3089
2200	65.3024
2184	65.2277
2168	65.2206
2152	65.2279
2136	65.3543
2120	65.3603
2104	65.1306
2088	65.3429
2072	64.8728
2056	65.0903
2040	65.245
2024	65.2709
2008	65.2252
1992	65.1866
1976	65.2517
1960	65.2776
1944	65.3716
1928	65.1669
1912	65.2963
1896	65.2591
1880	65.2873
1864	65.1525
1848	65.2333
1832	65.2036
1816	65.3092
1800	65.3768
1784	65.3654
1768	65.2547
1752	65.2918
1736	65.1743
1720	65.3625
1704	65.3141
1688	65.2881
1672	65.3153
1656	65.4637
1640	65.2788
1624	65.1299
1608	65.1838
1592	65.0621
1576	65.3136
1560	65.367
1544	65.2671
1528	65.1675
1512	65.1965
1496	65.2389
1480	65.089
1464	65.0604
1448	65.2093
1432	65.259
1416	65.2086
1400	65.0213
1384	65.1422
1368	64.9851
1352	65.09
1336	64.9438
1320	65.0877
1304	64.9373
1288	65.0286
1272	64.8532
1256	64.9388
1240	64.969
1224	65.1444
1208	65.0105
1192	64.9495
1176	64.9391
1160	64.9797
1144	64.9336
1128	64.7254
1112	64.7673
1096	64.6175
1080	64.7035
1064	64.7459
1048	64.8038
1032	64.6028
1016	64.6532
1000	64.839
984	 64.8104
968	 64.4814
952	 64.4844
936	 64.5911
920	 64.4868
904	 64.342
888	 64.4201
872	 64.4453
856	 64.5776
840	 64.1967
824	 64.0361
808	 63.9851
792	 64.0733
776	 64.1067
760	 63.9565
744	 63.8048
728	 63.5776
712	 63.4258
696	 63.2658
680	 62.6734
664	 63.0633
648	 63.3878
632	 63.0179
616	 62.5461
600	 62.5772
584	 61.9351
568	 62.3873
552	 62.2046
536	 61.4872
520	 60.2618
504	 59.6248
488	 60.955
472	 60.1296
456	 58.02
440	 57.6092
424	 59.9379
408	 55.9408
392	 37.3591
376	 52.4592
370	 50.7752