File: Bakgrunnsmateriale/MATLAB/FTIR/ftir_data/subBb/Mapping_121/C-4040-8_t59_cm-1.asc
PE IR       SPECTRUM    SPECTRUM    ASCII       PEDS        1.60
  -1
C-1CE0~1.ASC
17/03/27
19:19:09.00
17/03/27
19:19:09.00
tln
$C-4040-8_t0059$<tbV0>[5.2,0.0,8.0,0.0,27,1,0]
370
64

2002,4.07
MIRTGS : RIGHTBACK : INTERNAL 2
MIR : ON : INTERNAL 2
OPTKBR

0.200000
8
8.000000
FILLER
RATIO
SPECTRUM
UNLOCKED 256

DOUBLE
64
COMBINED
1
0
0

1.000000
RATIO

1
0
TRUE
51149
0
LEFT NOT FITTED RIGHT NOT FITTED 0
NONE
NONE
15600
12
4.427000
51148
TRUE
1 0 8 72 0 0 0 0

15798

#HDR
-1
-1
#GR
CM-1
%T
2.38419e-05
0.0
5000
-1.000000
4631
8
116.406
33.6645
#DATA
5000	64.9382
4984	65.2464
4968	64.6284
4952	65.6675
4936	65.3588
4920	65.1345
4904	65.8102
4888	65.1949
4872	65.0378
4856	65.1832
4840	64.6328
4824	64.5886
4808	65.0841
4792	64.8048
4776	64.807
4760	64.8058
4744	64.145
4728	64.7004
4712	64.913
4696	64.3931
4680	64.4374
4664	64.5576
4648	64.1732
4632	64.672
4616	64.2054
4600	64.6827
4584	65.1467
4568	65.0021
4552	65.1244
4536	64.6226
4520	65.0849
4504	65.4736
4488	65.7104
4472	65.9239
4456	66.0707
4440	66.1429
4424	66.2729
4408	67.0865
4392	66.2043
4376	66.4767
4360	38.8573
4344	63.1167
4328	66.6612
4312	66.398
4296	66.2378
4280	66.7228
4264	65.8482
4248	65.6749
4232	65.8303
4216	65.8165
4200	65.5008
4184	64.5854
4168	65.5401
4152	65.0083
4136	65.2888
4120	64.887
4104	64.9638
4088	64.7151
4072	64.7331
4056	65.0882
4040	64.9529
4024	64.9412
4008	64.832
3992	64.8016
3976	64.9383
3960	64.9931
3944	65.1553
3928	64.9318
3912	65.094
3896	65.0348
3880	65.2
3864	65.3234
3848	65.3061
3832	65.3022
3816	65.4069
3800	65.2337
3784	65.3316
3768	65.1397
3752	65.2105
3736	65.0405
3720	65.0756
3704	65.007
3688	65.1857
3672	65.0405
3656	65.2646
3640	65.0946
3624	65.2121
3608	64.9683
3592	64.9338
3576	65.4745
3560	65.1701
3544	64.9429
3528	65.1212
3512	65.0378
3496	64.8658
3480	65.3269
3464	65.5548
3448	65.2469
3432	65.2887
3416	65.1788
3400	65.2589
3384	65.3564
3368	65.2844
3352	65.2549
3336	65.3686
3320	65.3615
3304	65.2187
3288	65.1492
3272	64.9904
3256	65.3801
3240	64.9303
3224	64.9304
3208	64.9544
3192	64.9741
3176	65.3432
3160	65.0512
3144	65.0577
3128	65.0854
3112	64.84
3096	65.2678
3080	65.1772
3064	65.2604
3048	65.4171
3032	65.2471
3016	65.1459
3000	65.255
2984	65.187
2968	65.2987
2952	65.3016
2936	65.2135
2920	64.9668
2904	65.1936
2888	65.1389
2872	65.2594
2856	65.3411
2840	65.3905
2824	65.1467
2808	65.2113
2792	65.4078
2776	65.2494
2760	65.3236
2744	65.2251
2728	65.1819
2712	65.1608
2696	65.113
2680	65.2194
2664	65.3649
2648	65.2427
2632	65.3048
2616	65.3897
2600	65.33
2584	65.4024
2568	65.1592
2552	65.545
2536	65.2718
2520	65.2654
2504	65.3339
2488	65.2704
2472	65.3163
2456	65.2846
2440	65.3865
2424	65.484
2408	65.1612
2392	65.351
2376	65.3193
2360	65.4462
2344	65.3364
2328	65.376
2312	65.2096
2296	65.4192
2280	65.336
2264	65.2638
2248	65.4603
2232	65.3471
2216	65.2717
2200	65.3219
2184	65.3221
2168	65.2883
2152	65.408
2136	65.5146
2120	65.3498
2104	65.3392
2088	65.2749
2072	65.2217
2056	65.2708
2040	65.3002
2024	65.3129
2008	65.3859
1992	65.2734
1976	65.3413
1960	65.2613
1944	65.3368
1928	65.3679
1912	65.3053
1896	65.3809
1880	65.4212
1864	65.292
1848	65.2873
1832	65.4155
1816	65.3632
1800	65.3067
1784	65.1061
1768	65.3508
1752	65.2675
1736	65.0394
1720	64.9967
1704	65.1012
1688	65.1397
1672	65.3154
1656	65.1801
1640	65.3445
1624	65.1053
1608	65.1659
1592	65.0294
1576	65.0818
1560	64.9112
1544	65.0167
1528	65.0245
1512	65.1522
1496	65.3224
1480	65.1451
1464	65.2879
1448	64.9768
1432	65.1221
1416	65.0563
1400	64.9251
1384	65.0336
1368	65.0898
1352	65.0125
1336	65.1227
1320	64.9749
1304	64.9631
1288	65.0096
1272	64.8978
1256	64.9237
1240	64.9893
1224	64.9721
1208	64.8683
1192	64.9129
1176	64.8455
1160	64.8758
1144	65.2626
1128	64.6852
1112	64.6058
1096	64.7551
1080	64.6289
1064	64.7479
1048	64.6784
1032	64.658
1016	64.4148
1000	64.5929
984	 64.6363
968	 64.5405
952	 64.292
936	 64.4546
920	 64.3613
904	 64.3169
888	 64.2091
872	 63.9226
856	 64.4278
840	 64.2673
824	 64.0928
808	 64.188
792	 63.5673
776	 63.8342
760	 63.6683
744	 63.5891
728	 63.52
712	 63.5548
696	 63.4767
680	 62.7478
664	 62.6754
648	 62.6104
632	 61.9904
616	 62.599
600	 62.2558
584	 61.7297
568	 61.1086
552	 60.9468
536	 61.2182
520	 60.3
504	 59.6094
488	 59.3117
472	 59.3497
456	 59.2405
440	 57.4144
424	 57.5627
408	 66.6017
392	 101.905
376	 116.406
370	 53.2821