File: Bakgrunnsmateriale/MATLAB/FTIR/ftir_data/subBb/Mapping_121/C-4040-8_t98.asc
PE IR       SPECTRUM    SPECTRUM    ASCII       PEDS        1.60
  -1
C-C94A~1.ASC
17/03/27
22:32:57.00
17/03/27
22:33:23.00
tln
$C-4040-8_t0098$<tbV0>[-10.4,7.8,8.0,0.0,27,1,0]
27.028
64

2002,4.07
MIRTGS : RIGHTBACK : INTERNAL 2
MIR : ON : INTERNAL 2
OPTKBR

0.200000
8
8.000000
FILLER
RATIO
SPECTRUM
UNLOCKED 256

DOUBLE
64
COMBINED
1
0
0

0.002000
RATIO

1
0
TRUE
51149
0
LEFT NOT FITTED RIGHT NOT FITTED 0
NONE
NONE
15600
12
4.427000
51148
TRUE
1 0 8 72 0 0 0 0

15798

#HDR
-1
-1
#GR
µM
%T
2.38419e-05
0.0
2.000000
0.002000
12515
8
176.403
47.8408
#DATA
2.000000	 65.0917
2.084000	 64.978
2.168000	 64.7388
2.252000	 63.7412
2.336000	 63.7819
2.420000	 65.3119
2.504000	 65.2075
2.588000	 65.0369
2.672000	 65.1633
2.756000	 65.0689
2.840000	 65.2889
2.924000	 65.0354
3.008000	 65.0296
3.092000	 65.0603
3.176000	 65.0386
3.260000	 65.0933
3.344000	 65.2047
3.428000	 64.6485
3.512000	 64.9785
3.596000	 65.1703
3.680000	 65.1008
3.764000	 65.2803
3.848000	 65.1003
3.932000	 65.2178
4.016000	 65.2301
4.100000	 64.955
4.184000	 65.2057
4.268000	 65.1974
4.352000	 65.2548
4.436000	 65.2196
4.520000	 65.2232
4.604000	 65.1784
4.688000	 65.3786
4.772000	 65.0865
4.856000	 64.9894
4.940000	 65.3246
5.024000	 65.2178
5.108000	 65.2255
5.192000	 65.3227
5.276000	 65.3205
5.359999	 65.1924
5.444000	 65.4129
5.528000	 65.2183
5.612000	 65.2957
5.696000	 65.1933
5.780000	 64.9976
5.864000	 65.2365
5.948000	 65.0459
6.032000	 65.2501
6.116000	 64.9399
6.200000	 65.1463
6.284000	 65.1209
6.368000	 65.0102
6.452000	 65.0575
6.536000	 65.0593
6.620000	 65.0714
6.704000	 65.0062
6.788000	 64.9755
6.872000	 65.0007
6.956000	 64.8653
7.040000	 65.0155
7.124000	 64.9188
7.208000	 64.888
7.292000	 64.9586
7.376000	 64.9483
7.460000	 64.9073
7.544000	 65.0758
7.628000	 64.7051
7.712000	 65.1614
7.796000	 64.8786
7.880000	 64.8833
7.964000	 64.9556
8.048000	 64.7703
8.132000	 64.8426
8.216000	 64.8731
8.300000	 64.8862
8.384000	 64.9217
8.468000	 64.9305
8.552000	 64.8122
8.635999	 64.6612
8.719999	 64.6423
8.804000	 64.8958
8.888000	 64.6243
8.972000	 64.9899
9.056000	 64.6886
9.140000	 64.4872
9.224000	 64.546
9.308000	 64.7191
9.391999	 64.6657
9.475999	 64.5932
9.560000	 64.8844
9.644000	 64.8366
9.728000	 64.7043
9.812000	 64.3935
9.896000	 64.0366
9.980000	 64.3458
10.064	64.3772
10.148	64.666
10.232	64.7724
10.316	64.8652
10.4	64.8019
10.484	64.7247
10.568	64.8707
10.652	64.4824
10.736	64.3005
10.82	64.861
10.904	64.6146
10.988	64.2753
11.072	64.6208
11.156	64.2144
11.24	64.6201
11.324	64.2453
11.408	64.0661
11.492	64.1757
11.576	64.3116
11.66	64.5258
11.744	64.6608
11.828	64.4368
11.912	64.4192
11.996	64.4167
12.08	64.468
12.164	63.8663
12.248	64.1614
12.332	64.3556
12.416	63.934
12.5	63.7326
12.584	63.9985
12.668	64.0069
12.752	63.9147
12.836	64.0076
12.92	64.1035
13.004	64.1732
13.088	64.0345
13.172	63.8072
13.256	63.8245
13.34	63.8962
13.424	63.806
13.508	63.134
13.592	62.5667
13.676	62.5586
13.76	62.7938
13.844	63.2314
13.928	63.4617
14.012	63.3825
14.096	63.3768
14.18	63.3911
14.264	63.5201
14.348	63.6872
14.432	63.7437
14.516	63.7198
14.6	63.5778
14.684	63.3705
14.768	63.2053
14.852	63.0074
14.936	62.7519
15.02	62.56
15.104	62.4676
15.188	62.4914
15.272	62.6539
15.356	62.7967
15.44	62.7575
15.524	62.7597
15.608	63.0372
15.692	63.2747
15.776	63.1814
15.86	62.967
15.944	62.8656
16.028	62.8553
16.112	62.8397
16.196	62.7901
16.28	62.8036
16.364	62.9539
16.448	63.0704
16.532	62.9194
16.616	62.5905
16.7	62.4017
16.784	62.4581
16.868	62.5306
16.952	62.3381
17.036	61.9276
17.12	61.6641
17.204	61.7479
17.288	61.9929
17.372	62.1585
17.456	62.205
17.54	62.1761
17.624	62.1061
17.708	62.0818
17.792	62.1969
17.876	62.4394
17.96	62.6867
18.044	62.8416
18.128	62.9058
18.212	62.8852
18.296	62.7125
18.38	62.3672
18.464	62.0002
18.548	61.7987
18.632	61.744
18.716	61.6441
18.8	61.4129
18.884	61.1856
18.968	61.1023
19.052	61.1078
19.136	61.0653
19.22	60.9758
19.304	60.9762
19.388	61.1285
19.472	61.3238
19.556	61.4112
19.64	61.351
19.724	61.2044
19.808	61.0341
19.892	60.8699
19.976	60.7415
20.06	60.6749
20.144	60.6535
20.228	60.6259
20.312	60.5793
20.396	60.5742
20.48	60.6799
20.564	60.8656
20.648	60.9963
20.732	60.9457
20.816	60.7274
20.9	60.4875
20.984	60.3731
21.068	60.4178
21.152	60.5435
21.236	60.6572
21.32	60.7274
21.404	60.7692
21.488	60.7858
21.572	60.7265
21.656	60.5282
21.74	60.1647
21.824	59.669
21.908	59.1225
21.992	58.6246
22.076	58.2706
22.16	58.1304
22.244	58.2112
22.328	58.4401
22.412	58.6852
22.496	58.807
22.58	58.7189
22.664	58.4023
22.748	57.8823
22.832	57.1799
22.916	56.3271
23	55.3716
23.084	54.4532
23.168	53.7652
23.252	53.4659
23.336	53.6614
23.42	54.2709
23.504	55.0309
23.588	55.6685
23.672	56.0383
23.756	56.111
23.84	55.9593
23.924	55.717
24.008	55.5465
24.092	55.6206
24.176	56.0868
24.26	56.946
24.344	58.1345
24.428	59.6609
24.512	61.6165
24.596	64.3817
24.68	68.452
24.764	74.0151
24.848	80.7488
24.932	87.3731
25.016	91.9042
25.1	92.293
25.184	87.5194
25.268	78.4295
25.352	67.4536
25.436	57.613
25.52	51.0093
25.604	48.075
25.688	48.3197
25.772	51.031
25.856	55.8793
25.94	62.4261
26.024	70.0441
26.108	77.9123
26.192	86.3481
26.276	96.6414
26.36	110.821
26.444	129.189
26.528	149.442
26.612	166.679
26.696	175.76
26.78	173.689
26.864	161.482
26.948	143.413
27.028	125.585