File: Bakgrunnsmateriale/MATLAB/FTIR/ftir_data/subBb/Mapping_121/C-4040-8_t57.asc
PE IR       SPECTRUM    SPECTRUM    ASCII       PEDS        1.60
  -1
C-B936~1.ASC
17/03/27
19:09:55.00
17/03/27
19:10:21.00
tln
$C-4040-8_t0057$<tbV0>[10.4,0.0,8.0,0.0,27,1,0]
27.028
64

2002,4.07
MIRTGS : RIGHTBACK : INTERNAL 2
MIR : ON : INTERNAL 2
OPTKBR

0.200000
8
8.000000
FILLER
RATIO
SPECTRUM
UNLOCKED 256

DOUBLE
64
COMBINED
1
0
0

0.002000
RATIO

1
0
TRUE
51149
0
LEFT NOT FITTED RIGHT NOT FITTED 0
NONE
NONE
15600
12
4.427000
51148
TRUE
1 0 8 72 0 0 0 0

15798

#HDR
-1
-1
#GR
µM
%T
2.38419e-05
0.0
2.000000
0.002000
12515
8
85.7645
18.6864
#DATA
2.000000	 65.1597
2.084000	 64.8002
2.168000	 64.3272
2.252000	 65.5111
2.336000	 65.8263
2.420000	 64.9596
2.504000	 65.0406
2.588000	 65.2034
2.672000	 65.1441
2.756000	 65.035
2.840000	 65.121
2.924000	 65.0997
3.008000	 65.1378
3.092000	 65.0858
3.176000	 65.0021
3.260000	 65.2716
3.344000	 65.2827
3.428000	 64.853
3.512000	 65.107
3.596000	 65.0967
3.680000	 65.0849
3.764000	 65.3816
3.848000	 65.2665
3.932000	 65.3306
4.016000	 65.2378
4.100000	 65.3066
4.184000	 65.2465
4.268000	 65.138
4.352000	 65.235
4.436000	 65.3446
4.520000	 65.277
4.604000	 65.2512
4.688000	 65.3167
4.772000	 65.3259
4.856000	 65.2719
4.940000	 65.2396
5.024000	 65.3012
5.108000	 65.3495
5.192000	 65.2775
5.276000	 65.249
5.359999	 65.2132
5.444000	 65.2565
5.528000	 65.1281
5.612000	 65.1665
5.696000	 65.1332
5.780000	 65.1065
5.864000	 65.1706
5.948000	 65.1277
6.032000	 65.1932
6.116000	 65.0836
6.200000	 65.1105
6.284000	 65.0815
6.368000	 65.1868
6.452000	 65.0393
6.536000	 65.018
6.620000	 65.0572
6.704000	 65.1869
6.788000	 64.937
6.872000	 64.7895
6.956000	 65.1172
7.040000	 64.9227
7.124000	 65.1109
7.208000	 64.9761
7.292000	 65.0405
7.376000	 64.9997
7.460000	 64.8253
7.544000	 64.9435
7.628000	 65.0391
7.712000	 64.9391
7.796000	 65.0175
7.880000	 64.9144
7.964000	 64.8801
8.048000	 64.9196
8.132000	 64.8998
8.216000	 64.9361
8.300000	 64.9576
8.384000	 64.8988
8.468000	 64.8284
8.552000	 64.7656
8.635999	 64.9486
8.719999	 64.8758
8.804000	 64.7504
8.888000	 64.6796
8.972000	 64.589
9.056000	 64.5403
9.140000	 64.6349
9.224000	 65.1672
9.308000	 64.692
9.391999	 64.6246
9.475999	 64.72
9.560000	 64.6116
9.644000	 64.6028
9.728000	 64.6235
9.812000	 64.6548
9.896000	 64.9249
9.980000	 64.8618
10.064	64.7053
10.148	64.6939
10.232	64.5681
10.316	64.5054
10.4	64.5371
10.484	64.6213
10.568	64.5675
10.652	64.3115
10.736	64.3373
10.82	64.536
10.904	64.6185
10.988	64.3369
11.072	64.4366
11.156	64.4699
11.24	64.4637
11.324	64.3911
11.408	63.8639
11.492	63.9858
11.576	64.2378
11.66	64.2118
11.744	64.2225
11.828	64.2112
11.912	64.4241
11.996	64.2034
12.08	64.0678
12.164	64.2621
12.248	64.2159
12.332	64.28
12.416	64.092
12.5	64.0245
12.584	64.1427
12.668	63.9471
12.752	63.776
12.836	63.9553
12.92	64.0389
13.004	63.9104
13.088	63.7731
13.172	63.5127
13.256	63.2506
13.34	63.4264
13.424	63.4037
13.508	63.2555
13.592	63.6241
13.676	63.7134
13.76	63.387
13.844	63.0791
13.928	63.109
14.012	63.255
14.096	63.2751
14.18	63.4164
14.264	63.3682
14.348	63.133
14.432	63.1877
14.516	63.248
14.6	62.9935
14.684	62.7104
14.768	62.718
14.852	62.8972
14.936	62.832
15.02	62.6062
15.104	62.6495
15.188	62.8333
15.272	62.8407
15.356	62.7084
15.44	62.5168
15.524	62.392
15.608	62.4215
15.692	62.3546
15.776	62.1404
15.86	62.0835
15.944	62.2027
16.028	62.285
16.112	62.3102
16.196	62.337
16.28	62.36
16.364	62.352
16.448	62.2451
16.532	61.9925
16.616	61.7135
16.7	61.5573
16.784	61.5019
16.868	61.4989
16.952	61.5778
17.036	61.689
17.12	61.7028
17.204	61.6094
17.288	61.4848
17.372	61.3067
17.456	61.038
17.54	60.8132
17.624	60.8096
17.708	60.9592
17.792	61.0152
17.876	60.8844
17.96	60.7041
18.044	60.5985
18.128	60.5508
18.212	60.5146
18.296	60.4978
18.38	60.5323
18.464	60.6387
18.548	60.8224
18.632	61.0219
18.716	61.1105
18.8	61.0249
18.884	60.8694
18.968	60.7927
19.052	60.7589
19.136	60.574
19.22	60.1513
19.304	59.6765
19.388	59.4384
19.472	59.5486
19.556	59.8573
19.64	60.1374
19.724	60.3188
19.808	60.4904
19.892	60.7272
19.976	60.9562
20.06	61.0266
20.144	60.8714
20.228	60.5692
20.312	60.2523
20.396	59.9877
20.48	59.7529
20.564	59.5018
20.648	59.2158
20.732	58.9028
20.816	58.5756
20.9	58.245
20.984	57.9521
21.068	57.7554
21.152	57.6928
21.236	57.7466
21.32	57.865
21.404	58.0021
21.488	58.1327
21.572	58.2429
21.656	58.317
21.74	58.3454
21.824	58.3294
21.908	58.2708
21.992	58.1554
22.076	57.9507
22.16	57.6307
22.244	57.2198
22.328	56.7964
22.412	56.448
22.496	56.2278
22.58	56.1415
22.664	56.1699
22.748	56.2874
22.832	56.4711
22.916	56.7005
23	56.923
23.084	57.0763
23.168	57.1046
23.252	56.9749
23.336	56.6726
23.42	56.2018
23.504	55.612
23.588	55.0099
23.672	54.5352
23.756	54.3205
23.84	54.4191
23.924	54.7608
24.008	55.1535
24.092	55.382
24.176	55.4048
24.26	55.4159
24.344	55.7782
24.428	56.7773
24.512	58.4572
24.596	60.4271
24.68	62.0494
24.764	62.8045
24.848	62.5479
24.932	61.6124
25.016	60.647
25.1	60.2583
25.184	60.6778
25.268	61.6273
25.352	62.5464
25.436	62.9501
25.52	62.835
25.604	62.7429
25.688	63.584
25.772	66.1378
25.856	70.545
25.94	76.1852
26.024	81.6623
26.108	85.2161
26.192	85.2773
26.276	80.9343
26.36	72.2541
26.444	60.376
26.528	47.2203
26.612	34.9201
26.696	25.4023
26.78	19.9226
26.864	18.8021
26.948	21.4894
27.028	26.4903