File: Bakgrunnsmateriale/MATLAB/FTIR/ftir_data/subBb/Mapping_121/C-4040-8_t108_cm-1.asc
PE IR       SPECTRUM    SPECTRUM    ASCII       PEDS        1.60
  -1
C-4D8C~1.ASC
17/03/27
23:19:42.00
17/03/27
23:19:42.00
tln
$C-4040-8_t0108$<tbV0>[-7.8,10.4,8.0,0.0,27,1,0]
370
64

2002,4.07
MIRTGS : RIGHTBACK : INTERNAL 2
MIR : ON : INTERNAL 2
OPTKBR

0.200000
8
8.000000
FILLER
RATIO
SPECTRUM
UNLOCKED 256

DOUBLE
64
COMBINED
1
0
0

1.000000
RATIO

1
0
TRUE
51149
0
LEFT NOT FITTED RIGHT NOT FITTED 0
NONE
NONE
15600
12
4.427000
51148
TRUE
1 0 8 72 0 0 0 0

15798

#HDR
-1
-1
#GR
CM-1
%T
2.38419e-05
0.0
5000
-1.000000
4631
8
124.189
16.8927
#DATA
5000	65.1404
4984	65.1253
4968	65.2678
4952	64.7762
4936	64.5904
4920	65.0683
4904	64.8647
4888	64.9301
4872	65.6676
4856	64.7021
4840	65.1876
4824	65.0985
4808	65.2783
4792	65.3813
4776	65.3389
4760	65.0966
4744	65.0597
4728	64.6917
4712	65.0902
4696	64.9303
4680	65.0787
4664	65.2899
4648	65.2167
4632	65.3523
4616	65.3294
4600	64.8929
4584	65.1931
4568	64.8334
4552	65.3919
4536	64.1928
4520	64.3567
4504	64.7004
4488	64.7491
4472	64.6996
4456	64.3009
4440	64.1042
4424	65.2513
4408	62.7019
4392	74.9121
4376	64.172
4360	64.8275
4344	64.575
4328	64.8164
4312	64.6509
4296	64.5341
4280	64.4085
4264	65.0439
4248	64.2
4232	64.5978
4216	64.8634
4200	64.2931
4184	64.9426
4168	65.2646
4152	65.1089
4136	65.3031
4120	65.2877
4104	65.3143
4088	65.2053
4072	65.0631
4056	65.0733
4040	65.2803
4024	65.4766
4008	65.0679
3992	65.0275
3976	64.9947
3960	65.1343
3944	65.0784
3928	64.9364
3912	64.9037
3896	64.9536
3880	65.109
3864	65.2218
3848	64.8153
3832	64.8565
3816	65.1999
3800	64.7666
3784	65.0285
3768	65.2724
3752	65.3205
3736	65.1314
3720	65.4635
3704	65.1607
3688	65.4275
3672	65.0447
3656	65.1188
3640	65.0768
3624	65.3161
3608	65.1405
3592	65.3946
3576	65.0729
3560	65.1567
3544	65.1085
3528	65.1407
3512	65.1893
3496	65.1067
3480	64.9386
3464	65.2277
3448	64.9832
3432	65.237
3416	65.0591
3400	65.0041
3384	65.013
3368	65.092
3352	65.1303
3336	65.2157
3320	65.1027
3304	65.0569
3288	64.8997
3272	65.1397
3256	65.2245
3240	65.1334
3224	65.4454
3208	65.2737
3192	64.9118
3176	65.3167
3160	65.0967
3144	65.134
3128	65.7469
3112	65.1525
3096	65.2057
3080	65.393
3064	65.045
3048	65.1901
3032	65.2421
3016	65.1597
3000	65.227
2984	64.984
2968	65.0865
2952	64.9708
2936	65.0094
2920	64.7972
2904	64.8914
2888	65.0078
2872	65.0713
2856	65.2483
2840	64.8728
2824	65.0795
2808	65.058
2792	65.2152
2776	65.2441
2760	65.1959
2744	65.2467
2728	65.3334
2712	65.2637
2696	65.2785
2680	65.1941
2664	65.4562
2648	65.2215
2632	65.1119
2616	65.2262
2600	65.2076
2584	65.3234
2568	65.2346
2552	65.3463
2536	65.2378
2520	65.2003
2504	65.2619
2488	65.3604
2472	65.2462
2456	65.1876
2440	65.0047
2424	64.8145
2408	65.1159
2392	65.3147
2376	65.1985
2360	65.2017
2344	65.1709
2328	65.1861
2312	65.2875
2296	65.274
2280	65.2901
2264	65.2896
2248	65.1998
2232	65.2296
2216	65.1206
2200	65.1443
2184	65.2581
2168	65.2985
2152	65.6881
2136	65.3212
2120	65.2395
2104	65.3043
2088	65.2543
2072	66.0417
2056	64.9851
2040	65.2678
2024	65.2271
2008	65.272
1992	65.2438
1976	65.2579
1960	65.2047
1944	65.2719
1928	65.2896
1912	65.2032
1896	65.3381
1880	65.2642
1864	65.1287
1848	65.2277
1832	65.2866
1816	65.2427
1800	65.1365
1784	65.1275
1768	65.2868
1752	65.077
1736	64.9728
1720	64.9255
1704	65.0636
1688	65.2538
1672	65.0839
1656	65.1259
1640	65.1729
1624	65.0876
1608	65.0169
1592	64.9281
1576	65.0082
1560	64.9485
1544	65.1014
1528	65.0261
1512	65.1829
1496	65.1532
1480	65.0469
1464	65.071
1448	65.1054
1432	64.9504
1416	64.9872
1400	65.0499
1384	64.8269
1368	64.9399
1352	64.9813
1336	64.922
1320	64.9824
1304	64.7846
1288	64.9341
1272	64.8682
1256	64.9069
1240	64.7736
1224	64.7465
1208	64.8453
1192	64.674
1176	64.7557
1160	64.5717
1144	64.5495
1128	64.5286
1112	64.5051
1096	64.6784
1080	64.495
1064	64.4993
1048	64.7243
1032	64.2867
1016	64.373
1000	64.33
984	 64.5042
968	 64.4078
952	 64.4491
936	 64.1673
920	 64.9753
904	 64.2875
888	 64.5316
872	 64.34
856	 64.3524
840	 64.4245
824	 64.3748
808	 63.5916
792	 63.6001
776	 63.6688
760	 63.4227
744	 62.856
728	 63.1086
712	 63.0527
696	 62.7774
680	 62.8563
664	 62.2619
648	 62.5084
632	 62.0409
616	 62.1647
600	 61.3866
584	 61.3343
568	 61.99
552	 61.8927
536	 60.6205
520	 60.0841
504	 60.4284
488	 61.4336
472	 59.5736
456	 58.429
440	 54.8806
424	 53.6414
408	 47.9579
392	 22.7141
376	 102.396
370	 124.189