File: Bakgrunnsmateriale/MATLAB/FTIR/ftir_data/subBb/Mapping_121/C-4040-8_t34.asc
PE IR       SPECTRUM    SPECTRUM    ASCII       PEDS        1.60
  -1
C-B13A~1.ASC
17/03/27
17:16:13.00
17/03/27
17:16:39.00
tln
$C-4040-8_t0034$<tbV0>[13.0,-5.2,8.0,0.0,27,1,0]
27.028
64

2002,4.07
MIRTGS : RIGHTBACK : INTERNAL 2
MIR : ON : INTERNAL 2
OPTKBR

0.200000
8
8.000000
FILLER
RATIO
SPECTRUM
UNLOCKED 256

DOUBLE
64
COMBINED
1
0
0

0.002000
RATIO

1
0
TRUE
51149
0
LEFT NOT FITTED RIGHT NOT FITTED 0
NONE
NONE
15600
12
4.427000
51148
TRUE
1 0 8 72 0 0 0 0

15798

#HDR
-1
-1
#GR
µM
%T
2.38419e-05
0.0
2.000000
0.002000
12515
8
93.9398
47.9278
#DATA
2.000000	 64.4539
2.084000	 64.8619
2.168000	 65.2446
2.252000	 64.0801
2.336000	 64.3885
2.420000	 64.9102
2.504000	 64.9976
2.588000	 64.8156
2.672000	 64.9949
2.756000	 65.1353
2.840000	 65.1147
2.924000	 64.8577
3.008000	 65.0565
3.092000	 65.2142
3.176000	 65.0317
3.260000	 65.1191
3.344000	 65.0116
3.428000	 64.8038
3.512000	 64.9743
3.596000	 65.2388
3.680000	 65.2604
3.764000	 65.2272
3.848000	 65.2528
3.932000	 65.3391
4.016000	 65.1084
4.100000	 65.1781
4.184000	 65.3844
4.268000	 65.4161
4.352000	 65.2723
4.436000	 65.1703
4.520000	 65.2162
4.604000	 65.2801
4.688000	 65.3528
4.772000	 65.2626
4.856000	 65.4263
4.940000	 65.219
5.024000	 65.2953
5.108000	 65.4135
5.192000	 65.4518
5.276000	 65.3819
5.359999	 65.3099
5.444000	 65.2699
5.528000	 65.2859
5.612000	 65.1856
5.696000	 65.2499
5.780000	 64.9727
5.864000	 65.3771
5.948000	 65.2415
6.032000	 65.1487
6.116000	 65.1964
6.200000	 65.1774
6.284000	 65.1946
6.368000	 65.0388
6.452000	 65.011
6.536000	 64.9571
6.620000	 65.2201
6.704000	 65.198
6.788000	 65.0956
6.872000	 65.0269
6.956000	 65.1007
7.040000	 64.9647
7.124000	 65.0282
7.208000	 64.9912
7.292000	 65.0237
7.376000	 65.1171
7.460000	 64.9758
7.544000	 65.0247
7.628000	 65.0534
7.712000	 64.939
7.796000	 64.9339
7.880000	 65.0166
7.964000	 64.9603
8.048000	 64.9913
8.132000	 64.9153
8.216000	 64.8583
8.300000	 64.7604
8.384000	 64.8838
8.468000	 64.9747
8.552000	 64.7636
8.635999	 64.5555
8.719999	 64.6798
8.804000	 64.97
8.888000	 64.7035
8.972000	 64.6617
9.056000	 64.6826
9.140000	 64.4239
9.224000	 64.5523
9.308000	 65.1111
9.391999	 64.4677
9.475999	 64.863
9.560000	 65.0046
9.644000	 64.7021
9.728000	 64.7875
9.812000	 65.0512
9.896000	 64.7906
9.980000	 64.7365
10.064	64.5826
10.148	64.8959
10.232	64.806
10.316	64.7107
10.4	64.1979
10.484	64.4746
10.568	64.566
10.652	64.5127
10.736	64.6098
10.82	64.4045
10.904	64.6632
10.988	64.6633
11.072	64.4759
11.156	64.3377
11.24	64.2961
11.324	64.4661
11.408	64.3759
11.492	64.2948
11.576	64.4932
11.66	64.4968
11.744	64.4444
11.828	64.3443
11.912	64.1796
11.996	64.1887
12.08	64.2055
12.164	64.1983
12.248	64.1036
12.332	64.0863
12.416	64.1254
12.5	64.0477
12.584	64.1659
12.668	64.3269
12.752	64.3239
12.836	64.104
12.92	63.8976
13.004	63.7789
13.088	63.6404
13.172	63.6105
13.256	63.7778
13.34	63.9445
13.424	64.0689
13.508	64.1129
13.592	63.758
13.676	63.487
13.76	63.5481
13.844	63.607
13.928	63.4448
14.012	63.2875
14.096	63.4817
14.18	63.6004
14.264	63.4864
14.348	63.3158
14.432	63.1191
14.516	63.096
14.6	63.1257
14.684	63.0016
14.768	62.8012
14.852	62.7035
14.936	62.8645
15.02	63.0722
15.104	63.106
15.188	63.1201
15.272	63.1044
15.356	62.9289
15.44	62.7373
15.524	62.5912
15.608	62.404
15.692	62.2838
15.776	62.3305
15.86	62.4216
15.944	62.5196
16.028	62.6986
16.112	62.803
16.196	62.6193
16.28	62.2855
16.364	62.1307
16.448	62.29
16.532	62.5812
16.616	62.6787
16.7	62.4699
16.784	62.1634
16.868	61.9656
16.952	61.8724
17.036	61.7974
17.12	61.7226
17.204	61.7055
17.288	61.7676
17.372	61.8183
17.456	61.763
17.54	61.6596
17.624	61.634
17.708	61.7053
17.792	61.8044
17.876	61.8617
17.96	61.8256
18.044	61.673
18.128	61.4529
18.212	61.2679
18.296	61.1888
18.38	61.2155
18.464	61.3137
18.548	61.4291
18.632	61.4692
18.716	61.3579
18.8	61.1324
18.884	60.938
18.968	60.8999
19.052	61.0092
19.136	61.1429
19.22	61.1809
19.304	61.1023
19.388	60.9863
19.472	60.9224
19.556	60.9231
19.64	60.919
19.724	60.8604
19.808	60.7729
19.892	60.7058
19.976	60.6521
20.06	60.5616
20.144	60.4211
20.228	60.3018
20.312	60.3119
20.396	60.4931
20.48	60.7639
20.564	60.9546
20.648	60.9115
20.732	60.5972
20.816	60.1146
20.9	59.6403
20.984	59.3101
21.068	59.1539
21.152	59.1223
21.236	59.1587
21.32	59.2486
21.404	59.3934
21.488	59.5582
21.572	59.6628
21.656	59.6245
21.74	59.4248
21.824	59.137
21.908	58.8819
21.992	58.7498
22.076	58.7586
22.16	58.8565
22.244	58.9692
22.328	59.0337
22.412	59.0064
22.496	58.8579
22.58	58.5816
22.664	58.2121
22.748	57.8512
22.832	57.638
22.916	57.6871
23	58.001
23.084	58.4652
23.168	58.8814
23.252	59.0891
23.336	59.0287
23.42	58.7191
23.504	58.2497
23.588	57.6917
23.672	57.0731
23.756	56.4375
23.84	55.8245
23.924	55.3056
24.008	54.9486
24.092	54.7738
24.176	54.7598
24.26	54.8382
24.344	54.9217
24.428	54.9732
24.512	55.0633
24.596	55.3164
24.68	55.8852
24.764	56.9132
24.848	58.4262
24.932	60.4872
25.016	63.2154
25.1	66.7116
25.184	70.9008
25.268	75.4773
25.352	80.0107
25.436	83.973
25.52	87.0509
25.604	89.3305
25.688	91.0142
25.772	92.2893
25.856	93.2275
25.94	93.808
26.024	93.9183
26.108	93.4097
26.192	92.1386
26.276	89.9681
26.36	86.8803
26.444	82.8369
26.528	77.829
26.612	71.9402
26.696	65.4738
26.78	58.9849
26.864	53.2523
26.948	49.2496
27.028	47.9278