File: Bakgrunnsmateriale/MATLAB/FTIR/ftir_data/subBb/Mapping_121/C-4040-8_t10.asc
PE IR       SPECTRUM    SPECTRUM    ASCII       PEDS        1.60
  -1
C-A92A~1.ASC
17/03/27
15:17:06.00
17/03/27
15:17:32.00
tln
$C-4040-8_t0010$<tbV0>[-10.4,-13.0,8.0,0.0,27,1,0]
27.028
64

2002,4.07
MIRTGS : RIGHTBACK : INTERNAL 2
MIR : ON : INTERNAL 2
OPTKBR

0.200000
8
8.000000
FILLER
RATIO
SPECTRUM
UNLOCKED 256

DOUBLE
64
COMBINED
1
0
0

0.002000
RATIO

1
0
TRUE
51149
0
LEFT NOT FITTED RIGHT NOT FITTED 0
NONE
NONE
15600
12
4.427000
51148
TRUE
1 0 8 72 0 0 0 0

15798

#HDR
-1
-1
#GR
µM
%T
2.38419e-05
0.0
2.000000
0.002000
12515
8
80.5006
23.4116
#DATA
2.000000	 63.8163
2.084000	 63.6378
2.168000	 64.0203
2.252000	 66.4957
2.336000	 62.7836
2.420000	 63.3046
2.504000	 63.6413
2.588000	 62.9909
2.672000	 63.1275
2.756000	 62.4093
2.840000	 61.9536
2.924000	 61.4281
3.008000	 61.1896
3.092000	 60.6528
3.176000	 60.3506
3.260000	 59.9242
3.344000	 59.5242
3.428000	 58.9177
3.512000	 58.613
3.596000	 58.2198
3.680000	 57.7382
3.764000	 57.4219
3.848000	 56.8677
3.932000	 56.5875
4.016000	 56.2382
4.100000	 55.8838
4.184000	 55.3904
4.268000	 54.9466
4.352000	 54.5536
4.436000	 54.2312
4.520000	 53.9111
4.604000	 53.523
4.688000	 53.229
4.772000	 52.9269
4.856000	 52.4753
4.940000	 52.0611
5.024000	 51.8571
5.108000	 51.4363
5.192000	 51.2596
5.276000	 50.9839
5.359999	 50.6306
5.444000	 50.34
5.528000	 50.1528
5.612000	 49.8807
5.696000	 49.6785
5.780000	 49.3604
5.864000	 49.2055
5.948000	 48.9442
6.032000	 48.8655
6.116000	 48.4551
6.200000	 48.1395
6.284000	 47.7914
6.368000	 47.7483
6.452000	 47.5387
6.536000	 47.2802
6.620000	 47.3275
6.704000	 46.858
6.788000	 46.7734
6.872000	 46.7155
6.956000	 46.3154
7.040000	 46.1109
7.124000	 45.8696
7.208000	 45.7713
7.292000	 45.5126
7.376000	 45.4626
7.460000	 45.1565
7.544000	 45.1657
7.628000	 44.886
7.712000	 44.891
7.796000	 44.5724
7.880000	 44.4186
7.964000	 44.3019
8.048000	 44.277
8.132000	 44.1515
8.216000	 43.9517
8.300000	 43.9688
8.384000	 43.5832
8.468000	 43.4518
8.552000	 43.3776
8.635999	 43.3459
8.719999	 43.1377
8.804000	 42.8881
8.888000	 42.9619
8.972000	 42.8515
9.056000	 42.8909
9.140000	 42.7346
9.224000	 42.5519
9.308000	 42.2371
9.391999	 42.241
9.475999	 42.095
9.560000	 42.1778
9.644000	 41.9431
9.728000	 42.0051
9.812000	 41.9853
9.896000	 41.7175
9.980000	 41.6382
10.064	41.479
10.148	41.396
10.232	41.4046
10.316	41.1119
10.4	41.0964
10.484	40.6791
10.568	40.6704
10.652	40.3702
10.736	40.4349
10.82	40.1373
10.904	40.0123
10.988	39.6225
11.072	40.0055
11.156	40.1515
11.24	39.7882
11.324	39.4958
11.408	40.0238
11.492	40.0764
11.576	39.7705
11.66	39.8554
11.744	39.6869
11.828	39.4214
11.912	39.221
11.996	39.1219
12.08	38.7729
12.164	38.6237
12.248	38.634
12.332	38.6596
12.416	38.6873
12.5	38.606
12.584	38.4008
12.668	38.5951
12.752	38.468
12.836	38.2555
12.92	38.1524
13.004	37.9967
13.088	38.0701
13.172	37.8667
13.256	37.7431
13.34	37.8266
13.424	37.704
13.508	37.3684
13.592	37.17
13.676	37.3391
13.76	37.3043
13.844	37.1269
13.928	37.004
14.012	36.916
14.096	36.8402
14.18	36.7688
14.264	36.8511
14.348	36.907
14.432	36.7315
14.516	36.4961
14.6	36.3118
14.684	36.1112
14.768	35.9641
14.852	35.8648
14.936	35.7112
15.02	35.6618
15.104	35.7697
15.188	35.7411
15.272	35.5285
15.356	35.35
15.44	35.2326
15.524	35.1609
15.608	35.1839
15.692	35.1763
15.776	35.0207
15.86	34.8359
15.944	34.7339
16.028	34.6487
16.112	34.5384
16.196	34.4359
16.28	34.3399
16.364	34.265
16.448	34.1918
16.532	33.9801
16.616	33.6369
16.7	33.4184
16.784	33.4725
16.868	33.69
16.952	33.8641
17.036	33.8462
17.12	33.6675
17.204	33.508
17.288	33.418
17.372	33.2371
17.456	32.8758
17.54	32.486
17.624	32.2939
17.708	32.3439
17.792	32.4767
17.876	32.5347
17.96	32.4863
18.044	32.3418
18.128	32.0823
18.212	31.7561
18.296	31.5349
18.38	31.5562
18.464	31.7465
18.548	31.8875
18.632	31.8425
18.716	31.6834
18.8	31.5841
18.884	31.63
18.968	31.7267
19.052	31.6755
19.136	31.3689
19.22	30.9042
19.304	30.5137
19.388	30.3829
19.472	30.5362
19.556	30.8451
19.64	31.1182
19.724	31.2131
19.808	31.1122
19.892	30.9199
19.976	30.7616
20.06	30.67
20.144	30.5682
20.228	30.373
20.312	30.1114
20.396	29.9133
20.48	29.8906
20.564	30.0473
20.648	30.3041
20.732	30.5784
20.816	30.8097
20.9	30.9236
20.984	30.8268
21.068	30.4663
21.152	29.9026
21.236	29.2946
21.32	28.7897
21.404	28.4307
21.488	28.1729
21.572	27.9733
21.656	27.8412
21.74	27.8119
21.824	27.8878
21.908	28.0106
21.992	28.0945
22.076	28.0766
22.16	27.9438
22.244	27.722
22.328	27.4477
22.412	27.1565
22.496	26.8779
22.58	26.6406
22.664	26.4693
22.748	26.3692
22.832	26.3277
22.916	26.3345
23	26.3727
23.084	26.4278
23.168	26.4799
23.252	26.507
23.336	26.498
23.42	26.4682
23.504	26.464
23.588	26.5422
23.672	26.7236
23.756	26.9417
23.84	27.0213
23.924	26.7808
24.008	26.1251
24.092	25.1313
24.176	24.121
24.26	23.4871
24.344	23.5119
24.428	24.2175
24.512	25.4141
24.596	26.8211
24.68	28.1248
24.764	29.0457
24.848	29.4229
24.932	29.3057
25.016	28.9337
25.1	28.5977
25.184	28.4104
25.268	28.2818
25.352	28.0828
25.436	28.0757
25.52	29.0025
25.604	31.7702
25.688	36.9718
25.772	44.2995
25.856	52.4669
25.94	59.5674
26.024	63.754
26.108	64.1121
26.192	60.9891
26.276	55.7748
26.36	50.4989
26.444	46.8397
26.528	45.5176
26.612	46.1807
26.696	47.8231
26.78	49.3726
26.864	50.2634
26.948	50.5661
27.028	50.6879