File: Bakgrunnsmateriale/MATLAB/FTIR/ftir_data/subBb/Mapping_121/C-4040-8_t25_cm-1.asc
PE IR       SPECTRUM    SPECTRUM    ASCII       PEDS        1.60
  -1
C-9AEE~1.ASC
17/03/27
16:34:03.00
17/03/27
16:34:03.00
tln
$C-4040-8_t0025$<tbV0>[7.8,-7.8,8.0,0.0,27,1,0]
370
64

2002,4.07
MIRTGS : RIGHTBACK : INTERNAL 2
MIR : ON : INTERNAL 2
OPTKBR

0.200000
8
8.000000
FILLER
RATIO
SPECTRUM
UNLOCKED 256

DOUBLE
64
COMBINED
1
0
0

1.000000
RATIO

1
0
TRUE
51149
0
LEFT NOT FITTED RIGHT NOT FITTED 0
NONE
NONE
15600
12
4.427000
51148
TRUE
1 0 8 72 0 0 0 0

15798

#HDR
-1
-1
#GR
CM-1
%T
2.38419e-05
0.0
5000
-1.000000
4631
8
71.8786
2.845668
#DATA
5000	62.5867
4984	62.1202
4968	62.6762
4952	62.6169
4936	62.7156
4920	62.2955
4904	62.9748
4888	63.0726
4872	62.7228
4856	62.5887
4840	62.257
4824	62.8464
4808	62.4411
4792	62.6592
4776	62.2404
4760	62.4369
4744	62.1691
4728	62.2943
4712	62.2878
4696	62.3137
4680	61.953
4664	62.6378
4648	62.1508
4632	62.3738
4616	61.9731
4600	62.4827
4584	61.9027
4568	62.3807
4552	62.3036
4536	62.3647
4520	62.1633
4504	62.1051
4488	62.3783
4472	62.1067
4456	62.483
4440	62.5989
4424	62.3257
4408	61.802
4392	61.9316
4376	45.5762
4360	70.5231
4344	62.684
4328	62.1685
4312	62.3434
4296	62.1977
4280	61.8394
4264	61.7286
4248	61.831
4232	61.6611
4216	61.5404
4200	61.0531
4184	60.9817
4168	62.0617
4152	60.946
4136	61.4241
4120	60.7556
4104	60.7317
4088	60.7306
4072	60.6619
4056	60.5403
4040	60.6117
4024	60.6472
4008	60.4507
3992	60.5597
3976	60.792
3960	60.2776
3944	60.2711
3928	60.2033
3912	60.0819
3896	60.3359
3880	60.4509
3864	60.1937
3848	60.1372
3832	60.1541
3816	59.9522
3800	59.8659
3784	59.8203
3768	59.7171
3752	59.8161
3736	59.4652
3720	59.4349
3704	59.253
3688	59.2282
3672	58.9951
3656	58.992
3640	58.8175
3624	58.8125
3608	58.576
3592	58.8097
3576	58.4881
3560	58.3974
3544	58.2135
3528	58.2127
3512	58.072
3496	58.1515
3480	57.7736
3464	57.86
3448	57.9119
3432	57.8691
3416	57.3073
3400	57.3529
3384	57.299
3368	57.2105
3352	57.0156
3336	56.9353
3320	56.8093
3304	56.7587
3288	56.485
3272	56.3206
3256	56.2307
3240	56.2077
3224	55.8012
3208	55.6618
3192	55.6956
3176	55.613
3160	55.3793
3144	55.4129
3128	55.0879
3112	55.2797
3096	54.8675
3080	54.8912
3064	54.5602
3048	54.4329
3032	54.3509
3016	54.2216
3000	54.0328
2984	53.747
2968	53.6338
2952	53.4839
2936	53.184
2920	52.7941
2904	53.042
2888	52.7748
2872	52.6036
2856	52.2207
2840	52.3688
2824	52.1776
2808	52.0729
2792	51.7095
2776	51.525
2760	51.4113
2744	51.2315
2728	51.0243
2712	50.8307
2696	50.7463
2680	50.4338
2664	50.3322
2648	50.0948
2632	49.9925
2616	49.6517
2600	49.4716
2584	49.2123
2568	49.1889
2552	49.018
2536	48.7941
2520	48.6451
2504	48.2777
2488	48.0757
2472	47.8687
2456	47.7708
2440	47.4465
2424	47.7607
2408	47.0087
2392	46.8802
2376	46.733
2360	46.2447
2344	46.2588
2328	46.0286
2312	45.8436
2296	45.5263
2280	45.4112
2264	45.1062
2248	44.9973
2232	44.7614
2216	44.6545
2200	44.4566
2184	44.1235
2168	43.8605
2152	43.7444
2136	43.4486
2120	43.2752
2104	43.0133
2088	42.8311
2072	42.5335
2056	42.4165
2040	42.1363
2024	42.0262
2008	41.7226
1992	41.6423
1976	41.2158
1960	41.0289
1944	40.7771
1928	40.6599
1912	40.3705
1896	40.0636
1880	39.8826
1864	39.7848
1848	39.4551
1832	39.2953
1816	38.9278
1800	38.8099
1784	38.6129
1768	38.4293
1752	38.102
1736	37.802
1720	37.5262
1704	37.361
1688	37.1351
1672	37.0606
1656	36.8519
1640	36.6155
1624	36.437
1608	36.1947
1592	35.9405
1576	35.7588
1560	35.4992
1544	35.2838
1528	35.0253
1512	34.821
1496	34.6737
1480	34.3951
1464	34.028
1448	33.9847
1432	33.663
1416	33.5768
1400	33.2431
1384	33.1631
1368	32.7674
1352	32.663
1336	32.485
1320	32.2182
1304	32.0394
1288	31.8393
1272	31.6435
1256	31.6128
1240	31.1871
1224	31.0345
1208	30.7232
1192	30.5672
1176	30.3846
1160	30.1414
1144	29.9557
1128	29.8171
1112	29.2402
1096	29.2689
1080	29.0202
1064	28.7011
1048	28.7258
1032	28.3433
1016	28.0737
1000	28.0245
984	 27.9242
968	 27.6176
952	 27.3169
936	 26.9621
920	 26.5383
904	 26.0623
888	 26.0961
872	 25.9423
856	 25.5675
840	 24.9526
824	 24.7116
808	 24.3968
792	 24.1655
776	 23.8256
760	 23.5692
744	 23.1584
728	 23.0274
712	 22.4671
696	 22.2455
680	 21.7028
664	 21.3494
648	 20.4405
632	 20.6257
616	 19.5513
600	 19.2511
584	 19.0018
568	 17.8297
552	 17.2478
536	 17.116
520	 16.5769
504	 16.0904
488	 15.2984
472	 14.2743
456	 14.2304
440	 12.2937
424	 13.8585
408	 13.5802
392	 19.5358
376	 15.6597
370	 2.845668