File: Bakgrunnsmateriale/MATLAB/FTIR/ftir_data/subBb/Mapping_121/C-4040-8_t86.asc
PE IR       SPECTRUM    SPECTRUM    ASCII       PEDS        1.60
  -1
C-B542~1.ASC
17/03/27
21:31:06.00
17/03/27
21:31:32.00
tln
$C-4040-8_t0086$<tbV0>[-7.8,5.2,8.0,0.0,27,1,0]
27.028
64

2002,4.07
MIRTGS : RIGHTBACK : INTERNAL 2
MIR : ON : INTERNAL 2
OPTKBR

0.200000
8
8.000000
FILLER
RATIO
SPECTRUM
UNLOCKED 256

DOUBLE
64
COMBINED
1
0
0

0.002000
RATIO

1
0
TRUE
51149
0
LEFT NOT FITTED RIGHT NOT FITTED 0
NONE
NONE
15600
12
4.427000
51148
TRUE
1 0 8 72 0 0 0 0

15798

#HDR
-1
-1
#GR
µM
%T
2.38419e-05
0.0
2.000000
0.002000
12515
8
117.117
-4.198217
#DATA
2.000000	 64.5016
2.084000	 65.0136
2.168000	 64.8729
2.252000	 63.9891
2.336000	 64.1232
2.420000	 64.8942
2.504000	 65.3116
2.588000	 65.0834
2.672000	 65.1856
2.756000	 65.3064
2.840000	 65.3479
2.924000	 65.2101
3.008000	 65.2272
3.092000	 65.1926
3.176000	 65.3953
3.260000	 65.3832
3.344000	 65.2172
3.428000	 64.9615
3.512000	 65.2132
3.596000	 65.3835
3.680000	 65.4552
3.764000	 65.4057
3.848000	 65.3429
3.932000	 65.3726
4.016000	 65.2153
4.100000	 65.3686
4.184000	 65.3593
4.268000	 65.3596
4.352000	 65.372
4.436000	 65.4125
4.520000	 65.4114
4.604000	 65.4137
4.688000	 65.386
4.772000	 65.3779
4.856000	 65.1655
4.940000	 65.5278
5.024000	 65.3049
5.108000	 65.3844
5.192000	 65.3909
5.276000	 65.4658
5.359999	 65.4307
5.444000	 65.4171
5.528000	 65.5792
5.612000	 65.4799
5.696000	 65.4586
5.780000	 65.2913
5.864000	 65.2753
5.948000	 65.3478
6.032000	 65.316
6.116000	 65.1815
6.200000	 65.1373
6.284000	 65.0853
6.368000	 65.2008
6.452000	 65.0844
6.536000	 65.0722
6.620000	 65.2094
6.704000	 65.184
6.788000	 65.034
6.872000	 65.1825
6.956000	 65.142
7.040000	 65.2269
7.124000	 65.1011
7.208000	 65.2456
7.292000	 65.1966
7.376000	 65.1944
7.460000	 65.3173
7.544000	 65.1606
7.628000	 65.1422
7.712000	 65.153
7.796000	 65.0685
7.880000	 65.0057
7.964000	 65.0104
8.048000	 64.9533
8.132000	 65.2361
8.216000	 64.9935
8.300000	 65.109
8.384000	 64.8686
8.468000	 64.7922
8.552000	 65.0225
8.635999	 64.9139
8.719999	 64.7996
8.804000	 64.9595
8.888000	 64.7896
8.972000	 64.8259
9.056000	 64.7076
9.140000	 64.5583
9.224000	 65.0367
9.308000	 65.2431
9.391999	 64.8198
9.475999	 64.5726
9.560000	 64.5387
9.644000	 64.7709
9.728000	 64.7872
9.812000	 64.3518
9.896000	 64.7894
9.980000	 64.9344
10.064	65.1585
10.148	64.955
10.232	64.8273
10.316	64.8686
10.4	64.5719
10.484	64.785
10.568	64.9164
10.652	64.8141
10.736	65.2569
10.82	65.3433
10.904	65.3144
10.988	65.6741
11.072	65.893
11.156	65.2477
11.24	64.8779
11.324	64.7543
11.408	64.986
11.492	64.9021
11.576	64.6067
11.66	64.3582
11.744	64.3374
11.828	64.7919
11.912	64.785
11.996	64.7694
12.08	64.891
12.164	64.5004
12.248	64.2498
12.332	64.1335
12.416	64.0491
12.5	64.2944
12.584	64.3678
12.668	64.4043
12.752	64.226
12.836	63.8925
12.92	63.9323
13.004	63.9359
13.088	63.6733
13.172	64.0027
13.256	64.7623
13.34	65.0649
13.424	64.8405
13.508	64.6466
13.592	64.2754
13.676	64.1104
13.76	63.9017
13.844	63.5711
13.928	63.5731
14.012	63.7907
14.096	63.8349
14.18	63.5935
14.264	63.5277
14.348	63.719
14.432	63.5357
14.516	63.0669
14.6	63.0345
14.684	63.3464
14.768	63.4978
14.852	63.3988
14.936	63.2149
15.02	63.1407
15.104	63.2321
15.188	63.3695
15.272	63.4049
15.356	63.3527
15.44	63.248
15.524	63.0308
15.608	62.788
15.692	62.6643
15.776	62.6445
15.86	62.6889
15.944	62.7513
16.028	62.7357
16.112	62.6471
16.196	62.6129
16.28	62.7139
16.364	62.917
16.448	63.1794
16.532	63.4908
16.616	63.7413
16.7	63.7374
16.784	63.4758
16.868	63.1693
16.952	62.956
17.036	62.8531
17.12	62.9004
17.204	63.0382
17.288	63.0114
17.372	62.7105
17.456	62.3618
17.54	62.1913
17.624	62.1648
17.708	62.1448
17.792	62.0573
17.876	61.9046
17.96	61.7975
18.044	61.9052
18.128	62.2255
18.212	62.499
18.296	62.489
18.38	62.2598
18.464	62.0611
18.548	62.0132
18.632	62.0148
18.716	61.9356
18.8	61.7722
18.884	61.6084
18.968	61.5019
19.052	61.4752
19.136	61.5662
19.22	61.8153
19.304	62.1875
19.388	62.5466
19.472	62.7407
19.556	62.7016
19.64	62.4733
19.724	62.1527
19.808	61.8187
19.892	61.5049
19.976	61.2282
20.06	61.0232
20.144	60.9336
20.228	60.9703
20.312	61.0714
20.396	61.1263
20.48	61.0469
20.564	60.8269
20.648	60.5426
20.732	60.2918
20.816	60.1473
20.9	60.1205
20.984	60.1557
21.068	60.156
21.152	60.0424
21.236	59.8138
21.32	59.5583
21.404	59.4221
21.488	59.5211
21.572	59.865
21.656	60.3379
21.74	60.7387
21.824	60.8744
21.908	60.6627
21.992	60.1652
22.076	59.5405
22.16	58.9582
22.244	58.5019
22.328	58.1752
22.412	57.9674
22.496	57.9221
22.58	58.1237
22.664	58.6164
22.748	59.3181
22.832	60.0204
22.916	60.4466
23	60.4199
23.084	59.9358
23.168	59.1851
23.252	58.4485
23.336	57.9824
23.42	57.9019
23.504	58.1861
23.588	58.686
23.672	59.2217
23.756	59.6832
23.84	60.0419
23.924	60.3646
24.008	60.698
24.092	60.9668
24.176	61.0176
24.26	60.6154
24.344	59.533
24.428	57.7071
24.512	55.3266
24.596	52.6838
24.68	50.1428
24.764	48.1006
24.848	46.7971
24.932	46.425
25.016	47.0999
25.1	48.7283
25.184	51.1765
25.268	54.2804
25.352	57.8027
25.436	61.435
25.52	64.9434
25.604	68.3153
25.688	71.8756
25.772	76.1662
25.856	81.5607
25.94	87.7687
26.024	93.6144
26.108	97.3284
26.192	97.296
26.276	92.6803
26.36	84.0442
26.444	72.7994
26.528	60.5545
26.612	48.6022
26.696	37.5047
26.78	27.0697
26.864	16.7155
26.948	6.030593
27.028	-4.198217