File: Bakgrunnsmateriale/MATLAB/FTIR/ftir_data/subBb/Mapping_121/C-4040-8_t84_cm-1.asc
PE IR       SPECTRUM    SPECTRUM    ASCII       PEDS        1.60
  -1
C-9D6F~1.ASC
17/03/27
21:21:52.00
17/03/27
21:21:52.00
tln
$C-4040-8_t0084$<tbV0>[-2.6,5.2,8.0,0.0,27,1,0]
370
64

2002,4.07
MIRTGS : RIGHTBACK : INTERNAL 2
MIR : ON : INTERNAL 2
OPTKBR

0.200000
8
8.000000
FILLER
RATIO
SPECTRUM
UNLOCKED 256

DOUBLE
64
COMBINED
1
0
0

1.000000
RATIO

1
0
TRUE
51149
0
LEFT NOT FITTED RIGHT NOT FITTED 0
NONE
NONE
15600
12
4.427000
51148
TRUE
1 0 8 72 0 0 0 0

15798

#HDR
-1
-1
#GR
CM-1
%T
2.38419e-05
0.0
5000
-1.000000
4631
8
88.9569
52.7446
#DATA
5000	65.1016
4984	65.5258
4968	64.0293
4952	65.4397
4936	64.5275
4920	65.1923
4904	65.477
4888	65.3904
4872	65.5707
4856	65.0091
4840	64.5835
4824	65.4883
4808	65.1639
4792	64.9809
4776	65.1365
4760	65.5199
4744	65.3322
4728	65.1119
4712	65.2773
4696	64.8984
4680	65.5012
4664	65.0348
4648	65.0709
4632	65.3995
4616	65.4116
4600	64.9578
4584	65.3878
4568	64.9941
4552	64.6787
4536	65.4309
4520	65.476
4504	64.6503
4488	64.6375
4472	64.9867
4456	64.8654
4440	64.7756
4424	64.4484
4408	64.4124
4392	67.0462
4376	82.4577
4360	64.2955
4344	65.0829
4328	64.9614
4312	65.4588
4296	65.2735
4280	65.2073
4264	64.9584
4248	64.72
4232	65.0456
4216	64.7284
4200	64.438
4184	65.1176
4168	65.6233
4152	64.878
4136	65.3959
4120	65.1781
4104	65.2825
4088	65.0739
4072	65.0894
4056	65.2784
4040	65.1486
4024	65.2325
4008	65.1864
3992	65.2563
3976	65.2988
3960	65.265
3944	65.0577
3928	65.1668
3912	65.4807
3896	65.5675
3880	65.5078
3864	65.4687
3848	65.2255
3832	65.2339
3816	65.1941
3800	65.0911
3784	65.2395
3768	65.0788
3752	65.3686
3736	65.3301
3720	65.4792
3704	65.3286
3688	65.2953
3672	65.3625
3656	65.3697
3640	65.3462
3624	65.5376
3608	65.2126
3592	65.4695
3576	65.4418
3560	65.265
3544	65.1335
3528	65.5873
3512	65.271
3496	65.3056
3480	65.3226
3464	65.1633
3448	65.3504
3432	65.4512
3416	65.2698
3400	65.3871
3384	65.4409
3368	65.2564
3352	65.0667
3336	65.3044
3320	65.0175
3304	65.313
3288	65.2271
3272	65.4164
3256	65.149
3240	65.1981
3224	65.1721
3208	65.3915
3192	65.4739
3176	65.1565
3160	65.2598
3144	65.4741
3128	65.5555
3112	64.9315
3096	65.3312
3080	65.2911
3064	65.1402
3048	65.2589
3032	65.5055
3016	65.239
3000	65.2453
2984	65.0604
2968	65.2696
2952	65.1627
2936	65.2663
2920	64.8399
2904	65.1314
2888	65.3119
2872	65.1633
2856	65.0155
2840	65.1382
2824	65.1582
2808	65.3433
2792	65.3172
2776	65.4128
2760	65.3466
2744	65.3965
2728	65.2476
2712	65.5049
2696	65.518
2680	65.2466
2664	65.3419
2648	65.3371
2632	65.4424
2616	65.357
2600	65.3054
2584	65.3722
2568	65.2582
2552	65.3532
2536	65.3524
2520	65.3556
2504	65.1011
2488	65.2586
2472	65.4298
2456	65.2541
2440	65.4375
2424	65.1057
2408	64.9998
2392	65.5033
2376	65.5137
2360	65.3724
2344	65.4238
2328	65.4359
2312	65.4138
2296	65.4255
2280	65.477
2264	65.4421
2248	65.4818
2232	65.5248
2216	65.4973
2200	65.4498
2184	65.3237
2168	65.5653
2152	65.0743
2136	65.2371
2120	65.1844
2104	65.3712
2088	65.5781
2072	65.6013
2056	65.1716
2040	65.4787
2024	65.4453
2008	65.4475
1992	65.4168
1976	65.3414
1960	65.3653
1944	65.3543
1928	65.3795
1912	65.4468
1896	65.4198
1880	65.4686
1864	65.4487
1848	65.3951
1832	65.4799
1816	65.5703
1800	65.4671
1784	65.5219
1768	65.339
1752	65.4317
1736	65.2095
1720	65.3772
1704	65.2652
1688	65.361
1672	65.3462
1656	65.3746
1640	65.3634
1624	65.2244
1608	65.1917
1592	65.0315
1576	65.2344
1560	64.9641
1544	65.1272
1528	65.2434
1512	65.0836
1496	65.2817
1480	65.2284
1464	65.2659
1448	64.9695
1432	65.2801
1416	65.2116
1400	65.1625
1384	65.1598
1368	65.068
1352	65.0211
1336	65.3041
1320	65.0946
1304	65.1369
1288	65.0344
1272	65.1003
1256	65.0832
1240	65.0803
1224	65.1113
1208	65.1852
1192	65.0789
1176	64.8276
1160	64.8612
1144	64.8446
1128	64.9458
1112	64.7458
1096	64.3138
1080	64.9142
1064	65.0853
1048	64.9135
1032	65.0039
1016	65.0185
1000	64.9656
984	 64.863
968	 64.5288
952	 65.0355
936	 64.6592
920	 64.4546
904	 64.6616
888	 64.8715
872	 64.8524
856	 64.4643
840	 64.7069
824	 64.4773
808	 64.4745
792	 64.3114
776	 64.5358
760	 64.2902
744	 64.3361
728	 63.1552
712	 63.778
696	 64.0461
680	 63.4836
664	 63.2246
648	 63.6805
632	 62.9775
616	 62.6372
600	 64.0214
584	 62.6483
568	 63.1427
552	 62.2559
536	 62.2051
520	 62.757
504	 61.4415
488	 61.4977
472	 60.6494
456	 60.4086
440	 61.4141
424	 56.9569
408	 66.8437
392	 56.6349
376	 86.2231
370	 52.7446