File: Bakgrunnsmateriale/MATLAB/FTIR/ftir_data/subBb/Mapping_121/C-4040-8_t53.asc
PE IR       SPECTRUM    SPECTRUM    ASCII       PEDS        1.60
  -1
C-A936~1.ASC
17/03/27
18:50:50.00
17/03/27
18:51:16.00
tln
$C-4040-8_t0053$<tbV0>[-7.8,-2.6,8.0,0.0,27,1,0]
27.028
64

2002,4.07
MIRTGS : RIGHTBACK : INTERNAL 2
MIR : ON : INTERNAL 2
OPTKBR

0.200000
8
8.000000
FILLER
RATIO
SPECTRUM
UNLOCKED 256

DOUBLE
64
COMBINED
1
0
0

0.002000
RATIO

1
0
TRUE
51149
0
LEFT NOT FITTED RIGHT NOT FITTED 0
NONE
NONE
15600
12
4.427000
51148
TRUE
1 0 8 72 0 0 0 0

15798

#HDR
-1
-1
#GR
µM
%T
2.38419e-05
0.0
2.000000
0.002000
12515
8
70.9348
19.7822
#DATA
2.000000	 64.8052
2.084000	 65.1894
2.168000	 64.4635
2.252000	 65.6477
2.336000	 65.9712
2.420000	 65.0019
2.504000	 65.0158
2.588000	 65.1131
2.672000	 65.2386
2.756000	 64.9503
2.840000	 65.0729
2.924000	 65.4222
3.008000	 65.3153
3.092000	 65.3207
3.176000	 65.4079
3.260000	 65.1607
3.344000	 65.2219
3.428000	 64.8612
3.512000	 65.1923
3.596000	 65.3358
3.680000	 65.1554
3.764000	 65.3499
3.848000	 65.4438
3.932000	 65.4222
4.016000	 65.1812
4.100000	 65.6089
4.184000	 65.4518
4.268000	 65.3997
4.352000	 65.473
4.436000	 65.439
4.520000	 65.3442
4.604000	 65.4751
4.688000	 65.416
4.772000	 65.4053
4.856000	 65.2436
4.940000	 65.4224
5.024000	 65.3254
5.108000	 65.2388
5.192000	 65.3537
5.276000	 65.3717
5.359999	 65.2925
5.444000	 65.4465
5.528000	 65.2848
5.612000	 65.2244
5.696000	 65.2576
5.780000	 65.0552
5.864000	 65.2997
5.948000	 65.2613
6.032000	 65.1982
6.116000	 65.1615
6.200000	 65.0812
6.284000	 65.1873
6.368000	 65.2876
6.452000	 65.1872
6.536000	 65.1757
6.620000	 65.0495
6.704000	 65.1757
6.788000	 65.2384
6.872000	 64.6112
6.956000	 65.0971
7.040000	 65.132
7.124000	 65.1752
7.208000	 65.0621
7.292000	 65.0716
7.376000	 65.1264
7.460000	 65.2403
7.544000	 65.1366
7.628000	 65.0987
7.712000	 64.9886
7.796000	 65.1055
7.880000	 65.1045
7.964000	 64.9817
8.048000	 65.0659
8.132000	 64.9973
8.216000	 64.996
8.300000	 65.2766
8.384000	 65.1404
8.468000	 65.0371
8.552000	 64.8046
8.635999	 64.6154
8.719999	 65.2146
8.804000	 64.8582
8.888000	 65.0851
8.972000	 64.7952
9.056000	 64.6541
9.140000	 64.5874
9.224000	 64.9855
9.308000	 64.8477
9.391999	 64.9273
9.475999	 64.9776
9.560000	 64.5273
9.644000	 64.784
9.728000	 64.7139
9.812000	 64.7541
9.896000	 64.9546
9.980000	 64.632
10.064	64.7455
10.148	64.9392
10.232	64.9066
10.316	64.4531
10.4	64.5761
10.484	64.6462
10.568	64.8065
10.652	64.6874
10.736	64.7461
10.82	64.6402
10.904	64.4809
10.988	64.3741
11.072	64.565
11.156	64.3764
11.24	64.5812
11.324	64.5335
11.408	64.3609
11.492	64.638
11.576	64.6751
11.66	64.4793
11.744	64.4954
11.828	64.549
11.912	64.5144
11.996	64.3831
12.08	64.2862
12.164	64.3628
12.248	64.0712
12.332	64.3442
12.416	64.639
12.5	64.4143
12.584	64.2422
12.668	64.0229
12.752	63.812
12.836	64.0216
12.92	64.1486
13.004	64.238
13.088	64.4782
13.172	64.1411
13.256	63.74
13.34	64.1384
13.424	64.261
13.508	64.0594
13.592	63.8905
13.676	63.708
13.76	63.7008
13.844	63.7155
13.928	63.8347
14.012	63.9071
14.096	63.6376
14.18	63.4207
14.264	63.6255
14.348	63.9404
14.432	64.0066
14.516	63.8203
14.6	63.5272
14.684	63.3327
14.768	63.3342
14.852	63.1926
14.936	62.7216
15.02	62.471
15.104	62.786
15.188	63.1902
15.272	63.2737
15.356	63.1522
15.44	62.9752
15.524	62.8309
15.608	62.8951
15.692	63.0285
15.776	62.9193
15.86	62.7917
15.944	62.9149
16.028	63.0615
16.112	63.0933
16.196	63.1338
16.28	63.1674
16.364	63.1608
16.448	63.2179
16.532	63.3113
16.616	63.1654
16.7	62.6752
16.784	62.2095
16.868	62.1353
16.952	62.3252
17.036	62.469
17.12	62.5241
17.204	62.5327
17.288	62.4066
17.372	62.1677
17.456	62.0571
17.54	62.2038
17.624	62.4327
17.708	62.5157
17.792	62.4288
17.876	62.2988
17.96	62.2228
18.044	62.2229
18.128	62.3181
18.212	62.5077
18.296	62.6928
18.38	62.7296
18.464	62.5941
18.548	62.4293
18.632	62.3502
18.716	62.2926
18.8	62.1021
18.884	61.7326
18.968	61.2835
19.052	60.8626
19.136	60.4806
19.22	60.1067
19.304	59.7926
19.388	59.6903
19.472	59.9361
19.556	60.4858
19.64	61.0967
19.724	61.4978
19.808	61.5847
19.892	61.4492
19.976	61.2741
20.06	61.2071
20.144	61.2727
20.228	61.3701
20.312	61.363
20.396	61.1943
20.48	60.9434
20.564	60.7667
20.648	60.7809
20.732	60.9698
20.816	61.1993
20.9	61.2978
20.984	61.1789
21.068	60.8932
21.152	60.6033
21.236	60.4855
21.32	60.6187
21.404	60.9279
21.488	61.2221
21.572	61.3149
21.656	61.1388
21.74	60.7656
21.824	60.3233
21.908	59.8818
21.992	59.4195
22.076	58.89
22.16	58.3176
22.244	57.8281
22.328	57.5678
22.412	57.5997
22.496	57.8478
22.58	58.1519
22.664	58.3717
22.748	58.4654
22.832	58.4778
22.916	58.4776
23	58.5016
23.084	58.5306
23.168	58.5341
23.252	58.5199
23.336	58.5301
23.42	58.601
23.504	58.7543
23.588	58.9742
23.672	59.2329
23.756	59.5394
23.84	59.9104
23.924	60.352
24.008	60.8527
24.092	61.3867
24.176	61.921
24.26	62.3789
24.344	62.6267
24.428	62.5204
24.512	61.9607
24.596	60.8962
24.68	59.3917
24.764	57.6902
24.848	56.068
24.932	54.9207
25.016	54.6792
25.1	55.7154
25.184	58.0976
25.268	61.4578
25.352	65.111
25.436	68.2193
25.52	70.1914
25.604	70.9255
25.688	70.5865
25.772	69.6045
25.856	68.5458
25.94	68.0291
26.024	68.4061
26.108	69.4649
26.192	70.4609
26.276	70.2421
26.36	67.517
26.444	61.4796
26.528	52.3359
26.612	41.2586
26.696	30.4291
26.78	22.5305
26.864	19.7853
26.948	23.0905
27.028	30.8473