File: Bakgrunnsmateriale/MATLAB/FTIR/ftir_data/subBb/Mapping_121/C-4040-8_t72.asc
PE IR       SPECTRUM    SPECTRUM    ASCII       PEDS        1.60
  -1
C-A142~1.ASC
17/03/27
20:25:52.00
17/03/27
20:26:19.00
tln
$C-4040-8_t0072$<tbV0>[0.0,2.6,8.0,0.0,27,1,0]
27.028
64

2002,4.07
MIRTGS : RIGHTBACK : INTERNAL 2
MIR : ON : INTERNAL 2
OPTKBR

0.200000
8
8.000000
FILLER
RATIO
SPECTRUM
UNLOCKED 256

DOUBLE
64
COMBINED
1
0
0

0.002000
RATIO

1
0
TRUE
51149
0
LEFT NOT FITTED RIGHT NOT FITTED 0
NONE
NONE
15600
12
4.427000
51148
TRUE
1 0 8 72 0 0 0 0

15798

#HDR
-1
-1
#GR
µM
%T
2.38419e-05
0.0
2.000000
0.002000
12515
8
96.6571
43.1466
#DATA
2.000000	 64.9827
2.084000	 65.248
2.168000	 65.0799
2.252000	 64.2387
2.336000	 64.8392
2.420000	 65.2279
2.504000	 65.3736
2.588000	 65.401
2.672000	 65.0964
2.756000	 65.2763
2.840000	 65.4331
2.924000	 65.1943
3.008000	 65.3196
3.092000	 65.0577
3.176000	 65.372
3.260000	 65.4173
3.344000	 65.4123
3.428000	 64.8183
3.512000	 65.3046
3.596000	 65.4717
3.680000	 65.5577
3.764000	 65.4245
3.848000	 65.3692
3.932000	 65.3524
4.016000	 65.5775
4.100000	 65.5133
4.184000	 65.3179
4.268000	 65.2954
4.352000	 65.4013
4.436000	 65.4188
4.520000	 65.4088
4.604000	 65.4012
4.688000	 65.6066
4.772000	 65.4388
4.856000	 65.2545
4.940000	 65.4098
5.024000	 65.2619
5.108000	 65.3056
5.192000	 65.5383
5.276000	 65.4627
5.359999	 65.4532
5.444000	 65.3679
5.528000	 65.5953
5.612000	 65.3955
5.696000	 65.4451
5.780000	 65.2791
5.864000	 65.2936
5.948000	 65.4571
6.032000	 65.372
6.116000	 65.2577
6.200000	 65.1089
6.284000	 65.2171
6.368000	 64.9887
6.452000	 65.0169
6.536000	 65.1927
6.620000	 65.1612
6.704000	 65.2716
6.788000	 65.2358
6.872000	 65.2103
6.956000	 65.2638
7.040000	 65.2874
7.124000	 65.1009
7.208000	 65.2404
7.292000	 65.3365
7.376000	 65.1342
7.460000	 65.2744
7.544000	 65.2098
7.628000	 65.1108
7.712000	 65.1538
7.796000	 65.189
7.880000	 65.1477
7.964000	 65.1236
8.048000	 65.1651
8.132000	 65.0276
8.216000	 65.1639
8.300000	 65.1455
8.384000	 64.8811
8.468000	 65.118
8.552000	 64.8538
8.635999	 64.7634
8.719999	 64.9579
8.804000	 64.9822
8.888000	 64.9379
8.972000	 64.7122
9.056000	 65.1784
9.140000	 65.064
9.224000	 64.8106
9.308000	 65.0214
9.391999	 64.9687
9.475999	 64.871
9.560000	 64.56
9.644000	 64.8092
9.728000	 64.6058
9.812000	 64.6747
9.896000	 64.9957
9.980000	 64.9884
10.064	64.6696
10.148	65.0383
10.232	64.7022
10.316	64.7088
10.4	65.0307
10.484	65.2496
10.568	65.2699
10.652	65.1617
10.736	64.9447
10.82	64.7395
10.904	64.8523
10.988	65.1878
11.072	64.8976
11.156	64.9248
11.24	64.9893
11.324	64.8788
11.408	64.6713
11.492	64.4322
11.576	64.4995
11.66	64.4176
11.744	64.3968
11.828	64.4426
11.912	64.4996
11.996	64.7558
12.08	64.5613
12.164	64.2623
12.248	64.3762
12.332	64.5325
12.416	64.5642
12.5	64.5098
12.584	64.2775
12.668	64.2102
12.752	64.0404
12.836	64.0791
12.92	64.266
13.004	64.2436
13.088	64.335
13.172	64.4748
13.256	64.3172
13.34	64.0087
13.424	64.2277
13.508	64.1032
13.592	63.5032
13.676	63.2601
13.76	63.4214
13.844	63.7133
13.928	63.789
14.012	63.7189
14.096	63.5916
14.18	63.5983
14.264	63.7445
14.348	63.7011
14.432	63.5846
14.516	63.4911
14.6	63.3312
14.684	63.2914
14.768	63.2766
14.852	63.1698
14.936	63.109
15.02	63.0372
15.104	62.9627
15.188	63.0229
15.272	63.1658
15.356	63.2428
15.44	63.1806
15.524	63.0522
15.608	62.94
15.692	62.8408
15.776	62.8548
15.86	63.0974
15.944	63.3389
16.028	63.2308
16.112	62.7997
16.196	62.3101
16.28	61.983
16.364	62.0523
16.448	62.6112
16.532	63.338
16.616	63.7138
16.7	63.524
16.784	63.0423
16.868	62.7341
16.952	62.7594
17.036	62.8805
17.12	62.8758
17.204	62.811
17.288	62.8395
17.372	62.9089
17.456	62.8377
17.54	62.6176
17.624	62.4453
17.708	62.4348
17.792	62.4874
17.876	62.4688
17.96	62.3779
18.044	62.3053
18.128	62.3373
18.212	62.4857
18.296	62.6831
18.38	62.8469
18.464	62.9163
18.548	62.827
18.632	62.539
18.716	62.1402
18.8	61.8596
18.884	61.8675
18.968	62.0931
19.052	62.3042
19.136	62.3553
19.22	62.2922
19.304	62.213
19.388	62.1019
19.472	61.8566
19.556	61.4516
19.64	61.0185
19.724	60.7389
19.808	60.6744
19.892	60.7194
19.976	60.7296
20.06	60.6744
20.144	60.6434
20.228	60.7263
20.312	60.9218
20.396	61.1599
20.48	61.373
20.564	61.5344
20.648	61.6353
20.732	61.6666
20.816	61.6231
20.9	61.5162
20.984	61.357
21.068	61.137
21.152	60.8359
21.236	60.4607
21.32	60.0637
21.404	59.7288
21.488	59.5317
21.572	59.5049
21.656	59.6289
21.74	59.848
21.824	60.1083
21.908	60.3648
21.992	60.565
22.076	60.6445
22.16	60.5396
22.244	60.2494
22.328	59.8661
22.412	59.5473
22.496	59.4491
22.58	59.6223
22.664	60.0036
22.748	60.4592
22.832	60.8721
22.916	61.1805
23	61.3645
23.084	61.3743
23.168	61.127
23.252	60.5557
23.336	59.6475
23.42	58.5224
23.504	57.3997
23.588	56.5228
23.672	56.0573
23.756	56.0381
23.84	56.4148
23.924	57.0859
24.008	57.9396
24.092	58.8811
24.176	59.8527
24.26	60.7465
24.344	61.4078
24.428	61.6569
24.512	61.2324
24.596	59.8654
24.68	57.4272
24.764	54.0941
24.848	50.3665
24.932	46.945
25.016	44.4494
25.1	43.255
25.184	43.3411
25.268	44.2906
25.352	45.5049
25.436	46.308
25.52	46.2194
25.604	45.1493
25.688	43.8147
25.772	43.5053
25.856	45.431
25.94	50.2672
26.024	57.7195
26.108	66.4242
26.192	74.4302
26.276	79.8207
26.36	81.1487
26.444	78.3813
26.528	72.9542
26.612	67.1826
26.696	63.442
26.78	63.2494
26.864	66.9595
26.948	73.9143
27.028	82.5312