File: Bakgrunnsmateriale/MATLAB/FTIR/ftir_data/subBb/Mapping_121/C-4040-8_t35_cm-1.asc
PE IR       SPECTRUM    SPECTRUM    ASCII       PEDS        1.60
  -1
C-1BEE~1.ASC
17/03/27
17:20:50.00
17/03/27
17:20:50.00
tln
$C-4040-8_t0035$<tbV0>[10.4,-5.2,8.0,0.0,27,1,0]
370
64

2002,4.07
MIRTGS : RIGHTBACK : INTERNAL 2
MIR : ON : INTERNAL 2
OPTKBR

0.200000
8
8.000000
FILLER
RATIO
SPECTRUM
UNLOCKED 256

DOUBLE
64
COMBINED
1
0
0

1.000000
RATIO

1
0
TRUE
51149
0
LEFT NOT FITTED RIGHT NOT FITTED 0
NONE
NONE
15600
12
4.427000
51148
TRUE
1 0 8 72 0 0 0 0

15798

#HDR
-1
-1
#GR
CM-1
%T
2.38419e-05
0.0
5000
-1.000000
4631
8
100.926
50.0056
#DATA
5000	64.96
4984	64.4941
4968	65.2659
4952	64.5509
4936	65.057
4920	64.8858
4904	64.8815
4888	64.9305
4872	65.3136
4856	64.9182
4840	65.1891
4824	64.92
4808	64.7978
4792	65.0254
4776	64.8439
4760	65.3285
4744	65.0904
4728	64.6988
4712	64.6858
4696	65.1208
4680	64.6665
4664	65.1484
4648	65.0048
4632	64.8982
4616	64.8654
4600	64.8867
4584	64.7637
4568	65.4524
4552	65.2608
4536	65.4347
4520	64.8899
4504	65.179
4488	65.3512
4472	65.0986
4456	65.5415
4440	65.6029
4424	64.8817
4408	64.9459
4392	65.9543
4376	67.1137
4360	59.6543
4344	66.5064
4328	64.8823
4312	65.5359
4296	65.1916
4280	65.1481
4264	65.6415
4248	65.1241
4232	65.4673
4216	65.1432
4200	64.9857
4184	64.4844
4168	64.4315
4152	65.112
4136	65.2319
4120	65.0083
4104	64.6519
4088	64.9924
4072	65.0223
4056	65.059
4040	65.0944
4024	65.1194
4008	65.079
3992	65.2555
3976	65.0589
3960	65.1982
3944	65.1366
3928	65.0264
3912	64.9485
3896	65.022
3880	65.291
3864	65.0612
3848	65.2822
3832	64.9962
3816	65.2167
3800	65.0733
3784	65.0728
3768	65.0591
3752	65.3744
3736	65.2052
3720	65.3549
3704	65.3677
3688	65.1628
3672	65.0257
3656	65.1425
3640	65.2379
3624	65.269
3608	65.2479
3592	65.1662
3576	65.239
3560	65.078
3544	65.034
3528	65.0543
3512	65.2872
3496	65.2831
3480	65.2546
3464	65.1454
3448	65.4183
3432	65.1785
3416	65.1153
3400	65.1143
3384	65.1416
3368	65.1079
3352	65.3163
3336	65.2948
3320	65.0866
3304	65.3781
3288	65.3281
3272	65.1973
3256	65.3959
3240	65.2445
3224	65.21
3208	65.0695
3192	65.1329
3176	65.26
3160	65.2181
3144	65.293
3128	65.2734
3112	65.3897
3096	65.2331
3080	65.3627
3064	65.2385
3048	65.1102
3032	65.4094
3016	65.3383
3000	65.1002
2984	65.1555
2968	65.3621
2952	65.1693
2936	65.1157
2920	64.8703
2904	65.0547
2888	65.1925
2872	65.3531
2856	64.9792
2840	65.3095
2824	65.2813
2808	65.316
2792	65.3633
2776	65.3213
2760	65.3242
2744	65.3221
2728	65.3907
2712	65.1888
2696	65.3924
2680	65.3121
2664	65.41
2648	65.3673
2632	65.3463
2616	65.2575
2600	65.2228
2584	65.2748
2568	65.3454
2552	65.3919
2536	65.4294
2520	65.3744
2504	65.2046
2488	65.3795
2472	65.3664
2456	65.2962
2440	65.3835
2424	65.3541
2408	65.0702
2392	65.4322
2376	65.2622
2360	65.3498
2344	65.4336
2328	65.3969
2312	65.3898
2296	65.4011
2280	65.35
2264	65.3174
2248	65.4684
2232	65.3261
2216	65.3237
2200	65.4511
2184	65.4172
2168	65.3103
2152	65.3973
2136	65.4597
2120	65.3561
2104	65.4654
2088	65.5096
2072	65.3916
2056	65.5921
2040	65.3027
2024	65.4113
2008	65.514
1992	65.4341
1976	65.3985
1960	65.4933
1944	65.3666
1928	65.4614
1912	65.4081
1896	65.3861
1880	65.3489
1864	65.4216
1848	65.4197
1832	65.3794
1816	65.3716
1800	65.3748
1784	65.3243
1768	65.4343
1752	65.383
1736	65.1939
1720	65.2288
1704	65.3945
1688	65.4119
1672	65.3365
1656	65.3971
1640	65.3794
1624	65.4522
1608	65.3658
1592	65.434
1576	65.3502
1560	65.3523
1544	65.3347
1528	65.3021
1512	65.2055
1496	65.3429
1480	65.2156
1464	65.1893
1448	65.5055
1432	65.1427
1416	65.2025
1400	65.1155
1384	65.2485
1368	64.9261
1352	65.2351
1336	65.2407
1320	65.1422
1304	65.1824
1288	65.1273
1272	65.1499
1256	65.2437
1240	65.1088
1224	65.1944
1208	65.0599
1192	65.0272
1176	65.1554
1160	64.926
1144	65.1352
1128	64.5845
1112	65.0513
1096	64.975
1080	64.9335
1064	64.9831
1048	65.022
1032	65.2258
1016	64.8856
1000	64.6783
984	 65.0123
968	 64.7298
952	 64.9527
936	 64.5969
920	 64.6491
904	 64.7919
888	 64.6289
872	 64.499
856	 64.6644
840	 64.6123
824	 64.5725
808	 64.3851
792	 64.2712
776	 64.2617
760	 64.1866
744	 63.932
728	 64.0971
712	 63.7111
696	 63.5118
680	 63.4036
664	 63.2142
648	 63.2387
632	 63.1146
616	 63.147
600	 62.8777
584	 62.7274
568	 63.2323
552	 62.561
536	 62.1239
520	 61.7151
504	 61.9474
488	 61.7654
472	 61.2207
456	 60.4271
440	 58.4112
424	 54.1325
408	 50.7802
392	 78.7613
376	 61.6213
370	 60.0086