File: Bakgrunnsmateriale/MATLAB/FTIR/ftir_data/subBb/Mapping_121/C-4040-8_t01.asc
PE IR       SPECTRUM    SPECTRUM    ASCII       PEDS        1.60
  -1
C-4040~4.ASC
17/03/27
14:35:34.00
17/03/27
14:36:00.00
tln
$C-4040-8_t0001$<tbV0>[13.0,-13.0,8.0,0.0,27,1,0]
27.028
64

2002,4.07
MIRTGS : RIGHTBACK : INTERNAL 2
MIR : ON : INTERNAL 2
OPTKBR

0.200000
8
8.000000
FILLER
RATIO
SPECTRUM
UNLOCKED 256

DOUBLE
64
COMBINED
1
0
0

0.002000
RATIO

1
0
TRUE
51149
0
LEFT NOT FITTED RIGHT NOT FITTED 0
NONE
NONE
15600
12
4.427000
51148
TRUE
1 0 8 72 0 0 0 0

15798

#HDR
-1
-1
#GR
µM
%T
2.38419e-05
0.0
2.000000
0.002000
12515
8
70.1284
36.6913
#DATA
2.000000	 62.916
2.084000	 64.5498
2.168000	 65.5187
2.252000	 45.7563
2.336000	 65.3138
2.420000	 64.8206
2.504000	 65.1549
2.588000	 65.3856
2.672000	 65.2045
2.756000	 64.9984
2.840000	 65.2601
2.924000	 64.8581
3.008000	 65.0997
3.092000	 65.0822
3.176000	 64.9716
3.260000	 65.1512
3.344000	 65.0433
3.428000	 64.9265
3.512000	 65.0141
3.596000	 65.1448
3.680000	 65.1491
3.764000	 65.1576
3.848000	 65.1721
3.932000	 65.3034
4.016000	 65.1417
4.100000	 65.1487
4.184000	 65.2166
4.268000	 65.0289
4.352000	 65.2183
4.436000	 65.2052
4.520000	 65.3532
4.604000	 65.2569
4.688000	 65.2673
4.772000	 65.1667
4.856000	 65.1387
4.940000	 65.2746
5.024000	 65.1703
5.108000	 65.2844
5.192000	 65.163
5.276000	 65.2643
5.359999	 65.1311
5.444000	 65.0634
5.528000	 65.2111
5.612000	 65.3681
5.696000	 65.3544
5.780000	 65.1094
5.864000	 65.241
5.948000	 65.2155
6.032000	 65.4158
6.116000	 65.2867
6.200000	 65.1802
6.284000	 65.0713
6.368000	 65.1553
6.452000	 65.2164
6.536000	 65.1282
6.620000	 65.2511
6.704000	 65.2495
6.788000	 65.1184
6.872000	 65.3631
6.956000	 65.3244
7.040000	 65.17
7.124000	 65.0026
7.208000	 65.1831
7.292000	 65.0681
7.376000	 65.0522
7.460000	 64.9834
7.544000	 65.0484
7.628000	 64.941
7.712000	 64.9779
7.796000	 64.9514
7.880000	 64.8901
7.964000	 64.9383
8.048000	 64.9823
8.132000	 65.0614
8.216000	 64.9913
8.300000	 65.0431
8.384000	 64.9618
8.468000	 64.958
8.552000	 64.9354
8.635999	 64.9524
8.719999	 64.927
8.804000	 64.8427
8.888000	 64.7233
8.972000	 64.8269
9.056000	 64.8152
9.140000	 64.6175
9.224000	 64.763
9.308000	 64.5632
9.391999	 64.7368
9.475999	 64.8494
9.560000	 64.8097
9.644000	 64.708
9.728000	 64.6396
9.812000	 64.7006
9.896000	 64.818
9.980000	 64.8919
10.064	64.7592
10.148	64.8018
10.232	64.6373
10.316	64.4647
10.4	64.6324
10.484	64.5128
10.568	64.5285
10.652	64.6281
10.736	64.4897
10.82	64.4673
10.904	64.492
10.988	64.4845
11.072	64.3283
11.156	64.3609
11.24	64.4565
11.324	64.3373
11.408	64.4727
11.492	64.4514
11.576	64.4924
11.66	64.5262
11.744	64.6948
11.828	64.4422
11.912	64.1817
11.996	63.9814
12.08	63.9398
12.164	64.1293
12.248	64.4052
12.332	64.1529
12.416	63.9274
12.5	63.94
12.584	64.0084
12.668	64.1414
12.752	64.1978
12.836	64.1354
12.92	64.0769
13.004	63.9477
13.088	63.9046
13.172	63.9676
13.256	64.0294
13.34	64.0769
13.424	63.8892
13.508	63.3884
13.592	63.1385
13.676	63.4114
13.76	63.595
13.844	63.5427
13.928	63.4975
14.012	63.4475
14.096	63.3693
14.18	63.1463
14.264	63.0205
14.348	63.2193
14.432	63.2853
14.516	63.0696
14.6	62.8682
14.684	62.7138
14.768	62.5841
14.852	62.6168
14.936	62.8415
15.02	63.0392
15.104	63.0566
15.188	63.095
15.272	63.2227
15.356	63.3067
15.44	63.3956
15.524	63.3685
15.608	63.1185
15.692	62.9831
15.776	63.0263
15.86	62.9899
15.944	62.9941
16.028	63.1184
16.112	63.0482
16.196	62.7046
16.28	62.4113
16.364	62.3823
16.448	62.5072
16.532	62.5663
16.616	62.5497
16.7	62.6216
16.784	62.7634
16.868	62.8112
16.952	62.7165
17.036	62.4491
17.12	61.9567
17.204	61.4798
17.288	61.4551
17.372	61.9468
17.456	62.4848
17.54	62.5846
17.624	62.3237
17.708	62.2005
17.792	62.4573
17.876	62.7771
17.96	62.747
18.044	62.414
18.128	62.1925
18.212	62.2833
18.296	62.4727
18.38	62.4687
18.464	62.2195
18.548	61.8609
18.632	61.5515
18.716	61.3998
18.8	61.4118
18.884	61.4117
18.968	61.1718
19.052	60.7022
19.136	60.2946
19.22	60.2393
19.304	60.5551
19.388	61.0153
19.472	61.3429
19.556	61.3349
19.64	60.9305
19.724	60.2788
19.808	59.7306
19.892	59.6309
19.976	60.0615
20.06	60.7799
20.144	61.404
20.228	61.677
20.312	61.582
20.396	61.2806
20.48	60.9853
20.564	60.8616
20.648	60.9786
20.732	61.2888
20.816	61.6581
20.9	61.901
20.984	61.8308
21.068	61.3498
21.152	60.5211
21.236	59.575
21.32	58.8037
21.404	58.389
21.488	58.3088
21.572	58.3841
21.656	58.434
21.74	58.3848
21.824	58.2548
21.908	58.0743
21.992	57.8445
22.076	57.5755
22.16	57.3475
22.244	57.2875
22.328	57.4709
22.412	57.831
22.496	58.1532
22.58	58.2264
22.664	57.9668
22.748	57.4783
22.832	56.969
22.916	56.6342
23	56.5463
23.084	56.6879
23.168	57.0005
23.252	57.4294
23.336	57.935
23.42	58.5387
23.504	59.2294
23.588	59.9651
23.672	60.6985
23.756	61.3729
23.84	61.907
23.924	62.1613
24.008	61.9798
24.092	61.2646
24.176	60.0482
24.26	58.5065
24.344	56.9976
24.428	55.9797
24.512	55.9564
24.596	57.2149
24.68	59.4823
24.764	61.7962
24.848	62.8451
24.932	61.4892
25.016	57.4655
25.1	51.5729
25.184	45.3606
25.268	40.3644
25.352	37.447
25.436	36.6994
25.52	37.4985
25.604	38.9586
25.688	40.2509
25.772	40.9296
25.856	41.0131
25.94	40.9004
26.024	41.1642
26.108	42.2275
26.192	44.1889
26.276	46.7702
26.36	49.3803
26.444	51.3913
26.528	52.4059
26.612	52.3873
26.696	51.6557
26.78	50.775
26.864	50.2728
26.948	50.3619
27.028	50.7752