File: Bakgrunnsmateriale/MATLAB/FTIR/ftir_data/subBb/Mapping_121/C-4040-8_t13.asc
PE IR       SPECTRUM    SPECTRUM    ASCII       PEDS        1.60
  -1
C-A926~1.ASC
17/03/27
15:31:33.00
17/03/27
15:31:59.00
tln
$C-4040-8_t0013$<tbV0>[10.4,-10.4,8.0,0.0,27,1,0]
27.028
64

2002,4.07
MIRTGS : RIGHTBACK : INTERNAL 2
MIR : ON : INTERNAL 2
OPTKBR

0.200000
8
8.000000
FILLER
RATIO
SPECTRUM
UNLOCKED 256

DOUBLE
64
COMBINED
1
0
0

0.002000
RATIO

1
0
TRUE
51149
0
LEFT NOT FITTED RIGHT NOT FITTED 0
NONE
NONE
15600
12
4.427000
51148
TRUE
1 0 8 72 0 0 0 0

15798

#HDR
-1
-1
#GR
µM
%T
2.38419e-05
0.0
2.000000
0.002000
12515
8
77.2942
31.798
#DATA
2.000000	 63.8203
2.084000	 63.841
2.168000	 64.0031
2.252000	 66.3885
2.336000	 63.1577
2.420000	 63.5861
2.504000	 63.8071
2.588000	 63.4322
2.672000	 63.5977
2.756000	 63.2808
2.840000	 62.8638
2.924000	 62.3992
3.008000	 62.3695
3.092000	 62.25
3.176000	 61.8627
3.260000	 61.9012
3.344000	 61.5194
3.428000	 61.0289
3.512000	 61.0462
3.596000	 60.9611
3.680000	 60.651
3.764000	 60.3416
3.848000	 60.0495
3.932000	 59.9304
4.016000	 59.6143
4.100000	 59.5791
4.184000	 59.2307
4.268000	 59.0096
4.352000	 58.9391
4.436000	 58.7571
4.520000	 58.462
4.604000	 58.3028
4.688000	 57.8947
4.772000	 57.9065
4.856000	 57.7582
4.940000	 57.4507
5.024000	 57.4143
5.108000	 57.3213
5.192000	 57.1131
5.276000	 56.9746
5.359999	 56.684
5.444000	 56.5908
5.528000	 56.6202
5.612000	 56.534
5.696000	 56.3627
5.780000	 56.2
5.864000	 56.1401
5.948000	 55.8889
6.032000	 55.9689
6.116000	 55.7227
6.200000	 55.5137
6.284000	 55.3437
6.368000	 55.2825
6.452000	 55.336
6.536000	 55.1688
6.620000	 55.297
6.704000	 55.052
6.788000	 54.9261
6.872000	 54.8093
6.956000	 54.7194
7.040000	 54.4937
7.124000	 54.4395
7.208000	 54.266
7.292000	 54.1816
7.376000	 54.129
7.460000	 54.0508
7.544000	 53.925
7.628000	 53.8419
7.712000	 53.7991
7.796000	 53.7639
7.880000	 53.6297
7.964000	 53.7876
8.048000	 53.5871
8.132000	 53.5137
8.216000	 53.4539
8.300000	 53.3764
8.384000	 53.3181
8.468000	 53.1335
8.552000	 53.051
8.635999	 53.0782
8.719999	 53.0464
8.804000	 53.0207
8.888000	 52.9724
8.972000	 52.9993
9.056000	 52.8485
9.140000	 52.6315
9.224000	 52.7265
9.308000	 52.4267
9.391999	 52.522
9.475999	 52.7175
9.560000	 52.6567
9.644000	 52.7046
9.728000	 52.6458
9.812000	 52.4838
9.896000	 52.5679
9.980000	 52.3661
10.064	52.3933
10.148	52.3492
10.232	52.2665
10.316	52.3753
10.4	52.0961
10.484	51.8503
10.568	51.8254
10.652	51.8006
10.736	51.7635
10.82	51.5436
10.904	51.5797
10.988	52.1197
11.072	50.9359
11.156	50.9556
11.24	51.5518
11.324	51.3454
11.408	51.5882
11.492	51.3844
11.576	51.3526
11.66	51.2839
11.744	51.2045
11.828	51.1939
11.912	51.1829
11.996	51.1939
12.08	51.15
12.164	51.3458
12.248	51.3585
12.332	51.2106
12.416	51.1387
12.5	51.1046
12.584	51.0665
12.668	51.222
12.752	51.2931
12.836	51.2091
12.92	51.018
13.004	50.8435
13.088	50.7468
13.172	50.5398
13.256	50.6257
13.34	50.812
13.424	50.603
13.508	50.2668
13.592	50.2476
13.676	50.2988
13.76	50.1945
13.844	50.2904
13.928	50.4305
14.012	50.35
14.096	50.241
14.18	50.1647
14.264	50.1634
14.348	50.2411
14.432	50.1507
14.516	49.9107
14.6	49.6843
14.684	49.4646
14.768	49.2286
14.852	49.0846
14.936	49.2079
15.02	49.4425
15.104	49.5397
15.188	49.6106
15.272	49.6817
15.356	49.6248
15.44	49.5487
15.524	49.4997
15.608	49.3867
15.692	49.3098
15.776	49.3302
15.86	49.3313
15.944	49.2308
16.028	49.0573
16.112	48.9826
16.196	49.1472
16.28	49.3156
16.364	49.1338
16.448	48.7232
16.532	48.5506
16.616	48.6944
16.7	48.8036
16.784	48.7314
16.868	48.6332
16.952	48.6305
17.036	48.7228
17.12	48.8446
17.204	48.8619
17.288	48.6801
17.372	48.3886
17.456	48.1571
17.54	48.0176
17.624	47.9122
17.708	47.8681
17.792	47.9459
17.876	48.0832
17.96	48.1356
18.044	48.0674
18.128	47.9922
18.212	47.9902
18.296	48.008
18.38	47.9655
18.464	47.8577
18.548	47.7226
18.632	47.5952
18.716	47.5197
18.8	47.522
18.884	47.5228
18.968	47.3813
19.052	47.0662
19.136	46.7335
19.22	46.5672
19.304	46.5885
19.388	46.6762
19.472	46.7338
19.556	46.7557
19.64	46.7704
19.724	46.8131
19.808	46.9654
19.892	47.3402
19.976	47.9417
20.06	48.5666
20.144	48.9061
20.228	48.7917
20.312	48.3208
20.396	47.7688
20.48	47.4064
20.564	47.3676
20.648	47.6145
20.732	47.9808
20.816	48.2635
20.9	48.2969
20.984	47.9902
21.068	47.3576
21.152	46.5141
21.236	45.6495
21.32	44.9588
21.404	44.5449
21.488	44.3804
21.572	44.3432
21.656	44.3161
21.74	44.2581
21.824	44.1876
21.908	44.1222
21.992	44.0579
22.076	44.0056
22.16	44.0377
22.244	44.2816
22.328	44.8203
22.412	45.5935
22.496	46.3693
22.58	46.853
22.664	46.8328
22.748	46.3133
22.832	45.5091
22.916	44.7384
23	44.2695
23.084	44.2099
23.168	44.4826
23.252	44.8987
23.336	45.2459
23.42	45.3919
23.504	45.319
23.588	45.1287
23.672	44.9802
23.756	45.0347
23.84	45.3731
23.924	45.9706
24.008	46.6865
24.092	47.2839
24.176	47.5164
24.26	47.2623
24.344	46.5392
24.428	45.4844
24.512	44.3446
24.596	43.372
24.68	42.7513
24.764	42.5491
24.848	42.6995
24.932	43.1004
25.016	43.6828
25.1	44.4118
25.184	45.2227
25.268	46.025
25.352	46.7436
25.436	47.4962
25.52	48.5755
25.604	50.2609
25.688	52.487
25.772	54.6614
25.856	55.8531
25.94	55.2336
26.024	52.5047
26.108	48.1766
26.192	43.2628
26.276	38.8558
26.36	35.7248
26.444	34.0975
26.528	33.6792
26.612	33.9376
26.696	34.2758
26.78	34.2369
26.864	33.6714
26.948	32.7375
27.028	31.798