File: Bakgrunnsmateriale/MATLAB/FTIR/ftir_data/subBb/Mapping_121/C-4040-8_t99.asc
PE IR       SPECTRUM    SPECTRUM    ASCII       PEDS        1.60
  -1
C-C94E~1.ASC
17/03/27
22:37:33.00
17/03/27
22:37:59.00
tln
$C-4040-8_t0099$<tbV0>[-13.0,7.8,8.0,0.0,27,1,0]
27.028
64

2002,4.07
MIRTGS : RIGHTBACK : INTERNAL 2
MIR : ON : INTERNAL 2
OPTKBR

0.200000
8
8.000000
FILLER
RATIO
SPECTRUM
UNLOCKED 256

DOUBLE
64
COMBINED
1
0
0

0.002000
RATIO

1
0
TRUE
51149
0
LEFT NOT FITTED RIGHT NOT FITTED 0
NONE
NONE
15600
12
4.427000
51148
TRUE
1 0 8 72 0 0 0 0

15798

#HDR
-1
-1
#GR
µM
%T
2.38419e-05
0.0
2.000000
0.002000
12515
8
174.588
49.0296
#DATA
2.000000	 65.202
2.084000	 65.342
2.168000	 64.6559
2.252000	 63.179
2.336000	 63.8211
2.420000	 65.0921
2.504000	 64.9608
2.588000	 64.825
2.672000	 65.0642
2.756000	 65.1138
2.840000	 65.2273
2.924000	 64.9665
3.008000	 64.9053
3.092000	 65.0661
3.176000	 65.0358
3.260000	 64.9998
3.344000	 65.1399
3.428000	 64.6812
3.512000	 64.8855
3.596000	 65.0705
3.680000	 65.173
3.764000	 65.107
3.848000	 64.9765
3.932000	 65.1428
4.016000	 65.1503
4.100000	 65.1863
4.184000	 65.1146
4.268000	 65.2145
4.352000	 65.2625
4.436000	 65.2734
4.520000	 65.1401
4.604000	 65.2502
4.688000	 65.2707
4.772000	 65.0464
4.856000	 65.3108
4.940000	 65.1459
5.024000	 65.1458
5.108000	 65.2897
5.192000	 65.265
5.276000	 65.1111
5.359999	 65.1866
5.444000	 65.2879
5.528000	 65.228
5.612000	 65.2005
5.696000	 65.1467
5.780000	 64.8521
5.864000	 65.2806
5.948000	 65.1437
6.032000	 65.1464
6.116000	 65.1541
6.200000	 65.0275
6.284000	 64.9712
6.368000	 64.8628
6.452000	 65.0091
6.536000	 64.9754
6.620000	 65.0225
6.704000	 65.0803
6.788000	 65.0473
6.872000	 64.9342
6.956000	 65.0728
7.040000	 64.8515
7.124000	 65.2068
7.208000	 64.9207
7.292000	 64.8643
7.376000	 65.0064
7.460000	 64.9326
7.544000	 64.9539
7.628000	 64.8221
7.712000	 65.0026
7.796000	 64.8118
7.880000	 64.777
7.964000	 64.9405
8.048000	 64.963
8.132000	 64.8161
8.216000	 64.8572
8.300000	 64.7715
8.384000	 64.9086
8.468000	 64.8546
8.552000	 64.962
8.635999	 64.8222
8.719999	 64.7519
8.804000	 64.7668
8.888000	 64.5724
8.972000	 64.7636
9.056000	 64.6657
9.140000	 64.5896
9.224000	 64.2593
9.308000	 64.5765
9.391999	 64.66
9.475999	 64.4917
9.560000	 64.8684
9.644000	 64.409
9.728000	 64.6126
9.812000	 64.8759
9.896000	 64.2921
9.980000	 64.6315
10.064	64.6385
10.148	64.6363
10.232	64.3997
10.316	64.3843
10.4	64.5491
10.484	64.3686
10.568	64.3448
10.652	64.4486
10.736	64.1691
10.82	64.6569
10.904	64.9302
10.988	64.6771
11.072	64.148
11.156	64.086
11.24	64.6041
11.324	64.2056
11.408	64.2802
11.492	64.5647
11.576	64.5398
11.66	64.4419
11.744	64.3079
11.828	64.1442
11.912	64.0806
11.996	64.3155
12.08	64.4338
12.164	64.2894
12.248	64.3726
12.332	64.3442
12.416	64.0936
12.5	64.0247
12.584	64.053
12.668	63.7988
12.752	63.5712
12.836	63.5935
12.92	63.6898
13.004	63.8781
13.088	64.0906
13.172	64.2591
13.256	63.9903
13.34	63.5167
13.424	63.6218
13.508	63.7532
13.592	63.8488
13.676	63.9171
13.76	63.7159
13.844	63.4512
13.928	63.446
14.012	63.5081
14.096	63.3268
14.18	62.9817
14.264	62.9482
14.348	63.2005
14.432	63.4655
14.516	63.5168
14.6	63.3582
14.684	63.28
14.768	63.2662
14.852	63.165
14.936	62.9497
15.02	62.874
15.104	63.0365
15.188	62.9983
15.272	62.7103
15.356	62.5602
15.44	62.5703
15.524	62.6217
15.608	62.679
15.692	62.6718
15.776	62.6364
15.86	62.6506
15.944	62.7684
16.028	62.9835
16.112	63.025
16.196	62.7089
16.28	62.407
16.364	62.4794
16.448	62.654
16.532	62.5305
16.616	62.2133
16.7	62.0582
16.784	62.1527
16.868	62.3079
16.952	62.3548
17.036	62.3163
17.12	62.3159
17.204	62.407
17.288	62.5732
17.372	62.7566
17.456	62.8316
17.54	62.7099
17.624	62.4802
17.708	62.3274
17.792	62.3536
17.876	62.5562
17.96	62.8316
18.044	62.9702
18.128	62.8113
18.212	62.4415
18.296	62.1155
18.38	61.9763
18.464	61.984
18.548	62.0517
18.632	62.0907
18.716	61.9874
18.8	61.669
18.884	61.2159
18.968	60.8369
19.052	60.7058
19.136	60.8377
19.22	61.1164
19.304	61.4157
19.388	61.6888
19.472	61.9503
19.556	62.1799
19.64	62.2727
19.724	62.1323
19.808	61.7967
19.892	61.4327
19.976	61.1948
20.06	61.0964
20.144	61.0366
20.228	60.9391
20.312	60.8446
20.396	60.8503
20.48	60.9811
20.564	61.1364
20.648	61.1699
20.732	61.0194
20.816	60.7569
20.9	60.5136
20.984	60.377
21.068	60.3398
21.152	60.3363
21.236	60.3075
21.32	60.2343
21.404	60.127
21.488	59.9941
21.572	59.8509
21.656	59.755
21.74	59.7931
21.824	60.0109
21.908	60.3327
21.992	60.5848
22.076	60.6046
22.16	60.3362
22.244	59.8644
22.328	59.3386
22.412	58.8836
22.496	58.5567
22.58	58.3709
22.664	58.335
22.748	58.4517
22.832	58.6803
22.916	58.9151
23	59.0109
23.084	58.8735
23.168	58.4598
23.252	57.7893
23.336	56.9658
23.42	56.1244
23.504	55.383
23.588	54.8552
23.672	54.6292
23.756	54.6955
23.84	54.9522
23.924	55.2571
24.008	55.5022
24.092	55.6427
24.176	55.6749
24.26	55.5931
24.344	55.3976
24.428	55.1678
24.512	55.1171
24.596	55.726
24.68	57.5076
24.764	60.6057
24.848	64.8027
24.932	69.1783
25.016	72.2824
25.1	72.524
25.184	69.1972
25.268	63.1538
25.352	56.5392
25.436	51.5456
25.52	49.2396
25.604	49.2953
25.688	50.8141
25.772	53.0938
25.856	56.0085
25.94	58.8886
26.024	60.4721
26.108	59.3913
26.192	56.6586
26.276	55.7675
26.36	62.2635
26.444	79.6138
26.528	106.807
26.612	137.388
26.696	162.432
26.78	174.165
26.864	169.741
26.948	152.052
27.028	129.203