File: Bakgrunnsmateriale/MATLAB/FTIR/ftir_data/subBb/Mapping_121/C-4040-8_t88.asc
PE IR       SPECTRUM    SPECTRUM    ASCII       PEDS        1.60
  -1
C-C54A~1.ASC
17/03/27
21:40:19.00
17/03/27
21:40:45.00
tln
$C-4040-8_t0088$<tbV0>[-13.0,5.2,8.0,0.0,27,1,0]
27.028
64

2002,4.07
MIRTGS : RIGHTBACK : INTERNAL 2
MIR : ON : INTERNAL 2
OPTKBR

0.200000
8
8.000000
FILLER
RATIO
SPECTRUM
UNLOCKED 256

DOUBLE
64
COMBINED
1
0
0

0.002000
RATIO

1
0
TRUE
51149
0
LEFT NOT FITTED RIGHT NOT FITTED 0
NONE
NONE
15600
12
4.427000
51148
TRUE
1 0 8 72 0 0 0 0

15798

#HDR
-1
-1
#GR
µM
%T
2.38419e-05
0.0
2.000000
0.002000
12515
8
122.674
39.4678
#DATA
2.000000	 64.3538
2.084000	 64.9416
2.168000	 65.0631
2.252000	 63.0634
2.336000	 63.5952
2.420000	 65.0263
2.504000	 65.0708
2.588000	 65.0448
2.672000	 65.07
2.756000	 65.1798
2.840000	 65.1572
2.924000	 65.3367
3.008000	 65.1015
3.092000	 65.0983
3.176000	 65.331
3.260000	 65.2472
3.344000	 65.0396
3.428000	 64.6316
3.512000	 65.1137
3.596000	 65.3712
3.680000	 65.481
3.764000	 65.2612
3.848000	 65.2504
3.932000	 65.1747
4.016000	 65.2576
4.100000	 65.3349
4.184000	 65.3896
4.268000	 65.3422
4.352000	 65.3241
4.436000	 65.2977
4.520000	 65.3771
4.604000	 65.2274
4.688000	 65.2217
4.772000	 65.255
4.856000	 65.3342
4.940000	 65.4175
5.024000	 65.2998
5.108000	 65.2686
5.192000	 65.3785
5.276000	 65.2989
5.359999	 65.3296
5.444000	 65.363
5.528000	 65.3591
5.612000	 65.2721
5.696000	 65.2421
5.780000	 65.1867
5.864000	 65.1011
5.948000	 65.3509
6.032000	 65.1344
6.116000	 65.0796
6.200000	 65.1191
6.284000	 65.0905
6.368000	 65.1072
6.452000	 64.9759
6.536000	 65.0777
6.620000	 65.0827
6.704000	 65.2536
6.788000	 65.0355
6.872000	 65.1778
6.956000	 65.1994
7.040000	 65.1769
7.124000	 65.2856
7.208000	 65.1386
7.292000	 65.1753
7.376000	 65.0564
7.460000	 65.2398
7.544000	 64.9847
7.628000	 65.0064
7.712000	 64.9652
7.796000	 65.0139
7.880000	 65.0391
7.964000	 64.9424
8.048000	 65.088
8.132000	 64.9165
8.216000	 64.9006
8.300000	 65.087
8.384000	 64.8364
8.468000	 64.9065
8.552000	 64.7668
8.635999	 64.8989
8.719999	 64.7575
8.804000	 64.9564
8.888000	 64.938
8.972000	 65.0464
9.056000	 65.1951
9.140000	 64.7939
9.224000	 64.9013
9.308000	 64.9204
9.391999	 64.9726
9.475999	 64.8851
9.560000	 64.7607
9.644000	 64.679
9.728000	 64.6509
9.812000	 64.7874
9.896000	 64.7928
9.980000	 64.9753
10.064	64.8969
10.148	64.8356
10.232	64.7288
10.316	64.9625
10.4	64.8315
10.484	65.1792
10.568	64.939
10.652	65.0091
10.736	64.8234
10.82	64.6252
10.904	64.6022
10.988	64.0921
11.072	64.496
11.156	64.4944
11.24	64.6893
11.324	64.9334
11.408	64.7606
11.492	64.827
11.576	64.3287
11.66	64.1254
11.744	64.3858
11.828	64.5827
11.912	64.639
11.996	64.8208
12.08	64.7299
12.164	64.4948
12.248	64.4716
12.332	64.3661
12.416	64.2568
12.5	64.4236
12.584	64.2923
12.668	64.036
12.752	64.0172
12.836	64.2388
12.92	64.3191
13.004	64.1954
13.088	64.2258
13.172	64.1045
13.256	64.0213
13.34	63.7912
13.424	63.7999
13.508	64.0362
13.592	63.8113
13.676	64.0224
13.76	64.0715
13.844	63.9722
13.928	64.1726
14.012	63.9947
14.096	63.5932
14.18	63.4409
14.264	63.5313
14.348	63.5729
14.432	63.4784
14.516	63.422
14.6	63.4
14.684	63.4694
14.768	63.5178
14.852	63.4421
14.936	63.4255
15.02	63.3748
15.104	63.1039
15.188	62.8491
15.272	62.8706
15.356	63.0326
15.44	63.1231
15.524	63.1276
15.608	63.028
15.692	62.861
15.776	62.8799
15.86	63.0805
15.944	63.0632
16.028	62.7678
16.112	62.5539
16.196	62.5648
16.28	62.7329
16.364	63.0673
16.448	63.4522
16.532	63.5611
16.616	63.3004
16.7	62.9658
16.784	62.8162
16.868	62.8229
16.952	62.8362
17.036	62.8216
17.12	62.8652
17.204	62.9824
17.288	63.0343
17.372	62.8978
17.456	62.6304
17.54	62.4098
17.624	62.3601
17.708	62.4456
17.792	62.52
17.876	62.5053
17.96	62.4842
18.044	62.5778
18.128	62.7788
18.212	62.9317
18.296	62.8897
18.38	62.6793
18.464	62.4821
18.548	62.4312
18.632	62.4563
18.716	62.4078
18.8	62.2613
18.884	62.0997
18.968	61.9469
19.052	61.7567
19.136	61.5697
19.22	61.5422
19.304	61.7607
19.388	62.0998
19.472	62.3385
19.556	62.3524
19.64	62.1845
19.724	61.9604
19.808	61.7863
19.892	61.7016
19.976	61.6828
20.06	61.6718
20.144	61.6134
20.228	61.4926
20.312	61.3434
20.396	61.2309
20.48	61.2211
20.564	61.361
20.648	61.6467
20.732	62.0008
20.816	62.292
20.9	62.3845
20.984	62.2012
21.068	61.7663
21.152	61.1898
21.236	60.6112
21.32	60.1329
21.404	59.8022
21.488	59.6532
21.572	59.7316
21.656	60.0765
21.74	60.647
21.824	61.2846
21.908	61.7601
21.992	61.896
22.076	61.6665
22.16	61.209
22.244	60.7441
22.328	60.4405
22.412	60.3547
22.496	60.4322
22.58	60.5805
22.664	60.7366
22.748	60.8605
22.832	60.8856
22.916	60.7422
23	60.3528
23.084	59.6886
23.168	58.8152
23.252	57.8641
23.336	56.9778
23.42	56.2787
23.504	55.8506
23.588	55.7028
23.672	55.7679
23.756	55.9166
23.84	56.0055
23.924	55.9506
24.008	55.811
24.092	55.8449
24.176	56.4616
24.26	58.0427
24.344	60.73
24.428	64.2314
24.512	67.7924
24.596	70.4451
24.68	71.3163
24.764	70.018
24.848	66.8535
24.932	62.8223
25.016	59.2299
25.1	57.1311
25.184	57.0496
25.268	58.7596
25.352	61.5026
25.436	64.2268
25.52	66.1419
25.604	67.0563
25.688	67.269
25.772	67.316
25.856	67.5821
25.94	68.1383
26.024	68.6314
26.108	68.4161
26.192	67.0013
26.276	64.3221
26.36	60.8847
26.444	57.5494
26.528	55.0821
26.612	53.6514
26.696	52.7931
26.78	51.6048
26.864	49.1301
26.948	44.891
27.028	39.4678