File: Bakgrunnsmateriale/MATLAB/FTIR/ftir_data/subBb/Mapping_121/C-4040-8_t104.asc
PE IR       SPECTRUM    SPECTRUM    ASCII       PEDS        1.60
  -1
C-8CC6~1.ASC
17/03/27
23:01:15.00
17/03/27
23:01:41.00
tln
$C-4040-8_t0104$<tbV0>[2.6,10.4,8.0,0.0,27,1,0]
27.028
64

2002,4.07
MIRTGS : RIGHTBACK : INTERNAL 2
MIR : ON : INTERNAL 2
OPTKBR

0.200000
8
8.000000
FILLER
RATIO
SPECTRUM
UNLOCKED 256

DOUBLE
64
COMBINED
1
0
0

0.002000
RATIO

1
0
TRUE
51149
0
LEFT NOT FITTED RIGHT NOT FITTED 0
NONE
NONE
15600
12
4.427000
51148
TRUE
1 0 8 72 0 0 0 0

15798

#HDR
-1
-1
#GR
µM
%T
2.38419e-05
0.0
2.000000
0.002000
12515
8
201.36
53.3775
#DATA
2.000000	 65.2866
2.084000	 65.1871
2.168000	 65.6498
2.252000	 64.4384
2.336000	 64.8769
2.420000	 65.0386
2.504000	 64.9186
2.588000	 65.4156
2.672000	 65.254
2.756000	 65.2929
2.840000	 65.1673
2.924000	 65.2956
3.008000	 65.2009
3.092000	 65.177
3.176000	 65.1631
3.260000	 65.212
3.344000	 65.2986
3.428000	 64.8287
3.512000	 64.8791
3.596000	 65.3572
3.680000	 65.4957
3.764000	 65.3133
3.848000	 65.3208
3.932000	 65.4337
4.016000	 65.3428
4.100000	 65.1364
4.184000	 65.2537
4.268000	 65.248
4.352000	 65.3454
4.436000	 65.3729
4.520000	 65.3578
4.604000	 65.3786
4.688000	 65.4281
4.772000	 65.3373
4.856000	 65.3116
4.940000	 65.2475
5.024000	 65.2859
5.108000	 65.287
5.192000	 65.4374
5.276000	 65.3731
5.359999	 65.2546
5.444000	 65.3538
5.528000	 65.3133
5.612000	 65.3533
5.696000	 64.9926
5.780000	 64.944
5.864000	 65.2341
5.948000	 65.2312
6.032000	 65.2246
6.116000	 65.1985
6.200000	 65.1228
6.284000	 65.146
6.368000	 64.9869
6.452000	 65.1864
6.536000	 65.0997
6.620000	 65.212
6.704000	 65.1446
6.788000	 65.1247
6.872000	 65.2204
6.956000	 65.2732
7.040000	 65.0586
7.124000	 65.1969
7.208000	 64.998
7.292000	 64.9864
7.376000	 65.061
7.460000	 65.0164
7.544000	 65.1984
7.628000	 64.8968
7.712000	 65.1256
7.796000	 64.9121
7.880000	 64.9026
7.964000	 64.973
8.048000	 65.1155
8.132000	 65.0253
8.216000	 64.8887
8.300000	 64.951
8.384000	 65.0377
8.468000	 64.9832
8.552000	 65.0656
8.635999	 64.9884
8.719999	 64.8455
8.804000	 64.7889
8.888000	 64.8158
8.972000	 64.9596
9.056000	 64.8729
9.140000	 64.6278
9.224000	 64.8886
9.308000	 64.7566
9.391999	 64.8091
9.475999	 64.7173
9.560000	 64.9757
9.644000	 64.6883
9.728000	 64.6959
9.812000	 64.5438
9.896000	 64.5144
9.980000	 64.4602
10.064	64.4383
10.148	64.6634
10.232	64.6944
10.316	64.6974
10.4	64.6226
10.484	64.5328
10.568	64.7068
10.652	64.5916
10.736	64.7687
10.82	65.1191
10.904	64.5817
10.988	64.4779
11.072	64.0875
11.156	64.4579
11.24	64.037
11.324	64.4208
11.408	64.4185
11.492	64.2339
11.576	64.5598
11.66	64.5515
11.744	64.3735
11.828	63.9622
11.912	63.7005
11.996	63.94
12.08	64.3546
12.164	64.6802
12.248	64.7582
12.332	64.3505
12.416	63.9983
12.5	63.9422
12.584	63.9919
12.668	63.8488
12.752	63.9331
12.836	64.272
12.92	64.2305
13.004	63.9883
13.088	63.8328
13.172	63.6982
13.256	64.1152
13.34	64.294
13.424	63.8714
13.508	63.405
13.592	63.4463
13.676	63.6961
13.76	63.7009
13.844	63.5628
13.928	63.5474
14.012	63.4172
14.096	63.411
14.18	63.5474
14.264	63.4516
14.348	63.1303
14.432	63.0139
14.516	63.1724
14.6	63.3471
14.684	63.3645
14.768	63.2071
14.852	63.0481
14.936	63.054
15.02	63.244
15.104	63.2924
15.188	63.0772
15.272	63.0473
15.356	63.361
15.44	63.6073
15.524	63.4852
15.608	63.1603
15.692	62.9069
15.776	62.7647
15.86	62.7503
15.944	62.9194
16.028	63.1153
16.112	63.0788
16.196	62.7688
16.28	62.4008
16.364	62.2194
16.448	62.2541
16.532	62.3573
16.616	62.4433
16.7	62.4997
16.784	62.4442
16.868	62.2196
16.952	61.9627
17.036	61.9188
17.12	62.1449
17.204	62.3856
17.288	62.4085
17.372	62.3215
17.456	62.3495
17.54	62.4579
17.624	62.4517
17.708	62.3252
17.792	62.2765
17.876	62.46
17.96	62.8114
18.044	63.1194
18.128	63.1981
18.212	62.9833
18.296	62.5321
18.38	61.9947
18.464	61.5658
18.548	61.3666
18.632	61.3535
18.716	61.386
18.8	61.3609
18.884	61.2448
18.968	61.0522
19.052	60.8752
19.136	60.8543
19.22	61.0268
19.304	61.2207
19.388	61.2101
19.472	60.9755
19.556	60.7477
19.64	60.756
19.724	60.981
19.808	61.1966
19.892	61.2119
19.976	61.023
20.06	60.7533
20.144	60.5247
20.228	60.411
20.312	60.4517
20.396	60.6474
20.48	60.9316
20.564	61.1773
20.648	61.2632
20.732	61.1475
20.816	60.8855
20.9	60.5877
20.984	60.3522
21.068	60.2151
21.152	60.1336
21.236	60.0158
21.32	59.7961
21.404	59.4913
21.488	59.1888
21.572	58.9827
21.656	58.9258
21.74	59.0009
21.824	59.1363
21.908	59.2516
21.992	59.2963
22.076	59.2697
22.16	59.2116
22.244	59.154
22.328	59.0991
22.412	59.0076
22.496	58.8381
22.58	58.6064
22.664	58.3795
22.748	58.2168
22.832	58.0974
22.916	57.9068
23	57.4794
23.084	56.7511
23.168	55.8308
23.252	54.982
23.336	54.5543
23.42	54.7352
23.504	55.5036
23.588	56.6718
23.672	57.9982
23.756	59.2308
23.84	60.1516
23.924	60.5579
24.008	60.3145
24.092	59.4207
24.176	58.0275
24.26	56.4587
24.344	55.201
24.428	54.7117
24.512	55.2354
24.596	56.8782
24.68	59.6539
24.764	63.4362
24.848	68.2618
24.932	73.7616
25.016	78.936
25.1	82.2934
25.184	82.7561
25.268	80.4242
25.352	76.6026
25.436	72.7218
25.52	69.256
25.604	65.4865
25.688	60.9922
25.772	56.5152
25.856	53.812
25.94	53.6653
26.024	55.3018
26.108	56.671
26.192	57.7057
26.276	61.005
26.36	71.9022
26.444	93.8219
26.528	125.788
26.612	161.064
26.696	190.745
26.78	200.919
26.864	200
26.948	200.089
27.028	197.486