File: Bakgrunnsmateriale/MATLAB/FTIR/ftir_data/subBb/Mapping_121/C-4040-8_t64.asc
PE IR       SPECTRUM    SPECTRUM    ASCII       PEDS        1.60
  -1
C-BD3A~1.ASC
17/03/27
19:42:13.00
17/03/27
19:42:39.00
tln
$C-4040-8_t0064$<tbV0>[-7.8,0.0,8.0,0.0,27,1,0]
27.028
64

2002,4.07
MIRTGS : RIGHTBACK : INTERNAL 2
MIR : ON : INTERNAL 2
OPTKBR

0.200000
8
8.000000
FILLER
RATIO
SPECTRUM
UNLOCKED 256

DOUBLE
64
COMBINED
1
0
0

0.002000
RATIO

1
0
TRUE
51149
0
LEFT NOT FITTED RIGHT NOT FITTED 0
NONE
NONE
15600
12
4.427000
51148
TRUE
1 0 8 72 0 0 0 0

15798

#HDR
-1
-1
#GR
µM
%T
2.38419e-05
0.0
2.000000
0.002000
12515
8
84.8873
54.3514
#DATA
2.000000	 64.574
2.084000	 64.983
2.168000	 64.4807
2.252000	 64.2925
2.336000	 64.6358
2.420000	 64.9185
2.504000	 64.9905
2.588000	 65.2748
2.672000	 65.0404
2.756000	 64.9496
2.840000	 64.9449
2.924000	 65.1978
3.008000	 65.0613
3.092000	 65.0769
3.176000	 65.1053
3.260000	 65.0008
3.344000	 64.9985
3.428000	 64.6222
3.512000	 64.9704
3.596000	 64.9947
3.680000	 65.1504
3.764000	 65.1978
3.848000	 65.0576
3.932000	 65.0776
4.016000	 64.8752
4.100000	 65.0216
4.184000	 64.9863
4.268000	 65.0471
4.352000	 65.0102
4.436000	 65.2244
4.520000	 65.1396
4.604000	 65.0503
4.688000	 65.2157
4.772000	 65.0962
4.856000	 64.9238
4.940000	 65.0886
5.024000	 65.1445
5.108000	 64.9974
5.192000	 65.0794
5.276000	 65.2101
5.359999	 65.0849
5.444000	 65.0936
5.528000	 65.0607
5.612000	 65.1432
5.696000	 65.0439
5.780000	 64.9889
5.864000	 65.0907
5.948000	 65.1907
6.032000	 65.049
6.116000	 64.8142
6.200000	 64.9422
6.284000	 64.8046
6.368000	 65.0135
6.452000	 64.922
6.536000	 64.9098
6.620000	 64.8193
6.704000	 64.9861
6.788000	 64.88
6.872000	 64.5717
6.956000	 64.9922
7.040000	 64.887
7.124000	 64.8575
7.208000	 64.959
7.292000	 64.8944
7.376000	 64.9747
7.460000	 64.8599
7.544000	 64.8162
7.628000	 64.9265
7.712000	 64.9504
7.796000	 64.8432
7.880000	 64.8055
7.964000	 64.8467
8.048000	 64.774
8.132000	 64.7236
8.216000	 64.858
8.300000	 64.8875
8.384000	 64.6335
8.468000	 64.5582
8.552000	 64.6114
8.635999	 64.6878
8.719999	 64.8624
8.804000	 64.6573
8.888000	 64.5818
8.972000	 64.7486
9.056000	 64.2705
9.140000	 64.0115
9.224000	 65.0074
9.308000	 64.31
9.391999	 64.4203
9.475999	 64.666
9.560000	 64.468
9.644000	 64.3682
9.728000	 64.5393
9.812000	 64.0397
9.896000	 64.0875
9.980000	 64.0225
10.064	64.0719
10.148	64.2617
10.232	64.2336
10.316	64.1283
10.4	64.4091
10.484	64.3384
10.568	64.2316
10.652	64.3283
10.736	64.4534
10.82	64.5615
10.904	64.4594
10.988	64.3355
11.072	64.2547
11.156	64.1555
11.24	64.1831
11.324	64.4157
11.408	64.2668
11.492	64.1975
11.576	64.4357
11.66	64.4209
11.744	64.339
11.828	64.3227
11.912	64.2585
11.996	64.0755
12.08	64.3199
12.164	64.3835
12.248	64.091
12.332	63.984
12.416	64.0213
12.5	64.1561
12.584	64.0227
12.668	63.8586
12.752	64.0147
12.836	64.0672
12.92	64.008
13.004	63.9204
13.088	63.8897
13.172	63.7852
13.256	63.7268
13.34	64.4366
13.424	64.3803
13.508	63.6237
13.592	63.4048
13.676	63.2341
13.76	63.001
13.844	63.1712
13.928	63.2853
14.012	63.3083
14.096	63.3661
14.18	63.3707
14.264	63.449
14.348	63.6435
14.432	63.64
14.516	63.3553
14.6	63.1953
14.684	63.1075
14.768	63.0443
14.852	63.1164
14.936	63.0931
15.02	63.025
15.104	63.1416
15.188	63.2924
15.272	63.2042
15.356	62.8715
15.44	62.5648
15.524	62.5024
15.608	62.6177
15.692	62.6926
15.776	62.6668
15.86	62.6774
15.944	62.807
16.028	62.921
16.112	62.9001
16.196	62.8662
16.28	62.8989
16.364	62.8449
16.448	62.6806
16.532	62.5403
16.616	62.417
16.7	62.2821
16.784	62.2397
16.868	62.2761
16.952	62.1876
17.036	61.939
17.12	61.7334
17.204	61.6462
17.288	61.5529
17.372	61.4574
17.456	61.5208
17.54	61.7521
17.624	61.9755
17.708	62.0708
17.792	62.0514
17.876	61.9954
17.96	61.9827
18.044	62.0386
18.128	62.0975
18.212	62.0881
18.296	62.0032
18.38	61.8635
18.464	61.6867
18.548	61.5318
18.632	61.4763
18.716	61.5235
18.8	61.6016
18.884	61.6733
18.968	61.7285
19.052	61.6707
19.136	61.3874
19.22	60.9534
19.304	60.6432
19.388	60.6749
19.472	60.9993
19.556	61.3557
19.64	61.512
19.724	61.4311
19.808	61.2313
19.892	61.0369
19.976	60.8706
20.06	60.6633
20.144	60.3648
20.228	60.0308
20.312	59.7931
20.396	59.7395
20.48	59.8208
20.564	59.8937
20.648	59.8465
20.732	59.6901
20.816	59.5213
20.9	59.4153
20.984	59.391
21.068	59.4309
21.152	59.5129
21.236	59.6234
21.32	59.753
21.404	59.8804
21.488	59.9677
21.572	59.9904
21.656	59.9784
21.74	60.0195
21.824	60.1828
21.908	60.4254
21.992	60.5856
22.076	60.4746
22.16	60.0245
22.244	59.3735
22.328	58.7767
22.412	58.45
22.496	58.4142
22.58	58.5189
22.664	58.5755
22.748	58.483
22.832	58.2829
22.916	58.1037
23	58.0854
23.084	58.305
23.168	58.7711
23.252	59.4449
23.336	60.258
23.42	61.0991
23.504	61.861
23.588	62.3881
23.672	62.4965
23.756	62.0637
23.84	61.0561
23.924	59.5728
24.008	57.8428
24.092	56.195
24.176	54.9754
24.26	54.3961
24.344	54.459
24.428	54.9561
24.512	55.5429
24.596	55.9162
24.68	55.9154
24.764	55.5996
24.848	55.1973
24.932	55.297
25.016	56.6697
25.1	59.936
25.184	65.1382
25.268	71.4936
25.352	77.6141
25.436	82.0904
25.52	84.1711
25.604	83.9742
25.688	82.1542
25.772	79.5718
25.856	76.9592
25.94	74.8464
26.024	73.6302
26.108	73.6082
26.192	74.886
26.276	77.2089
26.36	79.8622
26.444	81.8591
26.528	82.2902
26.612	80.7463
26.696	77.3609
26.78	72.7799
26.864	67.7973
26.948	63.052
27.028	59.0728