File: Bakgrunnsmateriale/MATLAB/FTIR/ftir_data/subBb/Mapping_121/C-4040-8_t110_cm-1.asc
PE IR       SPECTRUM    SPECTRUM    ASCII       PEDS        1.60
  -1
C-4509~1.ASC
17/03/27
23:28:56.00
17/03/27
23:28:56.00
tln
$C-4040-8_t0110$<tbV0>[-13.0,10.4,8.0,0.0,27,1,0]
370
64

2002,4.07
MIRTGS : RIGHTBACK : INTERNAL 2
MIR : ON : INTERNAL 2
OPTKBR

0.200000
8
8.000000
FILLER
RATIO
SPECTRUM
UNLOCKED 256

DOUBLE
64
COMBINED
1
0
0

1.000000
RATIO

1
0
TRUE
51149
0
LEFT NOT FITTED RIGHT NOT FITTED 0
NONE
NONE
15600
12
4.427000
51148
TRUE
1 0 8 72 0 0 0 0

15798

#HDR
-1
-1
#GR
CM-1
%T
2.38419e-05
0.0
5000
-1.000000
4631
8
189.675
46.227
#DATA
5000	65.4393
4984	65.1695
4968	63.9886
4952	65.409
4936	64.775
4920	65.0338
4904	64.8946
4888	64.7118
4872	65.3081
4856	64.9767
4840	64.8381
4824	64.5433
4808	64.78
4792	65.1329
4776	64.6698
4760	65.2922
4744	64.6554
4728	64.6882
4712	65.0106
4696	64.9601
4680	64.897
4664	64.9572
4648	65.279
4632	65.2592
4616	64.9677
4600	65.0946
4584	65.3382
4568	64.9096
4552	64.9426
4536	63.8638
4520	64.9953
4504	64.3499
4488	64.9231
4472	64.7359
4456	64.4701
4440	64.983
4424	64.4512
4408	62.5173
4392	64.5834
4376	65.5556
4360	64.8376
4344	64.4464
4328	64.7085
4312	64.5681
4296	64.434
4280	64.8383
4264	65.092
4248	64.8547
4232	64.6893
4216	64.6915
4200	64.8123
4184	64.9577
4168	64.9708
4152	64.8762
4136	64.7422
4120	65.0651
4104	65.1793
4088	64.7516
4072	64.6839
4056	65.1777
4040	64.8112
4024	65.2417
4008	65.0953
3992	65.1419
3976	65.1495
3960	65.1054
3944	65.0129
3928	64.7877
3912	65.0748
3896	64.8417
3880	64.9587
3864	65.1556
3848	65.0038
3832	65.0238
3816	64.9829
3800	64.9833
3784	65.0961
3768	65.3816
3752	65.1944
3736	65.1662
3720	64.9768
3704	65.2156
3688	65.1694
3672	64.9521
3656	65.052
3640	64.9921
3624	65.4331
3608	64.9524
3592	65.1945
3576	65.3048
3560	65.0643
3544	65.0135
3528	65.1662
3512	65.4485
3496	65.1215
3480	64.7076
3464	65.08
3448	64.8203
3432	65.1359
3416	65.0012
3400	65.1135
3384	64.8927
3368	64.9395
3352	65.07
3336	64.9305
3320	64.9491
3304	65.0175
3288	65.1605
3272	65.1573
3256	65.1154
3240	65.1057
3224	65.2688
3208	65.1124
3192	64.9132
3176	65.007
3160	65.0696
3144	65.0379
3128	65.0365
3112	64.9886
3096	65.0848
3080	65.0119
3064	65.1364
3048	65.0751
3032	65.1853
3016	65.0656
3000	65.3395
2984	64.9721
2968	64.9848
2952	64.9132
2936	65.1381
2920	64.6646
2904	64.8563
2888	64.9688
2872	64.8083
2856	65.0681
2840	64.9052
2824	65.0785
2808	65.0985
2792	65.2528
2776	65.2324
2760	65.2473
2744	65.1529
2728	65.2353
2712	65.1518
2696	65.2426
2680	65.1789
2664	65.4012
2648	65.2992
2632	65.1151
2616	65.1711
2600	65.1154
2584	65.2196
2568	65.1392
2552	65.1513
2536	65.2167
2520	65.0697
2504	65.3567
2488	65.3691
2472	65.4559
2456	65.2721
2440	65.0553
2424	64.7295
2408	65.006
2392	65.2907
2376	65.4245
2360	65.1718
2344	65.0014
2328	65.1693
2312	65.274
2296	65.3009
2280	65.276
2264	65.0958
2248	65.2229
2232	65.2102
2216	65.137
2200	65.2632
2184	65.2614
2168	65.2966
2152	65.2628
2136	64.9387
2120	65.294
2104	65.234
2088	65.1176
2072	65.5596
2056	64.9566
2040	65.2948
2024	65.2692
2008	65.3283
1992	65.2347
1976	65.2763
1960	65.2179
1944	65.2038
1928	65.284
1912	65.1709
1896	65.3507
1880	65.0959
1864	65.1603
1848	65.1796
1832	65.3059
1816	65.363
1800	65.2143
1784	65.1834
1768	65.258
1752	65.1716
1736	64.9607
1720	65.012
1704	65.2473
1688	65.1943
1672	65.1147
1656	65.0538
1640	65.3261
1624	65.067
1608	65.0411
1592	65.1131
1576	64.957
1560	65.0001
1544	65.0165
1528	65.0816
1512	64.9439
1496	65.3161
1480	65.0262
1464	65.0725
1448	65.0576
1432	65.0151
1416	65.0731
1400	65.0466
1384	64.934
1368	64.9361
1352	65.0684
1336	64.8153
1320	64.8149
1304	64.6955
1288	64.8847
1272	64.7555
1256	64.9881
1240	64.887
1224	64.8352
1208	64.7581
1192	64.7933
1176	64.7812
1160	64.9466
1144	64.6088
1128	64.7197
1112	64.8344
1096	64.5998
1080	64.8035
1064	64.5997
1048	64.6703
1032	64.7488
1016	64.4952
1000	64.2425
984	 64.666
968	 64.5372
952	 64.5779
936	 64.5101
920	 65.059
904	 64.3946
888	 64.5384
872	 64.7379
856	 65.1478
840	 63.9346
824	 64.1889
808	 63.7456
792	 64.1438
776	 63.6561
760	 63.9495
744	 63.0153
728	 63.2956
712	 62.8055
696	 63.011
680	 63.4397
664	 63.1118
648	 62.8352
632	 62.7803
616	 62.4908
600	 62.4717
584	 61.7841
568	 61.2727
552	 61.7584
536	 61.0343
520	 60.1758
504	 60.888
488	 58.5778
472	 59.2031
456	 57.8206
440	 59.2587
424	 57.5796
408	 49.1419
392	 52.3476
376	 107.283
370	 189.675