File: Bakgrunnsmateriale/MATLAB/FTIR/ftir_data/subBb/Mapping_121/C-4040-8_t30.asc
PE IR       SPECTRUM    SPECTRUM    ASCII       PEDS        1.60
  -1
C-A13A~1.ASC
17/03/27
16:57:08.00
17/03/27
16:57:34.00
tln
$C-4040-8_t0030$<tbV0>[-5.2,-7.8,8.0,0.0,27,1,0]
27.028
64

2002,4.07
MIRTGS : RIGHTBACK : INTERNAL 2
MIR : ON : INTERNAL 2
OPTKBR

0.200000
8
8.000000
FILLER
RATIO
SPECTRUM
UNLOCKED 256

DOUBLE
64
COMBINED
1
0
0

0.002000
RATIO

1
0
TRUE
51149
0
LEFT NOT FITTED RIGHT NOT FITTED 0
NONE
NONE
15600
12
4.427000
51148
TRUE
1 0 8 72 0 0 0 0

15798

#HDR
-1
-1
#GR
µM
%T
2.38419e-05
0.0
2.000000
0.002000
12515
8
66.5354
11.1813
#DATA
2.000000	 63.8222
2.084000	 63.8306
2.168000	 64.0656
2.252000	 63.6589
2.336000	 64.0138
2.420000	 63.5855
2.504000	 63.1533
2.588000	 63.0331
2.672000	 63.0123
2.756000	 62.4989
2.840000	 62.1629
2.924000	 61.7693
3.008000	 61.5818
3.092000	 61.281
3.176000	 60.7379
3.260000	 60.5114
3.344000	 60.1215
3.428000	 59.3888
3.512000	 59.2926
3.596000	 59.0087
3.680000	 58.3945
3.764000	 58.1203
3.848000	 57.8163
3.932000	 57.4612
4.016000	 56.8447
4.100000	 56.5417
4.184000	 56.3563
4.268000	 55.8949
4.352000	 55.5893
4.436000	 55.2693
4.520000	 54.8141
4.604000	 54.6961
4.688000	 54.2809
4.772000	 53.9071
4.856000	 53.8122
4.940000	 53.3304
5.024000	 53.0002
5.108000	 52.753
5.192000	 52.4086
5.276000	 52.1583
5.359999	 51.8978
5.444000	 51.7211
5.528000	 51.3417
5.612000	 51.0902
5.696000	 51.0013
5.780000	 50.6516
5.864000	 50.3348
5.948000	 50.2129
6.032000	 50.0425
6.116000	 49.7241
6.200000	 49.5513
6.284000	 49.3941
6.368000	 49.0362
6.452000	 48.9637
6.536000	 48.7376
6.620000	 48.7553
6.704000	 48.4849
6.788000	 48.0542
6.872000	 47.9466
6.956000	 47.5826
7.040000	 47.5207
7.124000	 47.4308
7.208000	 47.2452
7.292000	 47.1162
7.376000	 47.1339
7.460000	 46.8423
7.544000	 46.8093
7.628000	 46.4113
7.712000	 46.3627
7.796000	 46.3433
7.880000	 46.2095
7.964000	 46.0285
8.048000	 45.9689
8.132000	 45.8485
8.216000	 45.7051
8.300000	 45.4752
8.384000	 45.4503
8.468000	 45.3724
8.552000	 45.0511
8.635999	 44.9036
8.719999	 44.9614
8.804000	 44.8056
8.888000	 44.4536
8.972000	 44.3357
9.056000	 44.7823
9.140000	 44.486
9.224000	 44.3549
9.308000	 44.1616
9.391999	 43.5077
9.475999	 43.6927
9.560000	 43.6165
9.644000	 43.9002
9.728000	 43.783
9.812000	 43.6741
9.896000	 43.3511
9.980000	 43.2795
10.064	43.1165
10.148	43.3592
10.232	43.2315
10.316	42.9506
10.4	42.7546
10.484	42.6931
10.568	42.6326
10.652	42.5157
10.736	42.4868
10.82	42.3075
10.904	42.3787
10.988	42.3101
11.072	42.1203
11.156	41.9776
11.24	41.8505
11.324	41.8023
11.408	41.7789
11.492	41.6906
11.576	41.6077
11.66	41.3796
11.744	41.426
11.828	41.4038
11.912	41.1316
11.996	41.0908
12.08	41.0116
12.164	40.9123
12.248	40.6213
12.332	40.3656
12.416	40.3337
12.5	40.3392
12.584	40.4302
12.668	40.4996
12.752	40.4107
12.836	40.1777
12.92	39.9564
13.004	39.7115
13.088	39.7117
13.172	39.5865
13.256	39.1795
13.34	39.0541
13.424	39.2801
13.508	39.3482
13.592	39.3572
13.676	39.3074
13.76	39.1753
13.844	39.1689
13.928	39.1931
14.012	38.8998
14.096	38.6467
14.18	38.6919
14.264	38.5808
14.348	38.3274
14.432	38.2245
14.516	38.1856
14.6	38.1458
14.684	38.1505
14.768	38.1397
14.852	38.0936
14.936	38.107
15.02	38.1454
15.104	37.9969
15.188	37.6603
15.272	37.386
15.356	37.3238
15.44	37.3444
15.524	37.1356
15.608	36.6651
15.692	36.3391
15.776	36.4039
15.86	36.6588
15.944	36.8604
16.028	36.9103
16.112	36.7685
16.196	36.5589
16.28	36.4815
16.364	36.5135
16.448	36.5214
16.532	36.4689
16.616	36.3426
16.7	36.1523
16.784	35.9866
16.868	35.8715
16.952	35.7641
17.036	35.7057
17.12	35.7377
17.204	35.7306
17.288	35.5356
17.372	35.2234
17.456	35.0219
17.54	35.0627
17.624	35.2513
17.708	35.4049
17.792	35.4489
17.876	35.4142
17.96	35.3126
18.044	35.1334
18.128	34.9295
18.212	34.7917
18.296	34.7207
18.38	34.6248
18.464	34.4507
18.548	34.2432
18.632	34.0501
18.716	33.8561
18.8	33.6513
18.884	33.5002
18.968	33.4643
19.052	33.4858
19.136	33.4334
19.22	33.2636
19.304	33.0889
19.388	33.0467
19.472	33.1442
19.556	33.2598
19.64	33.2824
19.724	33.2102
19.808	33.1138
19.892	33.0262
19.976	32.9021
20.06	32.6715
20.144	32.321
20.228	31.9174
20.312	31.5635
20.396	31.3374
20.48	31.2627
20.564	31.3095
20.648	31.4203
20.732	31.5363
20.816	31.6201
20.9	31.6531
20.984	31.6221
21.068	31.5067
21.152	31.2879
21.236	30.9856
21.32	30.6794
21.404	30.4751
21.488	30.4243
21.572	30.483
21.656	30.5354
21.74	30.4761
21.824	30.2862
21.908	30.0332
21.992	29.7944
22.076	29.5965
22.16	29.4229
22.244	29.2803
22.328	29.2132
22.412	29.2582
22.496	29.3781
22.58	29.4783
22.664	29.478
22.748	29.3903
22.832	29.3225
22.916	29.382
23	29.5851
23.084	29.8203
23.168	29.927
23.252	29.8302
23.336	29.5708
23.42	29.2554
23.504	28.9949
23.588	28.8041
23.672	28.6246
23.756	28.4291
23.84	28.178
23.924	27.8751
24.008	27.5492
24.092	27.1909
24.176	26.7101
24.26	26.0029
24.344	24.9978
24.428	23.6804
24.512	22.0713
24.596	20.1899
24.68	18.1485
24.764	16.2346
24.848	14.8144
24.932	14.2979
25.016	15.0125
25.1	17.089
25.184	20.7314
25.268	26.1548
25.352	33.4242
25.436	41.9807
25.52	50.5262
25.604	57.4127
25.688	61.0308
25.772	60.6769
25.856	56.9166
25.94	51.139
26.024	44.9758
26.108	39.5883
26.192	35.6492
26.276	33.3133
26.36	32.5483
26.444	32.7277
26.528	32.8463
26.612	31.7075
26.696	28.6056
26.78	23.6724
26.864	18.1593
26.948	13.7011
27.028	11.1813