File: Bakgrunnsmateriale/MATLAB/FTIR/ftir_data/subBb/Mapping_121/C-4040-8_t118.asc
PE IR       SPECTRUM    SPECTRUM    ASCII       PEDS        1.60
  -1
C-8CD8~1.ASC
17/03/28
00:26:33.00
17/03/28
00:27:00.00
tln
$C-4040-8_t0118$<tbV0>[-5.2,13.0,8.0,0.0,27,1,0]
27.028
64

2002,4.07
MIRTGS : RIGHTBACK : INTERNAL 2
MIR : ON : INTERNAL 2
OPTKBR

0.200000
8
8.000000
FILLER
RATIO
SPECTRUM
UNLOCKED 256

DOUBLE
64
COMBINED
1
0
0

0.002000
RATIO

1
0
TRUE
51149
0
LEFT NOT FITTED RIGHT NOT FITTED 0
NONE
NONE
15600
12
4.427000
51148
TRUE
1 0 8 72 0 0 0 0

15798

#HDR
-1
-1
#GR
µM
%T
2.38419e-05
0.0
2.000000
0.002000
12515
8
100.891
9.752011
#DATA
2.000000	 64.909
2.084000	 65.0595
2.168000	 64.6478
2.252000	 65.4576
2.336000	 65.1771
2.420000	 64.7631
2.504000	 64.693
2.588000	 65.1083
2.672000	 65.0057
2.756000	 64.8845
2.840000	 65.1487
2.924000	 64.8315
3.008000	 64.9465
3.092000	 64.9163
3.176000	 64.9398
3.260000	 64.9398
3.344000	 65.1307
3.428000	 64.6016
3.512000	 64.7926
3.596000	 64.9669
3.680000	 64.9565
3.764000	 64.8764
3.848000	 64.8994
3.932000	 65.0384
4.016000	 64.6353
4.100000	 65.1613
4.184000	 65.0122
4.268000	 65.1196
4.352000	 64.9955
4.436000	 64.9588
4.520000	 65.0566
4.604000	 64.9162
4.688000	 64.8863
4.772000	 65.0337
4.856000	 65.442
4.940000	 65.0207
5.024000	 64.9454
5.108000	 65.017
5.192000	 65.0179
5.276000	 64.9371
5.359999	 64.835
5.444000	 64.9458
5.528000	 64.7634
5.612000	 64.8326
5.696000	 64.8269
5.780000	 64.5563
5.864000	 64.7712
5.948000	 64.879
6.032000	 64.7222
6.116000	 64.9414
6.200000	 64.8057
6.284000	 64.7731
6.368000	 64.5707
6.452000	 64.7672
6.536000	 64.8694
6.620000	 64.9173
6.704000	 64.6828
6.788000	 64.8052
6.872000	 64.6728
6.956000	 64.5941
7.040000	 64.8688
7.124000	 64.6668
7.208000	 64.7234
7.292000	 64.6801
7.376000	 64.725
7.460000	 64.6088
7.544000	 64.7227
7.628000	 64.7198
7.712000	 64.482
7.796000	 64.4209
7.880000	 64.4908
7.964000	 64.4742
8.048000	 64.5638
8.132000	 64.6218
8.216000	 64.695
8.300000	 64.492
8.384000	 64.4382
8.468000	 64.543
8.552000	 64.3535
8.635999	 64.5002
8.719999	 64.2824
8.804000	 64.4319
8.888000	 64.3073
8.972000	 64.4901
9.056000	 64.8132
9.140000	 64.2854
9.224000	 64.379
9.308000	 64.2811
9.391999	 64.0649
9.475999	 64.1251
9.560000	 64.256
9.644000	 64.3509
9.728000	 64.0009
9.812000	 63.8491
9.896000	 64.1305
9.980000	 64.2196
10.064	64.3776
10.148	64.2507
10.232	64.1167
10.316	64.081
10.4	64.0561
10.484	64.0664
10.568	64.282
10.652	63.907
10.736	64.0622
10.82	64.0601
10.904	64.0024
10.988	64.1339
11.072	64.307
11.156	64.1795
11.24	63.95
11.324	63.3517
11.408	63.3589
11.492	63.608
11.576	63.6663
11.66	63.2265
11.744	63.3635
11.828	63.6464
11.912	64.4673
11.996	63.8689
12.08	62.601
12.164	63.5974
12.248	64.1756
12.332	63.803
12.416	63.7104
12.5	63.3933
12.584	62.9066
12.668	63.1204
12.752	63.7433
12.836	63.8192
12.92	63.5557
13.004	63.2854
13.088	62.9862
13.172	62.6305
13.256	62.8761
13.34	63.2274
13.424	63.2958
13.508	63.2434
13.592	62.8741
13.676	62.471
13.76	62.3585
13.844	62.7426
13.928	62.9489
14.012	62.5367
14.096	62.1514
14.18	62.2478
14.264	62.479
14.348	62.7056
14.432	62.8851
14.516	62.7843
14.6	62.3756
14.684	62.1175
14.768	62.2592
14.852	62.3978
14.936	62.5286
15.02	62.7009
15.104	62.4134
15.188	61.8918
15.272	61.8417
15.356	62.0987
15.44	62.2003
15.524	62.0292
15.608	61.7149
15.692	61.6231
15.776	61.8434
15.86	62.1059
15.944	62.2618
16.028	62.2265
16.112	61.9591
16.196	61.7391
16.28	61.8473
16.364	62.0666
16.448	62.0221
16.532	61.8584
16.616	61.9111
16.7	62.0626
16.784	62.0349
16.868	61.8386
16.952	61.5775
17.036	61.1941
17.12	60.6783
17.204	60.2503
17.288	60.1405
17.372	60.3512
17.456	60.7106
17.54	61.0198
17.624	61.1356
17.708	61.0628
17.792	60.9479
17.876	60.8882
17.96	60.827
18.044	60.7217
18.128	60.6796
18.212	60.837
18.296	61.1579
18.38	61.4271
18.464	61.4556
18.548	61.2369
18.632	60.9003
18.716	60.5613
18.8	60.2811
18.884	60.1242
18.968	60.1683
19.052	60.4021
19.136	60.6613
19.22	60.7363
19.304	60.5578
19.388	60.2324
19.472	59.9069
19.556	59.6393
19.64	59.4204
19.724	59.2583
19.808	59.1767
19.892	59.1417
19.976	59.0652
20.06	58.9005
20.144	58.7113
20.228	58.5853
20.312	58.5075
20.396	58.3681
20.48	58.1234
20.564	57.8918
20.648	57.8456
20.732	58.0208
20.816	58.2687
20.9	58.4192
20.984	58.4867
21.068	58.656
21.152	59.0743
21.236	59.6825
21.32	60.2623
21.404	60.622
21.488	60.7284
21.572	60.6654
21.656	60.5261
21.74	60.3619
21.824	60.1962
21.908	60.0492
21.992	59.9157
22.076	59.7289
22.16	59.3931
22.244	58.8876
22.328	58.3264
22.412	57.9118
22.496	57.7817
22.58	57.8906
22.664	58.0304
22.748	57.963
22.832	57.6174
22.916	57.0962
23	56.6716
23.084	56.5728
23.168	56.8569
23.252	57.4009
23.336	58.0051
23.42	58.4852
23.504	58.7548
23.588	58.8231
23.672	58.7203
23.756	58.4389
23.84	57.9552
23.924	57.2787
24.008	56.4397
24.092	55.4358
24.176	54.2205
24.26	52.5672
24.344	50.1865
24.428	46.9816
24.512	43.1679
24.596	39.3172
24.68	36.3648
24.764	35.3484
24.848	36.8082
24.932	40.5643
25.016	45.644
25.1	50.5838
25.184	53.8972
25.268	54.7541
25.352	53.2142
25.436	50.1017
25.52	46.633
25.604	43.9431
25.688	43.0707
25.772	44.7806
25.856	49.4563
25.94	57.0695
26.024	67.0301
26.108	78.1225
26.192	88.6947
26.276	96.8348
26.36	100.742
26.444	99.0794
26.528	91.3974
26.612	78.2305
26.696	61.2518
26.78	43.0887
26.864	26.8119
26.948	15.1227
27.028	9.752011