File: Bakgrunnsmateriale/MATLAB/FTIR/ftir_data/subCa/Mapping_25/BZ12041010-4_t07_cm-1.asc
PE IR       SPECTRUM    SPECTRUM    ASCII       PEDS        1.60
  -1
BZAB75~1.ASC
17/04/10
09:24:22.00
17/04/10
09:24:22.00
tln
$BZ12041010-4_t0007$<tbV0>[2.6,-9.8,9.0,0.0,22,1,0]
370
64

2002,4.07
MIRTGS : RIGHTBACK : INTERNAL 2
MIR : ON : INTERNAL 2
OPTKBR

0.200000
8
8.000000
FILLER
RATIO
SPECTRUM
UNLOCKED 256

DOUBLE
64
COMBINED
1
0
0

1.000000
RATIO

1
0
TRUE
51149
0
LEFT NOT FITTED RIGHT NOT FITTED 0
NONE
NONE
15600
12
4.427000
51148
TRUE
1 0 8 72 0 0 0 0

15798

#HDR
-1
-1
#GR
CM-1
%T
2.38419e-05
0.0
5000
-1.000000
4631
8
120.947
51.9584
#DATA
5000	64.4613
4984	64.4421
4968	64.719
4952	65.0179
4936	64.5106
4920	64.7578
4904	64.2342
4888	64.9051
4872	64.503
4856	64.8268
4840	62.4878
4824	64.8726
4808	62.6287
4792	65.0038
4776	64.1864
4760	65.3461
4744	63.9351
4728	64.1045
4712	65.7918
4696	63.2389
4680	64.1866
4664	64.8278
4648	65.4191
4632	64.8888
4616	65.1597
4600	64.5514
4584	64.7772
4568	64.8902
4552	65.5851
4536	65.3742
4520	65.7475
4504	65.8632
4488	59.289
4472	61.5138
4456	62.8837
4440	65.5067
4424	65.9359
4408	65.3615
4392	65.5596
4376	65.6859
4360	65.1117
4344	64.9482
4328	65.1149
4312	65.0329
4296	65.2843
4280	64.6126
4264	64.6639
4248	64.7779
4232	64.5523
4216	64.6092
4200	64.6853
4184	64.5835
4168	64.7536
4152	64.83
4136	64.7848
4120	64.7518
4104	65.1261
4088	64.8201
4072	65.0353
4056	64.8936
4040	64.5336
4024	65.0605
4008	64.8715
3992	65.1846
3976	65.2126
3960	64.8719
3944	64.9626
3928	65.2183
3912	64.8446
3896	65.2027
3880	65.2275
3864	65.0589
3848	65.1456
3832	65.1392
3816	65.0415
3800	65.0531
3784	65.1228
3768	64.9243
3752	65.0856
3736	65.2781
3720	65.0395
3704	64.813
3688	65.1187
3672	65.2668
3656	65.0168
3640	65.0968
3624	65.182
3608	65.226
3592	64.9175
3576	65.105
3560	65.1558
3544	64.9606
3528	65.171
3512	65.0745
3496	65.109
3480	65.0983
3464	65.3084
3448	65.0372
3432	65.1145
3416	65.0756
3400	64.8424
3384	64.9978
3368	65.1608
3352	64.8644
3336	64.9866
3320	64.8568
3304	64.9664
3288	64.9022
3272	64.8909
3256	65.1352
3240	65.0639
3224	65.0005
3208	65.0316
3192	65.095
3176	64.9255
3160	65.0096
3144	65.1577
3128	64.9352
3112	65.1331
3096	65.1569
3080	64.8885
3064	64.9989
3048	65.159
3032	64.8659
3016	64.9406
3000	65.0386
2984	65.0596
2968	65.0325
2952	65.1006
2936	64.9212
2920	64.9461
2904	65.1032
2888	65.1343
2872	65.1457
2856	65.0417
2840	65.0082
2824	65.1115
2808	65.0466
2792	65.1019
2776	65.0375
2760	65.0859
2744	65.1818
2728	65.1237
2712	65.1336
2696	65.0746
2680	65.0799
2664	65.1942
2648	65.1429
2632	65.1206
2616	65.1603
2600	65.1556
2584	65.1293
2568	65.0501
2552	65.0815
2536	65.0615
2520	65.0761
2504	65.1611
2488	65.1632
2472	65.1714
2456	65.1825
2440	65.1625
2424	65.2201
2408	65.1685
2392	65.1757
2376	65.2247
2360	65.2193
2344	65.053
2328	65.1576
2312	65.1649
2296	65.1809
2280	65.1673
2264	65.1318
2248	65.1667
2232	65.2246
2216	65.2874
2200	65.1375
2184	65.1261
2168	65.1967
2152	65.2589
2136	65.2032
2120	65.1607
2104	65.2323
2088	65.2439
2072	65.228
2056	65.2427
2040	65.1699
2024	65.2833
2008	65.2629
1992	65.2222
1976	65.206
1960	65.1657
1944	65.2346
1928	65.3081
1912	65.0764
1896	65.2616
1880	65.3225
1864	65.2886
1848	65.3587
1832	65.3068
1816	65.2699
1800	65.3119
1784	65.239
1768	65.4494
1752	65.2181
1736	65.3372
1720	65.2634
1704	65.4168
1688	65.4421
1672	65.4937
1656	65.3968
1640	65.26
1624	65.2533
1608	65.1486
1592	65.0151
1576	65.2385
1560	65.3934
1544	65.4997
1528	65.2748
1512	65.3728
1496	65.305
1480	65.1937
1464	65.2487
1448	65.0806
1432	65.3209
1416	65.2571
1400	65.3568
1384	65.126
1368	65.1297
1352	65.2763
1336	65.1844
1320	65.2105
1304	65.2413
1288	65.0771
1272	65.1834
1256	65.1099
1240	65.2161
1224	65.2675
1208	65.3179
1192	65.0709
1176	65.0408
1160	65.2105
1144	64.9805
1128	65.0198
1112	65.1765
1096	64.9903
1080	65.1453
1064	65.1702
1048	65.1128
1032	65.0594
1016	65.0183
1000	65.2358
984	 65.2182
968	 65.0657
952	 65.2099
936	 65.2351
920	 65.2511
904	 65.4193
888	 65.3692
872	 65.2138
856	 65.5025
840	 65.3686
824	 65.0264
808	 65.3636
792	 65.3525
776	 65.5474
760	 65.4794
744	 65.0968
728	 65.1612
712	 65.3288
696	 65.1925
680	 65.4119
664	 65.3836
648	 65.4181
632	 65.3747
616	 65.5558
600	 65.5683
584	 65.5552
568	 66.6354
552	 65.9374
536	 65.6467
520	 66.2613
504	 66.4116
488	 66.1418
472	 65.8698
456	 65.2195
440	 64.7339
424	 67.4042
408	 76.5909
392	 79.1829
376	 78.9064
370	 120.947