File: Bakgrunnsmateriale/MATLAB/FTIR/ftir_data/subCa/Mapping_25/BZ12041010-4_t04.asc
PE IR       SPECTRUM    SPECTRUM    ASCII       PEDS        1.60
  -1
BZ36BE~1.ASC
17/04/10
09:10:12.00
17/04/10
09:10:39.00
tln
$BZ12041010-4_t0004$<tbV0>[-2.6,-12.4,9.0,0.0,22,1,0]
27.028
64

2002,4.07
MIRTGS : RIGHTBACK : INTERNAL 2
MIR : ON : INTERNAL 2
OPTKBR

0.200000
8
8.000000
FILLER
RATIO
SPECTRUM
UNLOCKED 256

DOUBLE
64
COMBINED
1
0
0

0.002000
RATIO

1
0
TRUE
51149
0
LEFT NOT FITTED RIGHT NOT FITTED 0
NONE
NONE
15600
12
4.427000
51148
TRUE
1 0 8 72 0 0 0 0

15798

#HDR
-1
-1
#GR
µM
%T
2.38419e-05
0.0
2.000000
0.002000
12515
8
75.1307
35.0248
#DATA
2.000000	 65.035
2.084000	 65.1217
2.168000	 65.3695
2.252000	 66.3581
2.336000	 65.5478
2.420000	 65.1147
2.504000	 65.3616
2.588000	 65.3614
2.672000	 65.5391
2.756000	 65.585
2.840000	 65.3308
2.924000	 65.2761
3.008000	 65.1342
3.092000	 65.2158
3.176000	 65.2123
3.260000	 65.1128
3.344000	 65.1637
3.428000	 65.2268
3.512000	 65.2535
3.596000	 65.2554
3.680000	 65.3604
3.764000	 65.3173
3.848000	 65.3105
3.932000	 65.2549
4.016000	 65.2903
4.100000	 65.3673
4.184000	 65.3323
4.268000	 65.2931
4.352000	 65.335
4.436000	 65.3259
4.520000	 65.3204
4.604000	 65.3079
4.688000	 65.3716
4.772000	 65.4242
4.856000	 65.3305
4.940000	 65.3186
5.024000	 65.3002
5.108000	 65.3652
5.192000	 65.3322
5.276000	 65.4162
5.359999	 65.3513
5.444000	 65.377
5.528000	 65.4492
5.612000	 65.4395
5.696000	 65.3005
5.780000	 65.2017
5.864000	 65.3699
5.948000	 65.5365
6.032000	 65.5096
6.116000	 65.3249
6.200000	 65.387
6.284000	 65.2678
6.368000	 65.3058
6.452000	 65.3466
6.536000	 65.4267
6.620000	 65.47
6.704000	 65.5405
6.788000	 65.4177
6.872000	 65.3236
6.956000	 65.269
7.040000	 65.4108
7.124000	 65.2789
7.208000	 65.1874
7.292000	 65.1813
7.376000	 65.1231
7.460000	 65.3003
7.544000	 65.1114
7.628000	 65.3106
7.712000	 65.2808
7.796000	 65.1814
7.880000	 65.0975
7.964000	 65.2866
8.048000	 65.2356
8.132000	 65.2041
8.216000	 65.3653
8.300000	 65.3395
8.384000	 65.1587
8.468000	 65.1044
8.552000	 65.3633
8.635999	 65.224
8.719999	 65.1521
8.804000	 65.1212
8.888000	 65.3066
8.972000	 65.2237
9.056000	 64.9396
9.140000	 65.0563
9.224000	 65.2679
9.308000	 65.2997
9.391999	 65.1948
9.475999	 65.1888
9.560000	 65.1461
9.644000	 65.0618
9.728000	 65.2056
9.812000	 65.0745
9.896000	 65.006
9.980000	 65.2199
10.064	65.1845
10.148	65.3581
10.232	65.2448
10.316	65.2307
10.4	65.2254
10.484	65.2983
10.568	65.2071
10.652	65.2806
10.736	65.3937
10.82	65.3504
10.904	65.3455
10.988	65.2807
11.072	65.3747
11.156	65.4334
11.24	65.2809
11.324	65.4469
11.408	65.4059
11.492	65.2471
11.576	65.4162
11.66	65.3926
11.744	65.4007
11.828	65.4475
11.912	65.4234
11.996	65.2997
12.08	65.3039
12.164	65.2914
12.248	65.3396
12.332	65.4663
12.416	65.4749
12.5	65.4645
12.584	65.4844
12.668	65.4347
12.752	65.3813
12.836	65.5477
12.92	65.6291
13.004	65.4462
13.088	65.3668
13.172	65.4431
13.256	65.4714
13.34	65.5376
13.424	65.5234
13.508	65.4211
13.592	65.4391
13.676	65.3973
13.76	65.3126
13.844	65.3198
13.928	65.3703
14.012	65.4191
14.096	65.4616
14.18	65.4051
14.264	65.3624
14.348	65.4571
14.432	65.5527
14.516	65.5635
14.6	65.5479
14.684	65.5085
14.768	65.4764
14.852	65.516
14.936	65.5265
15.02	65.4437
15.104	65.3543
15.188	65.3223
15.272	65.3717
15.356	65.452
15.44	65.507
15.524	65.5854
15.608	65.6577
15.692	65.617
15.776	65.5216
15.86	65.4375
15.944	65.367
16.028	65.4325
16.112	65.6811
16.196	65.9274
16.28	66.0229
16.364	65.9517
16.448	65.7075
16.532	65.3891
16.616	65.1688
16.7	65.1222
16.784	65.2476
16.868	65.4772
16.952	65.6641
17.036	65.7325
17.12	65.7231
17.204	65.658
17.288	65.5971
17.372	65.6859
17.456	65.9493
17.54	66.2112
17.624	66.316
17.708	66.2988
17.792	66.2666
17.876	66.2555
17.96	66.2399
18.044	66.2081
18.128	66.1775
18.212	66.1453
18.296	66.0898
18.38	66.0361
18.464	66.0356
18.548	66.0855
18.632	66.1399
18.716	66.1947
18.8	66.2917
18.884	66.4343
18.968	66.5424
19.052	66.5255
19.136	66.3915
19.22	66.2455
19.304	66.1875
19.388	66.2541
19.472	66.4437
19.556	66.7082
19.64	66.9284
19.724	66.9704
19.808	66.8
19.892	66.5217
19.976	66.2966
20.06	66.2192
20.144	66.2663
20.228	66.3388
20.312	66.3462
20.396	66.2615
20.48	66.1328
20.564	66.0465
20.648	66.0636
20.732	66.1761
20.816	66.3131
20.9	66.3996
20.984	66.419
21.068	66.4153
21.152	66.434
21.236	66.4724
21.32	66.4821
21.404	66.4191
21.488	66.2669
21.572	66.0436
21.656	65.799
21.74	65.6048
21.824	65.5311
21.908	65.6087
21.992	65.8095
22.076	66.061
22.16	66.2783
22.244	66.4153
22.328	66.4733
22.412	66.4858
22.496	66.5002
22.58	66.5569
22.664	66.6903
22.748	66.9179
22.832	67.219
22.916	67.5391
23	67.8033
23.084	67.9448
23.168	67.9296
23.252	67.7634
23.336	67.4673
23.42	67.0565
23.504	66.5559
23.588	66.0108
23.672	65.4972
23.756	65.1317
23.84	65.0206
23.924	65.2188
24.008	65.7163
24.092	66.4482
24.176	67.3077
24.26	68.2024
24.344	69.0233
24.428	69.635
24.512	69.8851
24.596	69.6266
24.68	68.7941
24.764	67.497
24.848	66.0017
24.932	64.7472
25.016	64.1872
25.1	64.5877
25.184	65.9682
25.268	68.0826
25.352	70.5434
25.436	72.8097
25.52	74.4081
25.604	75.1073
25.688	74.8294
25.772	73.6703
25.856	71.839
25.94	69.4374
26.024	66.4921
26.108	63.0734
26.192	59.3386
26.276	55.5765
26.36	52.276
26.444	49.8041
26.528	48.2169
26.612	47.1814
26.696	46.1082
26.78	44.3476
26.864	41.597
26.948	38.1478
27.028	35.0248