File: Bakgrunnsmateriale/MATLAB/FTIR/ftir_data/subCa/Mapping_25/BZ12041010-4_t07.asc
PE IR       SPECTRUM    SPECTRUM    ASCII       PEDS        1.60
  -1
BZ46BA~1.ASC
17/04/10
09:24:22.00
17/04/10
09:24:49.00
tln
$BZ12041010-4_t0007$<tbV0>[2.6,-9.8,9.0,0.0,22,1,0]
27.028
64

2002,4.07
MIRTGS : RIGHTBACK : INTERNAL 2
MIR : ON : INTERNAL 2
OPTKBR

0.200000
8
8.000000
FILLER
RATIO
SPECTRUM
UNLOCKED 256

DOUBLE
64
COMBINED
1
0
0

0.002000
RATIO

1
0
TRUE
51149
0
LEFT NOT FITTED RIGHT NOT FITTED 0
NONE
NONE
15600
12
4.427000
51148
TRUE
1 0 8 72 0 0 0 0

15798

#HDR
-1
-1
#GR
µM
%T
2.38419e-05
0.0
2.000000
0.002000
12515
8
120.947
51.8071
#DATA
2.000000	 64.4613
2.084000	 64.6903
2.168000	 65.2842
2.252000	 65.5363
2.336000	 64.5703
2.420000	 64.7413
2.504000	 65.1569
2.588000	 65.0584
2.672000	 65.374
2.756000	 65.27
2.840000	 65.0291
2.924000	 65.1715
3.008000	 64.821
3.092000	 65.0701
3.176000	 65.1898
3.260000	 65.0077
3.344000	 65.0017
3.428000	 64.9241
3.512000	 65.1006
3.596000	 65.0822
3.680000	 65.1385
3.764000	 65.1948
3.848000	 65.1724
3.932000	 65.1562
4.016000	 65.1461
4.100000	 65.1607
4.184000	 65.1694
4.268000	 65.0409
4.352000	 65.17
4.436000	 65.2388
4.520000	 65.2451
4.604000	 65.2272
4.688000	 65.2183
4.772000	 65.2867
4.856000	 65.2852
4.940000	 65.2837
5.024000	 65.2255
5.108000	 65.1774
5.192000	 65.3067
5.276000	 65.2683
5.359999	 65.3233
5.444000	 65.2517
5.528000	 65.3231
5.612000	 65.2357
5.696000	 65.2937
5.780000	 65.1964
5.864000	 65.337
5.948000	 65.4672
6.032000	 65.3591
6.116000	 65.2186
6.200000	 65.3317
6.284000	 65.0058
6.368000	 65.1224
6.452000	 65.3403
6.536000	 65.2405
6.620000	 65.4045
6.704000	 65.2278
6.788000	 65.3094
6.872000	 65.2907
6.956000	 65.3437
7.040000	 65.3113
7.124000	 65.3292
7.208000	 65.1753
7.292000	 65.1441
7.376000	 65.2544
7.460000	 65.2699
7.544000	 65.1388
7.628000	 65.2718
7.712000	 65.1434
7.796000	 65.1304
7.880000	 65.1701
7.964000	 65.1112
8.048000	 65.2589
8.132000	 65.1976
8.216000	 65.2979
8.300000	 65.3458
8.384000	 65.0787
8.468000	 65.0474
8.552000	 65.1413
8.635999	 65.2098
8.719999	 65.0055
8.804000	 65.0272
8.888000	 65.0444
8.972000	 65.2007
9.056000	 65.1172
9.140000	 64.9624
9.224000	 65.1511
9.308000	 65.1055
9.391999	 65.1674
9.475999	 65.0774
9.560000	 65.1521
9.644000	 65.1483
9.728000	 65.0894
9.812000	 65.0199
9.896000	 65.1384
9.980000	 65.1915
10.064	65.2062
10.148	65.2016
10.232	65.1535
10.316	65.0541
10.4	65.2637
10.484	65.2551
10.568	65.1581
10.652	65.2097
10.736	65.3106
10.82	65.2902
10.904	65.257
10.988	65.275
11.072	65.4281
11.156	65.3279
11.24	65.3184
11.324	65.3985
11.408	65.1138
11.492	65.2927
11.576	65.47
11.66	65.4899
11.744	65.4746
11.828	65.3712
11.912	65.3739
11.996	65.402
12.08	65.1915
12.164	64.9821
12.248	65.1383
12.332	65.3342
12.416	65.3766
12.5	65.4298
12.584	65.4109
12.668	65.3153
12.752	65.4057
12.836	65.5515
12.92	65.5345
13.004	65.5454
13.088	65.5299
13.172	65.4553
13.256	65.2228
13.34	65.0841
13.424	65.0802
13.508	65.2421
13.592	65.3554
13.676	65.2109
13.76	65.1679
13.844	65.2062
13.928	65.2193
14.012	65.2863
14.096	65.4069
14.18	65.4831
14.264	65.3614
14.348	65.208
14.432	65.1946
14.516	65.2819
14.6	65.3825
14.684	65.4046
14.768	65.4899
14.852	65.6925
14.936	65.7067
15.02	65.4738
15.104	65.349
15.188	65.3906
15.272	65.4079
15.356	65.4088
15.44	65.4185
15.524	65.424
15.608	65.469
15.692	65.5228
15.776	65.4688
15.86	65.285
15.944	65.1505
16.028	65.2155
16.112	65.3724
16.196	65.498
16.28	65.6364
16.364	65.7446
16.448	65.681
16.532	65.5363
16.616	65.5174
16.7	65.6085
16.784	65.6935
16.868	65.7591
16.952	65.7916
17.036	65.7183
17.12	65.5611
17.204	65.4702
17.288	65.58
17.372	65.8969
17.456	66.2989
17.54	66.5933
17.624	66.6118
17.708	66.3435
17.792	65.9788
17.876	65.7685
17.96	65.7864
18.044	65.8938
18.128	65.9388
18.212	65.9366
18.296	65.9901
18.38	66.1008
18.464	66.1354
18.548	65.9882
18.632	65.7222
18.716	65.5158
18.8	65.5062
18.884	65.7043
18.968	66.011
19.052	66.267
19.136	66.3531
19.22	66.2768
19.304	66.1642
19.388	66.1528
19.472	66.2937
19.556	66.5129
19.64	66.6654
19.724	66.6528
19.808	66.4935
19.892	66.2927
19.976	66.1722
20.06	66.2072
20.144	66.3808
20.228	66.573
20.312	66.6326
20.396	66.4858
20.48	66.188
20.564	65.8758
20.648	65.669
20.732	65.6018
20.816	65.6288
20.9	65.6816
20.984	65.7277
21.068	65.7762
21.152	65.8408
21.236	65.9072
21.32	65.9393
21.404	65.9092
21.488	65.8151
21.572	65.6801
21.656	65.5359
21.74	65.4101
21.824	65.3119
21.908	65.236
21.992	65.1793
22.076	65.151
22.16	65.1746
22.244	65.2584
22.328	65.3663
22.412	65.4276
22.496	65.3742
22.58	65.185
22.664	64.9161
22.748	64.6871
22.832	64.5948
22.916	64.6869
23	64.9298
23.084	65.2465
23.168	65.5778
23.252	65.9229
23.336	66.3101
23.42	66.7417
23.504	67.1551
23.588	67.4085
23.672	67.3584
23.756	66.9718
23.84	66.3682
23.924	65.8386
24.008	65.7575
24.092	66.445
24.176	67.9884
24.26	70.2278
24.344	72.7595
24.428	75.0699
24.512	76.6181
24.596	77.0928
24.68	76.46
24.764	74.9481
24.848	73.0318
24.932	71.2559
25.016	70.0336
25.1	69.5993
25.184	70.082
25.268	71.5066
25.352	73.7951
25.436	76.6448
25.52	79.4867
25.604	81.5849
25.688	82.1264
25.772	80.516
25.856	76.6335
25.94	70.8661
26.024	64.1631
26.108	57.8888
26.192	53.3884
26.276	51.8115
26.36	53.9596
26.444	60.0314
26.528	69.5186
26.612	81.2714
26.696	93.7026
26.78	105.122
26.864	114.01
26.948	119.358
27.028	120.947