File: Bakgrunnsmateriale/MATLAB/FTIR/ftir_data/subCa/Mapping_25/BZ12041010-4_t06_cm-1.asc
PE IR       SPECTRUM    SPECTRUM    ASCII       PEDS        1.60
  -1
BZABFF~1.ASC
17/04/10
09:19:46.00
17/04/10
09:19:46.00
tln
$BZ12041010-4_t0006$<tbV0>[5.2,-9.8,9.0,0.0,22,1,0]
370
64

2002,4.07
MIRTGS : RIGHTBACK : INTERNAL 2
MIR : ON : INTERNAL 2
OPTKBR

0.200000
8
8.000000
FILLER
RATIO
SPECTRUM
UNLOCKED 256

DOUBLE
64
COMBINED
1
0
0

1.000000
RATIO

1
0
TRUE
51149
0
LEFT NOT FITTED RIGHT NOT FITTED 0
NONE
NONE
15600
12
4.427000
51148
TRUE
1 0 8 72 0 0 0 0

15798

#HDR
-1
-1
#GR
CM-1
%T
2.38419e-05
0.0
5000
-1.000000
4631
8
105.742
41.4093
#DATA
5000	65.3397
4984	64.5117
4968	64.5139
4952	65.1331
4936	64.8151
4920	64.7511
4904	64.3257
4888	64.314
4872	64.2936
4856	64.319
4840	65.7809
4824	64.6785
4808	65.1752
4792	64.564
4776	64.5954
4760	64.9716
4744	64.6693
4728	64.6616
4712	65.5996
4696	63.9904
4680	64.2089
4664	65.2582
4648	65.9946
4632	65.1458
4616	64.9148
4600	64.6195
4584	64.772
4568	65.1199
4552	65.2588
4536	64.7622
4520	64.616
4504	65.3237
4488	59.0116
4472	56.1223
4456	74.72
4440	65.4197
4424	64.9448
4408	65.5037
4392	64.9762
4376	65.0228
4360	64.7296
4344	65.0701
4328	64.9549
4312	64.8587
4296	65.0052
4280	64.7954
4264	64.7609
4248	65.0307
4232	64.9249
4216	65.016
4200	64.8057
4184	65.1485
4168	65.1096
4152	64.849
4136	65.2378
4120	64.9361
4104	65.3949
4088	64.8401
4072	65.3182
4056	65.1628
4040	65.0748
4024	65.1321
4008	65.2626
3992	64.8932
3976	65.0836
3960	65.0762
3944	65.1367
3928	65.2765
3912	65.2009
3896	65.2647
3880	65.0956
3864	65.1708
3848	65.1969
3832	65.2404
3816	65.3296
3800	65.2133
3784	65.1342
3768	65.2678
3752	65.4372
3736	65.4341
3720	65.2922
3704	65.1843
3688	65.2396
3672	65.6533
3656	65.3532
3640	65.1495
3624	65.2639
3608	65.2468
3592	65.2489
3576	65.2602
3560	65.4688
3544	65.2926
3528	65.2167
3512	65.0634
3496	65.2295
3480	65.1565
3464	65.3102
3448	65.2388
3432	65.3225
3416	65.2262
3400	65.1391
3384	64.9974
3368	65.2676
3352	65.163
3336	65.0784
3320	65.1143
3304	65.0937
3288	65.2335
3272	65.2367
3256	65.2855
3240	65.2133
3224	65.1115
3208	65.1585
3192	65.2173
3176	65.0934
3160	65.2219
3144	65.1727
3128	65.1392
3112	65.1766
3096	65.1538
3080	65.1561
3064	65.1257
3048	65.1361
3032	65.0854
3016	65.126
3000	65.1979
2984	65.049
2968	65.2266
2952	65.0733
2936	65.0679
2920	65.0625
2904	65.1537
2888	65.0087
2872	65.0907
2856	65.2046
2840	65.2047
2824	65.0756
2808	65.2517
2792	65.2232
2776	65.175
2760	65.2636
2744	65.2539
2728	65.2156
2712	65.2108
2696	65.2977
2680	65.2169
2664	65.2275
2648	65.1881
2632	65.2337
2616	65.2223
2600	65.1719
2584	65.1179
2568	65.1851
2552	65.1639
2536	65.2222
2520	65.1262
2504	65.2092
2488	65.2165
2472	65.2737
2456	65.3352
2440	65.2182
2424	65.3303
2408	65.1323
2392	65.236
2376	65.339
2360	65.2806
2344	65.2824
2328	65.3115
2312	65.3298
2296	65.2737
2280	65.3601
2264	65.2839
2248	65.253
2232	65.2402
2216	65.3454
2200	65.1747
2184	65.2114
2168	65.2421
2152	65.259
2136	65.153
2120	65.2262
2104	65.1465
2088	65.2455
2072	65.267
2056	65.3001
2040	65.1534
2024	65.3336
2008	65.3113
1992	65.254
1976	65.3195
1960	65.2208
1944	65.2417
1928	65.2527
1912	65.152
1896	65.2346
1880	65.2169
1864	65.2712
1848	65.3969
1832	65.3573
1816	65.2962
1800	65.4062
1784	65.2804
1768	65.3735
1752	65.2654
1736	65.2361
1720	65.1834
1704	65.3557
1688	65.3
1672	65.309
1656	65.4828
1640	65.3378
1624	65.1714
1608	65.1825
1592	65.0512
1576	65.4614
1560	65.7539
1544	65.4654
1528	65.3636
1512	65.3965
1496	65.4146
1480	65.1354
1464	65.2549
1448	65.0485
1432	65.2706
1416	65.2228
1400	65.1353
1384	65.1135
1368	65.1044
1352	65.1046
1336	65.0856
1320	65.1935
1304	65.1984
1288	65.1023
1272	65.0932
1256	65.1617
1240	65.1318
1224	65.166
1208	65.1668
1192	65.0255
1176	65.0513
1160	65.0861
1144	65.0734
1128	65.2681
1112	64.9979
1096	64.8369
1080	65.0173
1064	65.0453
1048	65.2578
1032	64.9663
1016	65.132
1000	65.1985
984	 65.1065
968	 65.1017
952	 65.4074
936	 65.2886
920	 65.0835
904	 65.2665
888	 65.213
872	 65.4129
856	 65.3415
840	 65.179
824	 65.451
808	 65.5504
792	 65.6161
776	 65.8293
760	 65.5114
744	 65.3349
728	 65.4788
712	 65.3093
696	 65.2275
680	 65.3432
664	 65.7145
648	 65.4207
632	 65.3662
616	 65.6448
600	 65.5385
584	 65.8041
568	 66.0281
552	 65.5066
536	 65.6358
520	 65.5391
504	 66.4835
488	 66.1752
472	 65.6725
456	 65.4204
440	 67.2795
424	 64.6122
408	 68.9053
392	 79.3458
376	 41.7211
370	 66.6885