File: Bakgrunnsmateriale/MATLAB/FTIR/ftir_data/subCa/Mapping_25/BZ12041010-4_t03.asc
PE IR       SPECTRUM    SPECTRUM    ASCII       PEDS        1.60
  -1
BZ36BA~1.ASC
17/04/10
09:05:35.00
17/04/10
09:06:01.00
tln
$BZ12041010-4_t0003$<tbV0>[0.0,-12.4,9.0,0.0,22,1,0]
27.028
64

2002,4.07
MIRTGS : RIGHTBACK : INTERNAL 2
MIR : ON : INTERNAL 2
OPTKBR

0.200000
8
8.000000
FILLER
RATIO
SPECTRUM
UNLOCKED 256

DOUBLE
64
COMBINED
1
0
0

0.002000
RATIO

1
0
TRUE
51149
0
LEFT NOT FITTED RIGHT NOT FITTED 0
NONE
NONE
15600
12
4.427000
51148
TRUE
1 0 8 72 0 0 0 0

15798

#HDR
-1
-1
#GR
µM
%T
2.38419e-05
0.0
2.000000
0.002000
12515
8
68.9355
43.2019
#DATA
2.000000	 65.318
2.084000	 66.5699
2.168000	 65.8563
2.252000	 66.0682
2.336000	 65.4211
2.420000	 64.7369
2.504000	 65.187
2.588000	 65.2261
2.672000	 65.5152
2.756000	 65.3988
2.840000	 65.2614
2.924000	 65.2716
3.008000	 65.1909
3.092000	 65.1966
3.176000	 65.4346
3.260000	 65.0393
3.344000	 65.0855
3.428000	 65.2873
3.512000	 65.1324
3.596000	 65.1787
3.680000	 65.2752
3.764000	 65.3855
3.848000	 65.3
3.932000	 65.3104
4.016000	 65.2477
4.100000	 65.2608
4.184000	 65.292
4.268000	 65.3382
4.352000	 65.412
4.436000	 65.2688
4.520000	 65.3723
4.604000	 65.3203
4.688000	 65.2784
4.772000	 65.3683
4.856000	 65.2884
4.940000	 65.3705
5.024000	 65.3134
5.108000	 65.2956
5.192000	 65.2906
5.276000	 65.2714
5.359999	 65.3885
5.444000	 65.3566
5.528000	 65.4528
5.612000	 65.3213
5.696000	 65.3729
5.780000	 65.3665
5.864000	 65.4003
5.948000	 65.5109
6.032000	 65.4384
6.116000	 65.2596
6.200000	 65.3323
6.284000	 65.1098
6.368000	 65.2636
6.452000	 65.3296
6.536000	 65.3449
6.620000	 65.498
6.704000	 65.4142
6.788000	 65.4624
6.872000	 65.3698
6.956000	 65.4144
7.040000	 65.4908
7.124000	 65.2633
7.208000	 65.1991
7.292000	 65.2955
7.376000	 65.337
7.460000	 65.2619
7.544000	 65.2482
7.628000	 65.3086
7.712000	 65.2483
7.796000	 65.338
7.880000	 65.1429
7.964000	 65.1617
8.048000	 65.275
8.132000	 65.2308
8.216000	 65.2009
8.300000	 65.3031
8.384000	 65.2465
8.468000	 65.1108
8.552000	 65.2503
8.635999	 65.2269
8.719999	 65.1624
8.804000	 64.9567
8.888000	 65.1636
8.972000	 65.2917
9.056000	 64.9163
9.140000	 64.9238
9.224000	 65.1452
9.308000	 65.2757
9.391999	 65.1211
9.475999	 65.2877
9.560000	 65.1146
9.644000	 65.0462
9.728000	 65.043
9.812000	 65.0129
9.896000	 65.0964
9.980000	 65.3334
10.064	65.05
10.148	65.0826
10.232	65.1699
10.316	65.2102
10.4	65.1483
10.484	65.1885
10.568	65.2953
10.652	65.3428
10.736	65.4056
10.82	65.3357
10.904	65.2151
10.988	65.3146
11.072	65.4528
11.156	65.5364
11.24	65.4587
11.324	65.4472
11.408	65.3804
11.492	65.5551
11.576	65.7085
11.66	65.6248
11.744	65.445
11.828	65.3699
11.912	65.3896
11.996	65.4377
12.08	65.4822
12.164	65.4835
12.248	65.5472
12.332	65.5885
12.416	65.3734
12.5	65.3502
12.584	65.2624
12.668	65.2922
12.752	65.3933
12.836	65.5495
12.92	65.7043
13.004	65.6769
13.088	65.5012
13.172	65.4404
13.256	65.3391
13.34	65.1892
13.424	65.1827
13.508	65.2892
13.592	65.4312
13.676	65.5184
13.76	65.4847
13.844	65.2942
13.928	65.1827
14.012	65.2407
14.096	65.3349
14.18	65.3939
14.264	65.3624
14.348	65.3105
14.432	65.3291
14.516	65.3292
14.6	65.3072
14.684	65.4059
14.768	65.5994
14.852	65.7603
14.936	65.7567
15.02	65.6492
15.104	65.6891
15.188	65.7771
15.272	65.7251
15.356	65.6763
15.44	65.648
15.524	65.5157
15.608	65.393
15.692	65.3962
15.776	65.3763
15.86	65.2093
15.944	65.0992
16.028	65.2788
16.112	65.6053
16.196	65.7997
16.28	65.8195
16.364	65.7484
16.448	65.648
16.532	65.617
16.616	65.7088
16.7	65.8067
16.784	65.771
16.868	65.6328
16.952	65.5296
17.036	65.5476
17.12	65.6562
17.204	65.753
17.288	65.8012
17.372	65.8774
17.456	66.0317
17.54	66.1791
17.624	66.2002
17.708	66.0964
17.792	65.9792
17.876	65.941
17.96	65.9633
18.044	65.9774
18.128	65.981
18.212	66.0335
18.296	66.1334
18.38	66.1908
18.464	66.1463
18.548	66.0526
18.632	65.9935
18.716	65.9783
18.8	65.9698
18.884	65.9812
18.968	66.0506
19.052	66.1358
19.136	66.1504
19.22	66.0928
19.304	66.0586
19.388	66.1262
19.472	66.2843
19.556	66.4479
19.64	66.5278
19.724	66.4945
19.808	66.3843
19.892	66.2517
19.976	66.1296
20.06	66.0253
20.144	65.9298
20.228	65.8336
20.312	65.7476
20.396	65.7119
20.48	65.7674
20.564	65.912
20.648	66.0812
20.732	66.1854
20.816	66.1735
20.9	66.0616
20.984	65.9046
21.068	65.746
21.152	65.5944
21.236	65.4467
21.32	65.3103
21.404	65.2136
21.488	65.193
21.572	65.2703
21.656	65.4404
21.74	65.6684
21.824	65.9007
21.908	66.0809
21.992	66.1625
22.076	66.1196
22.16	65.9643
22.244	65.7678
22.328	65.6296
22.412	65.633
22.496	65.7991
22.58	66.0774
22.664	66.3801
22.748	66.6188
22.832	66.7371
22.916	66.7227
23	66.6058
23.084	66.4414
23.168	66.2979
23.252	66.2211
23.336	66.2124
23.42	66.2202
23.504	66.1689
23.588	66.0034
23.672	65.7236
23.756	65.3952
23.84	65.1136
23.924	64.966
24.008	64.9899
24.092	65.1684
24.176	65.4601
24.26	65.8385
24.344	66.2838
24.428	66.7569
24.512	67.1694
24.596	67.3961
24.68	67.3252
24.764	66.93
24.848	66.3164
24.932	65.7044
25.016	65.3294
25.1	65.3317
25.184	65.6982
25.268	66.2703
25.352	66.839
25.436	67.257
25.52	67.5077
25.604	67.6707
25.688	67.8951
25.772	68.2559
25.856	68.6602
25.94	68.918
26.024	68.8177
26.108	68.2424
26.192	67.2504
26.276	66.0695
26.36	65.0358
26.444	64.4738
26.528	64.5625
26.612	65.1869
26.696	66.0691
26.78	66.9055
26.864	67.5097
26.948	67.8449
27.028	67.9436