File: Bakgrunnsmateriale/MATLAB/FTIR/ftir_data/subCa/Mapping_25/BZ12041010-4_t01_cm-1.asc
PE IR       SPECTRUM    SPECTRUM    ASCII       PEDS        1.60
  -1
BZ1204~3.ASC
17/04/10
08:56:20.00
17/04/10
08:56:20.00
tln
$BZ12041010-4_t0001$<tbV0>[5.2,-12.4,9.0,0.0,22,1,0]
370
64

2002,4.07
MIRTGS : RIGHTBACK : INTERNAL 2
MIR : ON : INTERNAL 2
OPTKBR

0.200000
8
8.000000
FILLER
RATIO
SPECTRUM
UNLOCKED 256

DOUBLE
64
COMBINED
1
0
0

1.000000
RATIO

1
0
TRUE
51149
0
LEFT NOT FITTED RIGHT NOT FITTED 0
NONE
NONE
15600
12
4.427000
51148
TRUE
1 0 8 72 0 0 0 0

15798

#HDR
-1
-1
#GR
CM-1
%T
2.38419e-05
0.0
5000
-1.000000
4631
8
78.0667
58.9072
#DATA
5000	64.8946
4984	64.5728
4968	65.1153
4952	64.8967
4936	64.6597
4920	65.1053
4904	65.3178
4888	64.9276
4872	65.2085
4856	64.6488
4840	64.8066
4824	65.2128
4808	65.0652
4792	64.7339
4776	64.2054
4760	64.8782
4744	64.9485
4728	65.2157
4712	65.6704
4696	63.8806
4680	64.4343
4664	65.2193
4648	66.016
4632	65.39
4616	64.9716
4600	65.0649
4584	64.7788
4568	65.4124
4552	65.0297
4536	64.6659
4520	65.6211
4504	66.1508
4488	59.7198
4472	66.6416
4456	65.0722
4440	64.5293
4424	65.1412
4408	65.421
4392	65.0417
4376	64.9699
4360	65.193
4344	65.1119
4328	65.0818
4312	64.8062
4296	64.9411
4280	64.9028
4264	64.6875
4248	64.6159
4232	64.8301
4216	64.9218
4200	64.9872
4184	65.1499
4168	65.0467
4152	65.1851
4136	64.9541
4120	64.9914
4104	65.0837
4088	65.1566
4072	65.1369
4056	65.0438
4040	64.8093
4024	65.0091
4008	65.0922
3992	65.08
3976	65.1246
3960	65.0554
3944	65.1694
3928	65.1142
3912	65.1114
3896	65.3251
3880	65.2269
3864	65.2223
3848	65.1978
3832	65.1986
3816	65.3395
3800	65.2976
3784	65.2987
3768	65.1916
3752	65.3344
3736	65.4537
3720	65.2843
3704	65.3525
3688	65.2382
3672	65.3073
3656	65.3019
3640	65.3414
3624	65.3787
3608	65.354
3592	65.1683
3576	65.3484
3560	65.419
3544	65.2395
3528	65.2246
3512	65.2964
3496	65.3248
3480	64.9683
3464	65.4335
3448	65.2573
3432	65.2991
3416	65.2097
3400	65.2119
3384	65.2425
3368	65.2241
3352	65.205
3336	65.4685
3320	65.2355
3304	65.2108
3288	65.2111
3272	65.2002
3256	65.4159
3240	65.3224
3224	65.1093
3208	65.1463
3192	65.3745
3176	65.0147
3160	65.2623
3144	65.136
3128	65.025
3112	65.246
3096	65.1039
3080	65.1353
3064	65.1571
3048	65.17
3032	65.1995
3016	65.1968
3000	64.9867
2984	65.1963
2968	65.0602
2952	65.1456
2936	64.9764
2920	65.1292
2904	65.1914
2888	65.1845
2872	65.123
2856	65.1985
2840	65.2272
2824	65.1707
2808	65.2188
2792	65.2834
2776	65.2432
2760	65.2929
2744	65.3545
2728	65.2132
2712	65.2879
2696	65.2825
2680	65.1313
2664	65.3028
2648	65.2668
2632	65.3861
2616	65.4203
2600	65.2057
2584	65.2028
2568	65.1122
2552	65.2625
2536	65.3026
2520	65.1961
2504	65.242
2488	65.3851
2472	65.3302
2456	65.39
2440	65.3878
2424	65.342
2408	65.2377
2392	65.3131
2376	65.3858
2360	65.256
2344	65.3191
2328	65.2516
2312	65.3192
2296	65.3387
2280	65.3528
2264	65.2737
2248	65.3121
2232	65.4318
2216	65.3742
2200	65.319
2184	65.3267
2168	65.292
2152	65.3073
2136	65.1763
2120	65.2945
2104	65.2537
2088	65.3074
2072	65.4078
2056	65.2755
2040	65.2913
2024	65.3864
2008	65.3363
1992	65.3233
1976	65.4187
1960	65.3629
1944	65.3685
1928	65.3561
1912	65.2714
1896	65.3886
1880	65.357
1864	65.3124
1848	65.3518
1832	65.3727
1816	65.242
1800	65.4474
1784	65.3486
1768	65.3013
1752	65.3532
1736	65.2
1720	65.2183
1704	65.34
1688	65.3151
1672	65.4436
1656	65.3175
1640	65.2477
1624	65.281
1608	65.1711
1592	65.0954
1576	65.2502
1560	65.3129
1544	65.2878
1528	65.2881
1512	65.3553
1496	65.3637
1480	65.2393
1464	65.3281
1448	65.155
1432	65.1958
1416	65.2148
1400	65.2636
1384	65.1315
1368	65.1932
1352	65.1945
1336	65.3183
1320	65.2419
1304	65.1493
1288	65.2087
1272	65.2254
1256	65.1914
1240	65.1623
1224	65.1603
1208	65.2786
1192	65.2664
1176	65.0977
1160	65.1372
1144	65.0822
1128	65.1293
1112	65.1084
1096	65.1192
1080	65.1562
1064	65.1366
1048	65.1849
1032	65.1501
1016	65.0968
1000	65.1882
984	 65.1902
968	 65.2269
952	 65.1602
936	 65.2929
920	 65.1028
904	 65.3303
888	 65.3364
872	 65.3461
856	 65.4889
840	 65.253
824	 65.4243
808	 65.4552
792	 65.1878
776	 65.5628
760	 65.5121
744	 65.2981
728	 65.2611
712	 65.1764
696	 65.1409
680	 65.3415
664	 65.2634
648	 65.445
632	 65.3324
616	 65.8681
600	 65.5564
584	 65.4614
568	 65.95
552	 65.9611
536	 66.1948
520	 65.8794
504	 65.8087
488	 66.4601
472	 66.8681
456	 65.8915
440	 65.6956
424	 65.6767
408	 65.9747
392	 68.4409
376	 62.9398
370	 65.5787