File: Bakgrunnsmateriale/MATLAB/FTIR/ftir_data/subCa/Mapping_25/BZ12041010-4_t10.asc
PE IR       SPECTRUM    SPECTRUM    ASCII       PEDS        1.60
  -1
BZ2ABE~1.ASC
17/04/10
09:38:13.00
17/04/10
09:38:40.00
tln
$BZ12041010-4_t0010$<tbV0>[-5.2,-9.8,9.0,0.0,22,1,0]
27.028
64

2002,4.07
MIRTGS : RIGHTBACK : INTERNAL 2
MIR : ON : INTERNAL 2
OPTKBR

0.200000
8
8.000000
FILLER
RATIO
SPECTRUM
UNLOCKED 256

DOUBLE
64
COMBINED
1
0
0

0.002000
RATIO

1
0
TRUE
51149
0
LEFT NOT FITTED RIGHT NOT FITTED 0
NONE
NONE
15600
12
4.427000
51148
TRUE
1 0 8 72 0 0 0 0

15798

#HDR
-1
-1
#GR
µM
%T
2.38419e-05
0.0
2.000000
0.002000
12515
8
85.0314
12.7582
#DATA
2.000000	 64.7877
2.084000	 65.3033
2.168000	 65.0392
2.252000	 64.9703
2.336000	 64.9758
2.420000	 65.0707
2.504000	 65.3118
2.588000	 65.135
2.672000	 65.574
2.756000	 65.5079
2.840000	 65.4227
2.924000	 65.3253
3.008000	 65.3012
3.092000	 65.3755
3.176000	 65.3268
3.260000	 65.164
3.344000	 65.159
3.428000	 65.2898
3.512000	 65.3248
3.596000	 65.4637
3.680000	 65.3369
3.764000	 65.3568
3.848000	 65.2533
3.932000	 65.2798
4.016000	 65.4108
4.100000	 65.3446
4.184000	 65.2173
4.268000	 65.2663
4.352000	 65.4433
4.436000	 65.3881
4.520000	 65.442
4.604000	 65.3552
4.688000	 65.3426
4.772000	 65.3801
4.856000	 65.3481
4.940000	 65.4055
5.024000	 65.3499
5.108000	 65.4113
5.192000	 65.4202
5.276000	 65.3817
5.359999	 65.3943
5.444000	 65.3237
5.528000	 65.3992
5.612000	 65.3952
5.696000	 65.4247
5.780000	 65.2613
5.864000	 65.3097
5.948000	 65.5078
6.032000	 65.4696
6.116000	 65.4886
6.200000	 65.3705
6.284000	 65.2238
6.368000	 65.4606
6.452000	 65.4347
6.536000	 65.4984
6.620000	 65.5542
6.704000	 65.5477
6.788000	 65.49
6.872000	 65.4583
6.956000	 65.3967
7.040000	 65.4134
7.124000	 65.3103
7.208000	 65.2691
7.292000	 65.2446
7.376000	 65.1927
7.460000	 65.2565
7.544000	 65.2276
7.628000	 65.3137
7.712000	 65.16
7.796000	 65.3117
7.880000	 65.3808
7.964000	 65.2176
8.048000	 65.2462
8.132000	 65.1829
8.216000	 65.2436
8.300000	 65.2561
8.384000	 65.1816
8.468000	 65.2027
8.552000	 65.2668
8.635999	 65.1827
8.719999	 65.2118
8.804000	 65.1408
8.888000	 65.244
8.972000	 65.208
9.056000	 65.0657
9.140000	 65.2135
9.224000	 65.3044
9.308000	 65.3995
9.391999	 65.1266
9.475999	 65.2984
9.560000	 65.1737
9.644000	 64.9013
9.728000	 65.1696
9.812000	 65.1915
9.896000	 65.2449
9.980000	 65.2972
10.064	65.0977
10.148	65.1304
10.232	65.1161
10.316	65.2967
10.4	65.2348
10.484	65.1983
10.568	65.4421
10.652	65.444
10.736	65.5013
10.82	65.4275
10.904	65.2926
10.988	65.3458
11.072	65.2805
11.156	65.4134
11.24	65.4634
11.324	65.4494
11.408	65.4686
11.492	65.5151
11.576	65.5235
11.66	65.5906
11.744	65.6109
11.828	65.5921
11.912	65.5024
11.996	65.4556
12.08	65.6475
12.164	65.4922
12.248	65.4579
12.332	65.6359
12.416	65.526
12.5	65.3252
12.584	65.4173
12.668	65.6277
12.752	65.7075
12.836	65.8067
12.92	65.7933
13.004	65.8
13.088	65.6973
13.172	65.5347
13.256	65.4973
13.34	65.5743
13.424	65.5765
13.508	65.5923
13.592	65.7106
13.676	65.6932
13.76	65.6499
13.844	65.6554
13.928	65.6178
14.012	65.5408
14.096	65.5487
14.18	65.513
14.264	65.3808
14.348	65.2655
14.432	65.2785
14.516	65.4488
14.6	65.638
14.684	65.7579
14.768	65.7945
14.852	65.7864
14.936	65.7275
15.02	65.6546
15.104	65.6824
15.188	65.7756
15.272	65.8666
15.356	65.8787
15.44	65.7561
15.524	65.6514
15.608	65.6504
15.692	65.6085
15.776	65.461
15.86	65.3128
15.944	65.3275
16.028	65.5871
16.112	65.9493
16.196	66.1777
16.28	66.2088
16.364	66.1518
16.448	66.0906
16.532	66.0159
16.616	65.9449
16.7	65.9425
16.784	66.0122
16.868	66.0998
16.952	66.1163
17.036	66.0153
17.12	65.8472
17.204	65.6646
17.288	65.5413
17.372	65.5913
17.456	65.8167
17.54	66.0513
17.624	66.1356
17.708	66.0712
17.792	65.956
17.876	65.8698
17.96	65.855
18.044	65.9415
18.128	66.129
18.212	66.3484
18.296	66.4925
18.38	66.5091
18.464	66.4475
18.548	66.397
18.632	66.4025
18.716	66.4398
18.8	66.4603
18.884	66.4417
18.968	66.3962
19.052	66.3476
19.136	66.3147
19.22	66.292
19.304	66.23
19.388	66.0856
19.472	65.9028
19.556	65.7843
19.64	65.7803
19.724	65.8502
19.808	65.9219
19.892	65.9576
19.976	65.9808
20.06	66.0557
20.144	66.2173
20.228	66.4194
20.312	66.5606
20.396	66.5724
20.48	66.4686
20.564	66.3204
20.648	66.1782
20.732	66.0449
20.816	65.9063
20.9	65.7761
20.984	65.6879
21.068	65.6451
21.152	65.5988
21.236	65.4867
21.32	65.2971
21.404	65.0988
21.488	65.0015
21.572	65.0824
21.656	65.3508
21.74	65.7531
21.824	66.2077
21.908	66.6353
21.992	66.9595
22.076	67.1109
22.16	67.0575
22.244	66.8316
22.328	66.5365
22.412	66.3116
22.496	66.2597
22.58	66.4006
22.664	66.6769
22.748	66.9767
22.832	67.1906
22.916	67.2297
23	67.0645
23.084	66.7168
23.168	66.274
23.252	65.8761
23.336	65.6939
23.42	65.855
23.504	66.4007
23.588	67.1964
23.672	67.9642
23.756	68.3832
23.84	68.2002
23.924	67.3712
24.008	66.0784
24.092	64.6455
24.176	63.3952
24.26	62.4959
24.344	61.9111
24.428	61.4544
24.512	60.9205
24.596	60.1875
24.68	59.3154
24.764	58.5637
24.848	58.1699
24.932	58.3869
25.016	59.4016
25.1	61.2359
25.184	63.8162
25.268	67.0122
25.352	70.6821
25.436	74.5798
25.52	78.34
25.604	81.5411
25.688	83.8017
25.772	84.9124
25.856	84.8774
25.94	83.8137
26.024	81.9439
26.108	79.5653
26.192	76.9203
26.276	74.0733
26.36	71.049
26.444	67.4775
26.528	62.7285
26.612	56.1512
26.696	47.5117
26.78	37.2458
26.864	26.7149
26.948	17.8577
27.028	12.7582