File: Bakgrunnsmateriale/MATLAB/FTIR/ftir_data/subCa/Mapping_25/BZ12041010-4_t09_cm-1.asc
PE IR       SPECTRUM    SPECTRUM    ASCII       PEDS        1.60
  -1
BZAB70~1.ASC
17/04/10
09:33:37.00
17/04/10
09:33:37.00
tln
$BZ12041010-4_t0009$<tbV0>[-2.6,-9.8,9.0,0.0,22,1,0]
370
64

2002,4.07
MIRTGS : RIGHTBACK : INTERNAL 2
MIR : ON : INTERNAL 2
OPTKBR

0.200000
8
8.000000
FILLER
RATIO
SPECTRUM
UNLOCKED 256

DOUBLE
64
COMBINED
1
0
0

1.000000
RATIO

1
0
TRUE
51149
0
LEFT NOT FITTED RIGHT NOT FITTED 0
NONE
NONE
15600
12
4.427000
51148
TRUE
1 0 8 72 0 0 0 0

15798

#HDR
-1
-1
#GR
CM-1
%T
2.38419e-05
0.0
5000
-1.000000
4631
8
86.8815
25.92
#DATA
5000	64.6502
4984	64.3753
4968	64.9818
4952	65.2537
4936	64.7335
4920	65.0181
4904	65.3506
4888	65.0036
4872	64.3078
4856	65.4863
4840	64.7178
4824	64.8863
4808	65.5626
4792	65.2605
4776	64.266
4760	65.1167
4744	64.9446
4728	64.5415
4712	65.8844
4696	63.7451
4680	64.1855
4664	65.0175
4648	65.7732
4632	64.8145
4616	65.045
4600	64.8767
4584	64.6235
4568	64.9304
4552	65.5244
4536	65.3275
4520	65.1873
4504	65.7119
4488	59.3365
4472	65.5862
4456	71.0133
4440	64.9993
4424	65.2481
4408	65.8068
4392	65.2557
4376	65.2735
4360	64.6858
4344	65.0728
4328	65.1062
4312	65.0512
4296	65.123
4280	64.9629
4264	64.9704
4248	65.3149
4232	64.9773
4216	65.2504
4200	64.9944
4184	65.3757
4168	64.9925
4152	65.0649
4136	65.3768
4120	65.307
4104	65.121
4088	64.965
4072	64.9016
4056	65.2659
4040	64.8916
4024	65.2406
4008	65.2159
3992	65.1833
3976	65.1839
3960	65.0418
3944	65.3037
3928	65.2958
3912	65.0864
3896	65.3298
3880	65.3616
3864	65.3408
3848	65.2574
3832	65.1885
3816	65.2798
3800	65.2697
3784	65.1327
3768	65.2928
3752	65.4895
3736	65.4467
3720	65.191
3704	65.2078
3688	65.2538
3672	65.411
3656	65.1481
3640	65.3708
3624	65.3114
3608	65.308
3592	64.9674
3576	65.269
3560	65.3348
3544	64.9963
3528	65.2477
3512	65.109
3496	65.2084
3480	65.1342
3464	65.4081
3448	65.1968
3432	65.2018
3416	65.404
3400	65.2226
3384	65.116
3368	65.1318
3352	65.1452
3336	65.2632
3320	65.316
3304	65.1428
3288	65.2751
3272	65.1939
3256	65.3547
3240	65.2702
3224	64.9703
3208	65.1973
3192	65.3792
3176	65.2124
3160	65.2781
3144	65.2146
3128	65.1944
3112	65.325
3096	65.1479
3080	65.0836
3064	65.0876
3048	65.2265
3032	65.2251
3016	65.2716
3000	65.1277
2984	65.1867
2968	65.2555
2952	65.2248
2936	65.1303
2920	65.2882
2904	65.3321
2888	65.1316
2872	65.1137
2856	65.2116
2840	65.0656
2824	65.2175
2808	65.1974
2792	65.221
2776	65.1269
2760	65.1878
2744	65.2932
2728	65.2144
2712	65.1649
2696	65.2677
2680	65.2151
2664	65.3639
2648	65.1856
2632	65.3745
2616	65.2962
2600	65.29
2584	65.2469
2568	65.264
2552	65.2913
2536	65.3017
2520	65.1904
2504	65.3191
2488	65.3191
2472	65.2943
2456	65.3634
2440	65.2231
2424	65.2918
2408	65.2902
2392	65.2263
2376	65.292
2360	65.302
2344	65.2359
2328	65.301
2312	65.2913
2296	65.2119
2280	65.3535
2264	65.1864
2248	65.2884
2232	65.2404
2216	65.4854
2200	65.1581
2184	65.1801
2168	65.2649
2152	65.2765
2136	65.2823
2120	65.2598
2104	65.3651
2088	65.3406
2072	65.3481
2056	65.3741
2040	65.2536
2024	65.4248
2008	65.2596
1992	65.163
1976	65.3306
1960	65.3153
1944	65.2025
1928	65.2377
1912	65.2512
1896	65.282
1880	65.3283
1864	65.3426
1848	65.3457
1832	65.297
1816	65.3061
1800	65.345
1784	65.293
1768	65.487
1752	65.2344
1736	65.4121
1720	65.3543
1704	65.4156
1688	65.52
1672	65.5808
1656	65.4997
1640	65.2746
1624	65.2124
1608	65.1719
1592	65.106
1576	65.2545
1560	65.4655
1544	65.4816
1528	65.2693
1512	65.3777
1496	65.2997
1480	65.2138
1464	65.3523
1448	65.1266
1432	65.304
1416	65.1433
1400	65.1625
1384	65.0335
1368	65.1872
1352	65.2131
1336	65.2094
1320	65.2437
1304	65.0801
1288	65.168
1272	65.1231
1256	65.1083
1240	65.1599
1224	65.1211
1208	65.242
1192	65.17
1176	65.0564
1160	65.1584
1144	65.1175
1128	65.1844
1112	65.1891
1096	64.9842
1080	65.1588
1064	65.06
1048	65.0871
1032	65.1304
1016	64.9722
1000	65.2086
984	 65.0792
968	 65.2729
952	 65.3678
936	 65.2487
920	 65.3612
904	 65.3771
888	 65.1083
872	 65.407
856	 65.4207
840	 65.442
824	 65.2488
808	 65.5324
792	 65.4309
776	 65.6344
760	 65.5919
744	 65.2897
728	 65.2201
712	 65.4621
696	 65.3545
680	 65.5359
664	 65.5072
648	 65.7399
632	 65.3335
616	 65.5534
600	 65.535
584	 65.739
568	 66.0446
552	 66.0581
536	 66.2186
520	 66.1834
504	 66.4201
488	 66.7875
472	 66.0044
456	 66.0515
440	 66.1803
424	 64.9785
408	 65.0348
392	 51.5484
376	 65.4495
370	 25.92