File: Bakgrunnsmateriale/MATLAB/FTIR/ftir_data/subCa/Mapping_25/BZ12041010-4_t16.asc
PE IR       SPECTRUM    SPECTRUM    ASCII       PEDS        1.60
  -1
BZ3AB6~1.ASC
17/04/10
10:13:56.00
17/04/10
10:14:23.00
tln
$BZ12041010-4_t0016$<tbV0>[5.2,-4.6,9.0,0.0,22,1,0]
27.028
64

2002,4.07
MIRTGS : RIGHTBACK : INTERNAL 2
MIR : ON : INTERNAL 2
OPTKBR

0.200000
8
8.000000
FILLER
RATIO
SPECTRUM
UNLOCKED 256

DOUBLE
64
COMBINED
1
0
0

0.002000
RATIO

1
0
TRUE
51149
0
LEFT NOT FITTED RIGHT NOT FITTED 0
NONE
NONE
15600
12
4.427000
51148
TRUE
1 0 8 72 0 0 0 0

15798

#HDR
-1
-1
#GR
µM
%T
2.38419e-05
0.0
2.000000
0.002000
12515
8
80.2769
3.405593
#DATA
2.000000	 64.9091
2.084000	 64.8081
2.168000	 64.4974
2.252000	 63.2895
2.336000	 65.0768
2.420000	 65.2175
2.504000	 65.0983
2.588000	 65.0602
2.672000	 65.3144
2.756000	 65.262
2.840000	 65.0571
2.924000	 65.1368
3.008000	 65.1207
3.092000	 65.2368
3.176000	 65.0774
3.260000	 65.1791
3.344000	 65.1855
3.428000	 65.0013
3.512000	 65.0439
3.596000	 65.2642
3.680000	 65.3724
3.764000	 65.1306
3.848000	 65.1776
3.932000	 65.2994
4.016000	 65.3424
4.100000	 65.2954
4.184000	 65.2869
4.268000	 65.2493
4.352000	 65.161
4.436000	 65.2038
4.520000	 65.2029
4.604000	 65.1635
4.688000	 65.1472
4.772000	 65.2071
4.856000	 65.2496
4.940000	 65.1737
5.024000	 65.1985
5.108000	 65.1848
5.192000	 65.2207
5.276000	 65.1742
5.359999	 65.2111
5.444000	 65.1878
5.528000	 65.2446
5.612000	 65.2439
5.696000	 65.23
5.780000	 65.0668
5.864000	 65.1735
5.948000	 65.121
6.032000	 65.0648
6.116000	 65.1647
6.200000	 65.1872
6.284000	 65.0979
6.368000	 65.0766
6.452000	 65.2273
6.536000	 65.1109
6.620000	 65.1249
6.704000	 65.3052
6.788000	 65.1552
6.872000	 65.0327
6.956000	 65.2165
7.040000	 65.0059
7.124000	 65.148
7.208000	 65.132
7.292000	 65.0544
7.376000	 65.0938
7.460000	 65.1252
7.544000	 65.1118
7.628000	 65.0757
7.712000	 65.0583
7.796000	 65.1082
7.880000	 65.0936
7.964000	 65.0166
8.048000	 65.0601
8.132000	 65.1794
8.216000	 65.0488
8.300000	 65.0778
8.384000	 64.9941
8.468000	 65.0642
8.552000	 65.0816
8.635999	 65.0666
8.719999	 64.9908
8.804000	 65.1283
8.888000	 65.0687
8.972000	 64.9958
9.056000	 65.1334
9.140000	 64.9124
9.224000	 64.9649
9.308000	 64.7698
9.391999	 65.0599
9.475999	 65.0172
9.560000	 64.9716
9.644000	 65.1167
9.728000	 65.0263
9.812000	 64.9731
9.896000	 65.2453
9.980000	 65.2108
10.064	65.0069
10.148	64.9805
10.232	65.0026
10.316	65.1552
10.4	65.097
10.484	65.3105
10.568	65.3239
10.652	65.1761
10.736	65.0499
10.82	65.2154
10.904	65.1881
10.988	65.0985
11.072	65.1464
11.156	65.1425
11.24	65.1449
11.324	65.0829
11.408	65.2656
11.492	65.3467
11.576	65.2475
11.66	65.1253
11.744	65.1341
11.828	65.3095
11.912	65.2378
11.996	65.3173
12.08	65.6007
12.164	65.4501
12.248	65.2907
12.332	65.4189
12.416	65.5011
12.5	65.4469
12.584	65.1398
12.668	65.1772
12.752	65.4062
12.836	65.4687
12.92	65.4874
13.004	65.4949
13.088	65.4081
13.172	65.3058
13.256	65.3469
13.34	65.5429
13.424	65.5087
13.508	65.3461
13.592	65.2537
13.676	65.3382
13.76	65.3675
13.844	65.3238
13.928	65.3954
14.012	65.3556
14.096	65.3249
14.18	65.3931
14.264	65.3976
14.348	65.3112
14.432	65.2542
14.516	65.2965
14.6	65.4424
14.684	65.5932
14.768	65.5971
14.852	65.5031
14.936	65.4004
15.02	65.3437
15.104	65.3959
15.188	65.5449
15.272	65.5921
15.356	65.3762
15.44	65.1962
15.524	65.3346
15.608	65.5311
15.692	65.5661
15.776	65.5948
15.86	65.6809
15.944	65.7191
16.028	65.7335
16.112	65.7865
16.196	65.7822
16.28	65.6485
16.364	65.5203
16.448	65.5163
16.532	65.5157
16.616	65.3771
16.7	65.15
16.784	64.9666
16.868	64.9387
16.952	65.0615
17.036	65.1974
17.12	65.2351
17.204	65.1807
17.288	65.0853
17.372	65.0187
17.456	65.0574
17.54	65.1817
17.624	65.2928
17.708	65.3436
17.792	65.3572
17.876	65.3492
17.96	65.3091
18.044	65.2459
18.128	65.2208
18.212	65.3074
18.296	65.503
18.38	65.6766
18.464	65.6925
18.548	65.5908
18.632	65.5615
18.716	65.7079
18.8	65.9014
18.884	65.926
18.968	65.7118
19.052	65.4021
19.136	65.2178
19.22	65.2897
19.304	65.5735
19.388	65.9152
19.472	66.1895
19.556	66.379
19.64	66.5247
19.724	66.6103
19.808	66.5514
19.892	66.3034
19.976	65.949
20.06	65.6451
20.144	65.5051
20.228	65.5383
20.312	65.6686
20.396	65.7981
20.48	65.8635
20.564	65.8588
20.648	65.8283
20.732	65.8289
20.816	65.8911
20.9	65.9977
20.984	66.1022
21.068	66.1604
21.152	66.148
21.236	66.0602
21.32	65.9125
21.404	65.7404
21.488	65.5909
21.572	65.509
21.656	65.5263
21.74	65.6449
21.824	65.8308
21.908	66.0236
21.992	66.1651
22.076	66.2263
22.16	66.2189
22.244	66.1783
22.328	66.1258
22.412	66.0465
22.496	65.9154
22.58	65.7162
22.664	65.4699
22.748	65.2418
22.832	65.0803
22.916	64.9904
23	64.9314
23.084	64.8548
23.168	64.7546
23.252	64.676
23.336	64.6735
23.42	64.7856
23.504	64.9564
23.588	65.0697
23.672	65.0428
23.756	64.9155
23.84	64.9376
23.924	65.4598
24.008	66.7436
24.092	68.7926
24.176	71.2685
24.26	73.5978
24.344	75.1641
24.428	75.6293
24.512	75.0614
24.596	73.8
24.68	72.2181
24.764	70.5199
24.848	68.6592
24.932	66.4228
25.016	63.6549
25.1	60.5324
25.184	57.2793
25.268	54.1256
25.352	51.3942
25.436	49.0673
25.52	46.6888
25.604	43.6076
25.688	40.1326
25.772	37.1838
25.856	35.5148
25.94	34.8834
26.024	34.8338
26.108	35.526
26.192	36.6897
26.276	37.1288
26.36	33.516
26.444	24.6614
26.528	12.5666
26.612	4.216407
26.696	5.194616
26.78	15.5068
26.864	27.9029
26.948	34.6523
27.028	38.8155