File: Bakgrunnsmateriale/MATLAB/FTIR/ftir_data/subCa/Mapping_25/BZ12041010-4_e26_cm-1.asc
PE IR       SPECTRUM    SPECTRUM    ASCII       PEDS        1.60
  -1
BZ1204~1.ASC
17/04/10
08:50:16.00
17/04/10
08:50:16.00
tln
$BZ12041010-4_e0026$<ebV0>[-23.0,28.0,5.5,0.0,22,1,0]
370
64

2002,4.07
MIRTGS : RIGHTBACK : INTERNAL 2
MIR : ON : INTERNAL 2
OPTKBR

0.200000
8
8.000000
FILLER
SINGLE
SPECTRUM
UNLOCKED 256

DOUBLE

COMBINED
1
0
0

1.000000
BACKG

1
0
TRUE
51149
0
LEFT NOT FITTED RIGHT NOT FITTED 0
NONE
NONE
15600
12
4.427000
51148
TRUE
1 0 8 72 0 0 0 0

15798

#HDR
-1
-1
#GR
CM-1
EGY
2.38419e-05
0.0
5000
-1.000000
4631
8
2.464747
0.007033
#DATA
5000	0.778388
4984	0.790381
4968	0.794339
4952	0.796127
4936	0.806093
4920	0.811743
4904	0.817322
4888	0.823760
4872	0.831723
4856	0.843095
4840	0.852847
4824	0.858211
4808	0.872611
4792	0.882554
4776	0.894618
4760	0.896549
4744	0.910305
4728	0.917077
4712	0.900626
4696	0.934910
4680	0.927495
4664	0.921392
4648	0.910663
4632	0.925898
4616	0.936698
4600	0.947213
4584	0.956034
4568	0.964140
4552	0.971698
4536	0.986218
4520	0.994563
4504	0.993514
4488	1.098346
4472	1.016688
4456	1.017189
4440	1.018667
4424	1.021862
4408	1.023054
4392	1.033496
4376	1.042413
4360	1.057291
4344	1.071357
4328	1.089835
4312	1.111125
4296	1.129031
4280	1.148796
4264	1.166844
4248	1.176047
4232	1.190972
4216	1.198959
4200	1.207041
4184	1.214647
4168	1.221799
4152	1.230764
4136	1.242589
4120	1.255488
4104	1.270747
4088	1.292133
4072	1.311469
4056	1.334095
4040	1.357316
4024	1.378560
4008	1.392102
3992	1.405382
3976	1.414251
3960	1.423478
3944	1.426553
3928	1.429915
3912	1.438856
3896	1.436972
3880	1.446199
3864	1.456832
3848	1.467967
3832	1.488566
3816	1.501989
3800	1.519966
3784	1.549768
3768	1.562738
3752	1.548242
3736	1.560902
3720	1.583576
3704	1.585268
3688	1.576447
3672	1.565670
3656	1.579713
3640	1.589465
3624	1.584815
3608	1.592254
3592	1.604127
3576	1.616501
3560	1.622080
3544	1.634263
3528	1.632857
3512	1.637721
3496	1.632094
3480	1.625204
3464	1.614093
3448	1.603317
3432	1.594495
3416	1.597046
3400	1.606965
3384	1.617503
3368	1.631832
3352	1.657438
3336	1.680803
3320	1.704740
3304	1.729512
3288	1.749610
3272	1.768827
3256	1.779484
3240	1.791930
3224	1.799511
3208	1.800036
3192	1.801800
3176	1.810526
3160	1.815104
3144	1.826095
3128	1.846194
3112	1.865768
3096	1.895785
3080	1.929426
3064	1.951217
3048	1.975870
3032	1.990437
3016	1.977610
3000	2.039623
2984	2.038431
2968	1.970076
2952	1.931095
2936	1.825809
2920	1.811599
2904	1.955652
2888	2.008509
2872	1.995682
2856	1.937484
2840	2.082133
2824	2.141952
2808	2.179336
2792	2.207636
2776	2.238321
2760	2.256655
2744	2.263593
2728	2.268624
2712	2.263212
2696	2.253532
2680	2.249264
2664	2.233862
2648	2.227449
2632	2.226614
2616	2.228617
2600	2.235889
2584	2.250576
2568	2.275753
2552	2.296495
2536	2.313637
2520	2.329778
2504	2.335071
2488	2.334761
2472	2.327704
2456	2.312850
2440	2.297806
2424	2.279734
2408	2.271175
2392	2.259016
2376	2.248954
2360	2.243256
2344	2.271771
2328	2.292275
2312	2.325057
2296	2.351975
2280	2.369594
2264	2.385640
2248	2.389264
2232	2.387261
2216	2.376222
2200	2.368164
2184	2.353930
2168	2.343869
2152	2.339196
2136	2.341866
2120	2.343225
2104	2.346611
2088	2.345895
2072	2.363634
2056	2.398085
2040	2.430796
2024	2.448153
2008	2.462077
1992	2.463030
1976	2.451539
1960	2.438282
1944	2.424311
1928	2.409791
1912	2.393412
1896	2.377057
1880	2.380657
1864	2.386903
1848	2.395701
1832	2.410387
1816	2.429914
1800	2.431893
1784	2.430629
1768	2.410411
1752	2.384376
1736	2.319264
1720	2.304077
1704	2.267980
1688	2.243828
1672	2.220797
1656	2.168202
1640	2.150726
1624	2.105093
1608	1.976203
1592	2.022051
1576	1.979827
1560	1.915979
1544	1.947546
1528	2.101516
1512	2.082681
1496	1.698136
1480	1.959848
1464	1.932358
1448	1.785254
1432	1.867437
1416	1.842069
1400	1.731204
1384	1.786684
1368	1.817035
1352	1.816225
1336	1.826882
1320	1.854467
1304	1.856017
1288	1.855421
1272	1.806759
1256	1.758098
1240	1.835465
1224	1.813960
1208	1.747250
1192	1.741337
1176	1.699662
1160	1.628494
1144	1.598978
1128	1.539683
1112	1.457786
1096	1.427125
1080	1.426506
1064	1.437973
1048	1.306629
1032	1.380324
1016	1.368546
1000	1.400208
984	 1.384830
968	 1.344776
952	 1.288151
936	 1.251101
920	 1.216650
904	 1.161193
888	 1.119899
872	 1.036715
856	 1.091480
840	 1.060914
824	 0.846242
808	 0.947809
792	 0.960111
776	 0.974965
760	 0.963568
744	 0.943684
728	 0.903606
712	 0.856685
696	 0.792241
680	 0.734376
664	 0.706291
648	 0.664591
632	 0.624465
616	 0.575399
600	 0.524663
584	 0.508093
568	 0.489521
552	 0.464534
536	 0.435376
520	 0.398921
504	 0.359940
488	 0.303339
472	 0.252246
456	 0.196647
440	 0.149059
424	 0.098824
408	 0.055527
392	 0.025892
376	 0.009822
370	 0.007033