File: Bakgrunnsmateriale/MATLAB/FTIR/ftir_data/subCa/Mapping_25/BZ12041010-4_t13_cm-1.asc
PE IR       SPECTRUM    SPECTRUM    ASCII       PEDS        1.60
  -1
BZ2C7F~1.ASC
17/04/10
09:59:47.00
17/04/10
09:59:47.00
tln
$BZ12041010-4_t0013$<tbV0>[0.0,-7.2,9.0,0.0,22,1,0]
370
64

2002,4.07
MIRTGS : RIGHTBACK : INTERNAL 2
MIR : ON : INTERNAL 2
OPTKBR

0.200000
8
8.000000
FILLER
RATIO
SPECTRUM
UNLOCKED 256

DOUBLE
64
COMBINED
1
0
0

1.000000
RATIO

1
0
TRUE
51149
0
LEFT NOT FITTED RIGHT NOT FITTED 0
NONE
NONE
15600
12
4.427000
51148
TRUE
1 0 8 72 0 0 0 0

15798

#HDR
-1
-1
#GR
CM-1
%T
2.38419e-05
0.0
5000
-1.000000
4631
8
91.5871
13.9042
#DATA
5000	64.9
4984	64.5365
4968	64.5094
4952	65.0929
4936	64.1198
4920	64.8766
4904	65.4243
4888	65.0492
4872	66.7281
4856	66.1046
4840	65.355
4824	65.1699
4808	65.6388
4792	64.7392
4776	65.9576
4760	65.4292
4744	65.3591
4728	65.5037
4712	65.1633
4696	65.1775
4680	64.959
4664	65.0458
4648	64.8533
4632	64.4686
4616	64.3603
4600	64.1261
4584	64.1672
4568	63.6895
4552	63.2959
4536	63.6501
4520	64.2039
4504	63.8364
4488	64.4542
4472	69.677
4456	91.5871
4440	62.5042
4424	63.0153
4408	63.637
4392	63.9601
4376	63.7709
4360	64.1215
4344	63.8464
4328	64.3867
4312	64.4694
4296	64.9967
4280	65.0288
4264	65.0763
4248	65.2496
4232	65.458
4216	65.2569
4200	65.2818
4184	65.5644
4168	65.5583
4152	65.1265
4136	65.3728
4120	65.3398
4104	65.3636
4088	65.5425
4072	65.4743
4056	65.1011
4040	65.3071
4024	65.1014
4008	65.2459
3992	64.9398
3976	64.9841
3960	64.8717
3944	64.9301
3928	64.9717
3912	64.9626
3896	65.1168
3880	65.0455
3864	65.2797
3848	65.1108
3832	65.0142
3816	65.2491
3800	65.1312
3784	65.3008
3768	65.1784
3752	65.3079
3736	65.3102
3720	65.3981
3704	65.4234
3688	65.3091
3672	65.3603
3656	65.3682
3640	65.3142
3624	65.3913
3608	65.3584
3592	65.345
3576	65.2972
3560	65.3137
3544	65.3211
3528	65.2183
3512	65.0905
3496	65.3101
3480	65.1008
3464	65.1472
3448	65.2282
3432	65.0829
3416	65.0355
3400	65.2485
3384	65.1903
3368	65.2473
3352	65.2949
3336	65.3192
3320	65.3041
3304	65.3318
3288	65.3256
3272	65.1296
3256	65.2819
3240	65.392
3224	65.2388
3208	65.2739
3192	65.431
3176	65.3204
3160	65.2012
3144	65.2753
3128	65.4527
3112	65.3577
3096	65.3345
3080	65.1342
3064	65.1417
3048	65.1909
3032	65.3205
3016	65.1672
3000	65.287
2984	65.1808
2968	65.1823
2952	65.2102
2936	65.0553
2920	65.1402
2904	65.3322
2888	65.3705
2872	65.4145
2856	65.2405
2840	65.3121
2824	65.2913
2808	65.3714
2792	65.3932
2776	65.2853
2760	65.3715
2744	65.3011
2728	65.3658
2712	65.351
2696	65.2997
2680	65.1968
2664	65.3469
2648	65.2654
2632	65.2544
2616	65.1821
2600	65.2292
2584	65.2155
2568	65.244
2552	65.243
2536	65.1685
2520	65.3001
2504	65.249
2488	65.3538
2472	65.2138
2456	65.3799
2440	65.403
2424	65.3277
2408	65.4345
2392	65.3377
2376	65.3085
2360	65.2615
2344	65.2742
2328	65.3453
2312	65.3493
2296	65.2709
2280	65.1835
2264	65.3518
2248	65.3412
2232	65.3038
2216	65.2902
2200	65.2771
2184	65.2407
2168	65.3495
2152	65.1492
2136	65.1934
2120	65.2873
2104	65.2831
2088	65.2361
2072	65.2093
2056	65.2812
2040	65.1642
2024	65.2459
2008	65.3478
1992	65.3294
1976	65.3265
1960	65.3476
1944	65.2981
1928	65.3108
1912	65.2978
1896	65.2374
1880	65.3383
1864	65.2657
1848	65.3899
1832	65.3389
1816	65.2911
1800	65.3298
1784	65.2318
1768	65.3977
1752	65.1573
1736	65.181
1720	65.0859
1704	65.2802
1688	65.2552
1672	65.2158
1656	65.2123
1640	65.1399
1624	65.2937
1608	65.2108
1592	65.1848
1576	65.2561
1560	65.1308
1544	65.1555
1528	65.2258
1512	65.1532
1496	65.1752
1480	65.1318
1464	65.2432
1448	65.2219
1432	65.2489
1416	65.0916
1400	65.1653
1384	65.2431
1368	65.2238
1352	65.112
1336	65.0546
1320	65.098
1304	65.1482
1288	65.1805
1272	65.1096
1256	65.049
1240	65.1385
1224	65.204
1208	65.0965
1192	65.0633
1176	65.1343
1160	65.1268
1144	65.2145
1128	65.131
1112	64.9896
1096	65.2157
1080	65.0531
1064	65.2156
1048	65.2068
1032	65.1988
1016	65.1211
1000	65.0841
984	 65.1374
968	 65.26
952	 65.2586
936	 65.2975
920	 65.311
904	 65.3064
888	 65.1805
872	 65.261
856	 65.2871
840	 65.3575
824	 65.3544
808	 65.2386
792	 65.4439
776	 65.4376
760	 65.3613
744	 65.4231
728	 65.2083
712	 65.3833
696	 65.0891
680	 65.5488
664	 65.5365
648	 65.3663
632	 65.2658
616	 65.5179
600	 66.1095
584	 65.5422
568	 65.4204
552	 65.9683
536	 65.8745
520	 65.6146
504	 66.166
488	 65.518
472	 64.7911
456	 65.7581
440	 66.4077
424	 71.8113
408	 58.2583
392	 63.3535
376	 14.2757
370	 23.1533