File: Bakgrunnsmateriale/MATLAB/FTIR/ftir_data/subCa/Mapping_25/BZ12041010-4_t23.asc
PE IR       SPECTRUM    SPECTRUM    ASCII       PEDS        1.60
  -1
BZ3EBA~1.ASC
17/04/10
10:53:47.00
17/04/10
10:54:13.00
tln
$BZ12041010-4_t0023$<tbV0>[0.0,-2.0,9.0,0.0,22,1,0]
27.028
64

2002,4.07
MIRTGS : RIGHTBACK : INTERNAL 2
MIR : ON : INTERNAL 2
OPTKBR

0.200000
8
8.000000
FILLER
RATIO
SPECTRUM
UNLOCKED 256

DOUBLE
64
COMBINED
1
0
0

0.002000
RATIO

1
0
TRUE
51149
0
LEFT NOT FITTED RIGHT NOT FITTED 0
NONE
NONE
15600
12
4.427000
51148
TRUE
1 0 8 72 0 0 0 0

15798

#HDR
-1
-1
#GR
µM
%T
2.38419e-05
0.0
2.000000
0.002000
12515
8
72.852
31.8282
#DATA
2.000000	 56.2025
2.084000	 56.7417
2.168000	 56.9166
2.252000	 56.5459
2.336000	 56.855
2.420000	 56.4978
2.504000	 56.6521
2.588000	 56.645
2.672000	 56.7924
2.756000	 56.9062
2.840000	 56.5893
2.924000	 56.487
3.008000	 56.4502
3.092000	 56.6314
3.176000	 56.6851
3.260000	 56.9166
3.344000	 56.6989
3.428000	 56.4946
3.512000	 56.6264
3.596000	 56.9175
3.680000	 56.6954
3.764000	 56.6849
3.848000	 56.878
3.932000	 56.9782
4.016000	 56.74
4.100000	 56.8245
4.184000	 56.7844
4.268000	 56.8897
4.352000	 56.8748
4.436000	 56.7756
4.520000	 56.6736
4.604000	 56.7258
4.688000	 56.7384
4.772000	 56.8191
4.856000	 56.7456
4.940000	 56.7379
5.024000	 56.6796
5.108000	 56.5696
5.192000	 56.6027
5.276000	 56.5857
5.359999	 56.5804
5.444000	 56.6829
5.528000	 56.7096
5.612000	 56.6456
5.696000	 56.4615
5.780000	 56.3203
5.864000	 56.3178
5.948000	 56.3652
6.032000	 56.4281
6.116000	 56.575
6.200000	 56.5739
6.284000	 56.5053
6.368000	 56.5063
6.452000	 56.4844
6.536000	 56.5978
6.620000	 56.5338
6.704000	 56.3809
6.788000	 56.4727
6.872000	 56.534
6.956000	 56.4178
7.040000	 56.3283
7.124000	 56.3394
7.208000	 56.3937
7.292000	 56.3382
7.376000	 56.376
7.460000	 56.4113
7.544000	 56.2412
7.628000	 56.2669
7.712000	 56.311
7.796000	 56.301
7.880000	 56.3806
7.964000	 56.1783
8.048000	 56.3326
8.132000	 56.4117
8.216000	 56.3853
8.300000	 56.4422
8.384000	 56.4842
8.468000	 56.4434
8.552000	 56.362
8.635999	 56.1525
8.719999	 56.1667
8.804000	 56.415
8.888000	 56.6754
8.972000	 56.3302
9.056000	 56.3879
9.140000	 56.3936
9.224000	 56.4181
9.308000	 56.2528
9.391999	 55.9783
9.475999	 56.0843
9.560000	 55.9712
9.644000	 55.9907
9.728000	 56.0547
9.812000	 55.8339
9.896000	 55.892
9.980000	 56.0613
10.064	56.0315
10.148	55.9426
10.232	55.867
10.316	56.0776
10.4	56.0238
10.484	55.8759
10.568	56.2689
10.652	56.3813
10.736	56.2448
10.82	56.2613
10.904	56.2143
10.988	56.3089
11.072	56.1704
11.156	56.1991
11.24	56.2566
11.324	56.273
11.408	56.5351
11.492	56.4582
11.576	56.4479
11.66	56.3801
11.744	56.3552
11.828	56.3848
11.912	56.3271
11.996	56.2926
12.08	56.3514
12.164	56.3565
12.248	56.4845
12.332	56.5331
12.416	56.5336
12.5	56.5168
12.584	56.5545
12.668	56.5254
12.752	56.3969
12.836	56.277
12.92	56.3166
13.004	56.3466
13.088	56.3546
13.172	56.3571
13.256	56.4305
13.34	56.4454
13.424	56.4363
13.508	56.4939
13.592	56.5529
13.676	56.6128
13.76	56.5748
13.844	56.4495
13.928	56.6242
14.012	56.8306
14.096	56.6871
14.18	56.4474
14.264	56.45
14.348	56.4971
14.432	56.5416
14.516	56.6714
14.6	56.728
14.684	56.7306
14.768	56.7032
14.852	56.5997
14.936	56.4832
15.02	56.4217
15.104	56.4444
15.188	56.4821
15.272	56.4164
15.356	56.3282
15.44	56.3774
15.524	56.4969
15.608	56.5081
15.692	56.367
15.776	56.1968
15.86	56.215
15.944	56.4854
16.028	56.7806
16.112	56.8711
16.196	56.7318
16.28	56.4626
16.364	56.2309
16.448	56.1618
16.532	56.2041
16.616	56.2287
16.7	56.2094
16.784	56.2271
16.868	56.3487
16.952	56.5222
17.036	56.6263
17.12	56.6354
17.204	56.6231
17.288	56.5786
17.372	56.4451
17.456	56.3232
17.54	56.41
17.624	56.7345
17.708	57.0756
17.792	57.1737
17.876	56.9805
17.96	56.6799
18.044	56.4753
18.128	56.4106
18.212	56.4206
18.296	56.4697
18.38	56.5602
18.464	56.6704
18.548	56.7456
18.632	56.7443
18.716	56.6818
18.8	56.6353
18.884	56.6839
18.968	56.836
19.052	57.0162
19.136	57.135
19.22	57.1513
19.304	57.0564
19.388	56.8393
19.472	56.5066
19.556	56.1342
19.64	55.8621
19.724	55.8075
19.808	55.9718
19.892	56.2173
19.976	56.359
20.06	56.298
20.144	56.0882
20.228	55.8892
20.312	55.8435
20.396	55.9757
20.48	56.192
20.564	56.3678
20.648	56.4593
20.732	56.5359
20.816	56.7163
20.9	57.0468
20.984	57.4264
21.068	57.6688
21.152	57.6434
21.236	57.3864
21.32	57.0771
21.404	56.8971
21.488	56.8979
21.572	56.9775
21.656	56.9913
21.74	56.8437
21.824	56.5411
21.908	56.1588
21.992	55.7657
22.076	55.4144
22.16	55.1636
22.244	55.0866
22.328	55.2339
22.412	55.5953
22.496	56.0643
22.58	56.475
22.664	56.6855
22.748	56.6158
22.832	56.2112
22.916	55.4192
23	54.1514
23.084	52.3925
23.168	50.3029
23.252	48.2476
23.336	46.758
23.42	46.2628
23.504	46.8818
23.588	48.2678
23.672	49.758
23.756	50.6501
23.84	50.6336
23.924	49.965
24.008	49.2917
24.092	49.2986
24.176	50.3321
24.26	52.3105
24.344	54.8273
24.428	57.4208
24.512	59.768
24.596	61.7945
24.68	63.656
24.764	65.6021
24.848	67.786
24.932	70.0507
25.016	71.9175
25.1	72.828
25.184	72.3276
25.268	70.3773
25.352	67.4348
25.436	64.2408
25.52	61.4941
25.604	59.5726
25.688	58.4056
25.772	57.5098
25.856	56.2582
25.94	54.1971
26.024	51.1844
26.108	47.4171
26.192	43.3597
26.276	39.5498
26.36	36.3617
26.444	33.9937
26.528	32.5103
26.612	31.8612
26.696	32.0545
26.78	33.182
26.864	35.4142
26.948	38.9071
27.028	43.3511