File: Bakgrunnsmateriale/MATLAB/FTIR/ftir_data/subCa/Mapping_25/BZ12041010-4_t05_cm-1.asc
PE IR       SPECTRUM    SPECTRUM    ASCII       PEDS        1.60
  -1
BZAB7E~1.ASC
17/04/10
09:14:49.00
17/04/10
09:14:49.00
tln
$BZ12041010-4_t0005$<tbV0>[-5.2,-12.4,9.0,0.0,22,1,0]
370
64

2002,4.07
MIRTGS : RIGHTBACK : INTERNAL 2
MIR : ON : INTERNAL 2
OPTKBR

0.200000
8
8.000000
FILLER
RATIO
SPECTRUM
UNLOCKED 256

DOUBLE
64
COMBINED
1
0
0

1.000000
RATIO

1
0
TRUE
51149
0
LEFT NOT FITTED RIGHT NOT FITTED 0
NONE
NONE
15600
12
4.427000
51148
TRUE
1 0 8 72 0 0 0 0

15798

#HDR
-1
-1
#GR
CM-1
%T
2.38419e-05
0.0
5000
-1.000000
4631
8
99.5719
51.5866
#DATA
5000	64.9431
4984	64.0644
4968	64.6193
4952	65.2236
4936	64.5504
4920	64.8258
4904	64.5832
4888	64.6064
4872	64.614
4856	64.6044
4840	65.3646
4824	65.1477
4808	63.1812
4792	65.4683
4776	64.1947
4760	65.6008
4744	64.9158
4728	64.2707
4712	66.068
4696	64.0524
4680	64.3563
4664	64.8205
4648	65.9406
4632	65.1715
4616	65.0698
4600	65.06
4584	64.7954
4568	65.3537
4552	65.3726
4536	64.9825
4520	65.5775
4504	66.136
4488	60.6637
4472	67.3766
4456	65.4628
4440	65.8667
4424	66.2466
4408	65.7712
4392	65.457
4376	65.641
4360	65.1268
4344	65.6379
4328	65.1251
4312	65.0104
4296	64.8838
4280	65.0191
4264	65.034
4248	64.9257
4232	65.1729
4216	64.9596
4200	65.1635
4184	65.2616
4168	65.1243
4152	65.1051
4136	64.8693
4120	64.7934
4104	65.1748
4088	65.1667
4072	65.1079
4056	65.1979
4040	65.2015
4024	65.1401
4008	64.9978
3992	65.1426
3976	65.1072
3960	64.9782
3944	65.2626
3928	65.3007
3912	65.3404
3896	65.4235
3880	65.4006
3864	65.0535
3848	65.3526
3832	65.5567
3816	65.3371
3800	65.3115
3784	65.0715
3768	65.1737
3752	65.3608
3736	65.3932
3720	65.2387
3704	65.3379
3688	65.2107
3672	65.6595
3656	65.4093
3640	65.5714
3624	65.3769
3608	65.4044
3592	65.2321
3576	65.1658
3560	65.4504
3544	65.3267
3528	65.2762
3512	65.2932
3496	65.3523
3480	65.2242
3464	65.4295
3448	65.313
3432	65.2365
3416	65.1474
3400	65.3039
3384	65.2991
3368	65.4293
3352	65.1524
3336	65.2807
3320	65.2873
3304	65.206
3288	65.2302
3272	65.122
3256	65.4248
3240	65.3083
3224	65.1499
3208	65.1832
3192	65.3851
3176	65.252
3160	65.2309
3144	65.2982
3128	65.2111
3112	65.2935
3096	65.3243
3080	65.2271
3064	65.1998
3048	65.3455
3032	65.092
3016	65.3012
3000	65.0274
2984	65.1591
2968	65.2343
2952	65.1772
2936	65.1422
2920	65.1147
2904	65.1903
2888	65.1659
2872	65.1367
2856	65.2298
2840	65.2789
2824	65.2426
2808	65.262
2792	65.1416
2776	65.2403
2760	65.2098
2744	65.3642
2728	65.3051
2712	65.2764
2696	65.2546
2680	65.1225
2664	65.296
2648	65.254
2632	65.3176
2616	65.3049
2600	65.3485
2584	65.3131
2568	65.2512
2552	65.305
2536	65.2831
2520	65.2682
2504	65.3355
2488	65.3814
2472	65.2498
2456	65.3543
2440	65.2343
2424	65.3013
2408	65.3219
2392	65.2747
2376	65.2021
2360	65.269
2344	65.2575
2328	65.2108
2312	65.3443
2296	65.2639
2280	65.3033
2264	65.2501
2248	65.3737
2232	65.3508
2216	65.4109
2200	65.283
2184	65.3403
2168	65.3502
2152	65.4006
2136	65.2683
2120	65.2974
2104	65.3865
2088	65.1699
2072	65.4023
2056	65.3957
2040	65.3406
2024	65.3791
2008	65.3415
1992	65.3516
1976	65.2949
1960	65.2715
1944	65.324
1928	65.3191
1912	65.3661
1896	65.3359
1880	65.3314
1864	65.395
1848	65.3787
1832	65.2763
1816	65.3254
1800	65.3979
1784	65.3961
1768	65.4481
1752	65.3752
1736	65.2491
1720	65.3392
1704	65.3984
1688	65.3641
1672	65.4765
1656	65.5419
1640	65.3626
1624	65.292
1608	65.2195
1592	65.208
1576	65.5225
1560	65.6355
1544	65.5132
1528	65.4635
1512	65.5709
1496	65.4256
1480	65.2549
1464	65.3368
1448	65.2895
1432	65.3993
1416	65.3194
1400	65.2799
1384	65.3162
1368	65.2777
1352	65.1843
1336	65.2719
1320	65.3122
1304	65.3666
1288	65.266
1272	65.2096
1256	65.211
1240	65.2603
1224	65.2766
1208	65.3176
1192	65.2632
1176	65.0373
1160	65.3002
1144	65.168
1128	65.2173
1112	65.262
1096	65.1832
1080	65.2305
1064	65.1764
1048	65.3011
1032	65.2053
1016	65.215
1000	65.3139
984	 65.2641
968	 65.3787
952	 65.2902
936	 65.295
920	 65.2282
904	 65.3528
888	 65.3456
872	 65.5632
856	 65.4965
840	 65.3437
824	 65.5588
808	 65.5469
792	 65.5614
776	 65.8178
760	 65.6413
744	 65.2486
728	 65.4813
712	 65.7949
696	 65.4646
680	 65.5935
664	 65.4998
648	 65.5294
632	 65.61
616	 65.9574
600	 65.3771
584	 65.4442
568	 66.1607
552	 66.1375
536	 66.6237
520	 66.6585
504	 66.6893
488	 66.8035
472	 65.7891
456	 66.4193
440	 67.3783
424	 65.8908
408	 71.8733
392	 79.0917
376	 89.9242
370	 99.5719