File: Bakgrunnsmateriale/MATLAB/FTIR/ftir_data/subCa/Mapping_25/BZ12041010-4_t15.asc
PE IR       SPECTRUM    SPECTRUM    ASCII       PEDS        1.60
  -1
BZ3AB2~1.ASC
17/04/10
10:09:00.00
17/04/10
10:09:27.00
tln
$BZ12041010-4_t0015$<tbV0>[-5.2,-7.2,9.0,0.0,22,1,0]
27.028
64

2002,4.07
MIRTGS : RIGHTBACK : INTERNAL 2
MIR : ON : INTERNAL 2
OPTKBR

0.200000
8
8.000000
FILLER
RATIO
SPECTRUM
UNLOCKED 256

DOUBLE
64
COMBINED
1
0
0

0.002000
RATIO

1
0
TRUE
51149
0
LEFT NOT FITTED RIGHT NOT FITTED 0
NONE
NONE
15600
12
4.427000
51148
TRUE
1 0 8 72 0 0 0 0

15798

#HDR
-1
-1
#GR
µM
%T
2.38419e-05
0.0
2.000000
0.002000
12515
8
79.0025
31.7911
#DATA
2.000000	 64.6822
2.084000	 65.8656
2.168000	 64.9515
2.252000	 64.8131
2.336000	 64.8939
2.420000	 64.8866
2.504000	 65.0581
2.588000	 65.2098
2.672000	 65.2626
2.756000	 65.3275
2.840000	 65.3288
2.924000	 65.1765
3.008000	 65.2688
3.092000	 65.3131
3.176000	 65.245
3.260000	 65.2348
3.344000	 65.5042
3.428000	 65.1054
3.512000	 65.2912
3.596000	 65.339
3.680000	 65.4756
3.764000	 65.4174
3.848000	 65.4599
3.932000	 65.4056
4.016000	 65.3058
4.100000	 65.5349
4.184000	 65.3011
4.268000	 65.2646
4.352000	 65.2993
4.436000	 65.2304
4.520000	 65.3307
4.604000	 65.3831
4.688000	 65.2944
4.772000	 65.1759
4.856000	 65.4543
4.940000	 65.3348
5.024000	 65.4396
5.108000	 65.3858
5.192000	 65.3527
5.276000	 65.3105
5.359999	 65.3256
5.444000	 65.2942
5.528000	 65.3092
5.612000	 65.3387
5.696000	 65.3088
5.780000	 65.0478
5.864000	 65.1648
5.948000	 65.1953
6.032000	 65.2847
6.116000	 65.3176
6.200000	 65.227
6.284000	 65.2644
6.368000	 65.2569
6.452000	 65.3491
6.536000	 65.3106
6.620000	 65.3671
6.704000	 65.4072
6.788000	 65.2144
6.872000	 65.3882
6.956000	 65.3426
7.040000	 65.2801
7.124000	 65.3626
7.208000	 65.1835
7.292000	 65.3274
7.376000	 65.2626
7.460000	 65.24
7.544000	 65.3253
7.628000	 65.3291
7.712000	 65.2846
7.796000	 65.2597
7.880000	 65.1832
7.964000	 65.2638
8.048000	 65.2223
8.132000	 65.204
8.216000	 65.0892
8.300000	 65.2005
8.384000	 65.2496
8.468000	 65.1668
8.552000	 65.1848
8.635999	 65.1859
8.719999	 65.3
8.804000	 65.216
8.888000	 65.3473
8.972000	 65.1631
9.056000	 65.161
9.140000	 65.203
9.224000	 65.1195
9.308000	 64.986
9.391999	 65.3286
9.475999	 65.1771
9.560000	 65.1776
9.644000	 65.3768
9.728000	 65.0374
9.812000	 65.2963
9.896000	 65.3206
9.980000	 65.3193
10.064	65.3906
10.148	65.2685
10.232	65.1719
10.316	65.2032
10.4	65.2805
10.484	65.232
10.568	65.2848
10.652	65.1964
10.736	65.1986
10.82	65.3324
10.904	65.3055
10.988	65.203
11.072	65.1817
11.156	65.2287
11.24	65.4309
11.324	65.5393
11.408	65.4879
11.492	65.4287
11.576	65.3229
11.66	65.3762
11.744	65.4142
11.828	65.5198
11.912	65.4253
11.996	65.517
12.08	65.6749
12.164	65.4958
12.248	65.4954
12.332	65.4895
12.416	65.4849
12.5	65.4996
12.584	65.4685
12.668	65.4759
12.752	65.5638
12.836	65.5367
12.92	65.4379
13.004	65.4127
13.088	65.4182
13.172	65.5228
13.256	65.5211
13.34	65.4682
13.424	65.5424
13.508	65.5429
13.592	65.492
13.676	65.4496
13.76	65.4529
13.844	65.4565
13.928	65.3966
14.012	65.321
14.096	65.3562
14.18	65.4023
14.264	65.3893
14.348	65.3975
14.432	65.4436
14.516	65.5395
14.6	65.5968
14.684	65.5395
14.768	65.5066
14.852	65.4853
14.936	65.326
15.02	65.1713
15.104	65.2096
15.188	65.398
15.272	65.4927
15.356	65.3214
15.44	65.1009
15.524	65.0586
15.608	65.161
15.692	65.2911
15.776	65.3251
15.86	65.2955
15.944	65.3396
16.028	65.4494
16.112	65.5649
16.196	65.653
16.28	65.6107
16.364	65.4484
16.448	65.4098
16.532	65.5935
16.616	65.7297
16.7	65.5981
16.784	65.3851
16.868	65.3584
16.952	65.4388
17.036	65.4353
17.12	65.4135
17.204	65.4813
17.288	65.5286
17.372	65.4273
17.456	65.2325
17.54	65.0633
17.624	65.0014
17.708	65.1029
17.792	65.3593
17.876	65.6627
17.96	65.8956
18.044	66.0324
18.128	66.1211
18.212	66.1739
18.296	66.1295
18.38	65.9383
18.464	65.6595
18.548	65.4437
18.632	65.4129
18.716	65.5695
18.8	65.8129
18.884	66.0209
18.968	66.1036
19.052	66.0367
19.136	65.879
19.22	65.7551
19.304	65.769
19.388	65.9172
19.472	66.0971
19.556	66.2105
19.64	66.2472
19.724	66.2539
19.808	66.2512
19.892	66.2071
19.976	66.0915
20.06	65.9315
20.144	65.8074
20.228	65.7907
20.312	65.8816
20.396	66.0031
20.48	66.0512
20.564	65.9648
20.648	65.7579
20.732	65.5095
20.816	65.3126
20.9	65.2333
20.984	65.2812
21.068	65.4089
21.152	65.5474
21.236	65.6291
21.32	65.6093
21.404	65.4811
21.488	65.2832
21.572	65.0851
21.656	64.9559
21.74	64.9382
21.824	65.0594
21.908	65.3483
21.992	65.8148
22.076	66.4062
22.16	66.965
22.244	67.246
22.328	67.0659
22.412	66.3893
22.496	65.4286
22.58	64.5168
22.664	63.9383
22.748	63.7979
22.832	63.9888
22.916	64.2757
23	64.4325
23.084	64.3361
23.168	63.9989
23.252	63.5273
23.336	63.052
23.42	62.6959
23.504	62.5548
23.588	62.7616
23.672	63.5049
23.756	64.9739
23.84	67.2537
23.924	70.2053
24.008	73.4345
24.092	76.3472
24.176	78.3321
24.26	79.0022
24.344	78.3119
24.428	76.5691
24.512	74.3328
24.596	72.1273
24.68	70.2946
24.764	68.9291
24.848	67.8727
24.932	66.812
25.016	65.4779
25.1	63.7876
25.184	61.8787
25.268	60.1248
25.352	59.0797
25.436	59.0437
25.52	59.9308
25.604	61.3871
25.688	63.3364
25.772	65.3544
25.856	66.4074
25.94	65.4958
26.024	63.1549
26.108	62.1777
26.192	63.882
26.276	66.8968
26.36	65.3447
26.444	56.4637
26.528	42.4794
26.612	33.3907
26.696	36.3896
26.78	49.2977
26.864	59.0214
26.948	51.876
27.028	31.7911