File: Bakgrunnsmateriale/MATLAB/FTIR/ftir_data/subCa/Mapping_25/BZ12041010-4_t08_cm-1.asc
PE IR       SPECTRUM    SPECTRUM    ASCII       PEDS        1.60
  -1
BZABF0~1.ASC
17/04/10
09:29:00.00
17/04/10
09:29:00.00
tln
$BZ12041010-4_t0008$<tbV0>[0.0,-9.8,9.0,0.0,22,1,0]
370
64

2002,4.07
MIRTGS : RIGHTBACK : INTERNAL 2
MIR : ON : INTERNAL 2
OPTKBR

0.200000
8
8.000000
FILLER
RATIO
SPECTRUM
UNLOCKED 256

DOUBLE
64
COMBINED
1
0
0

1.000000
RATIO

1
0
TRUE
51149
0
LEFT NOT FITTED RIGHT NOT FITTED 0
NONE
NONE
15600
12
4.427000
51148
TRUE
1 0 8 72 0 0 0 0

15798

#HDR
-1
-1
#GR
CM-1
%T
2.38419e-05
0.0
5000
-1.000000
4631
8
80.0706
-7.580685
#DATA
5000	64.3792
4984	64.6936
4968	64.8136
4952	64.8622
4936	65.0387
4920	64.4814
4904	64.9159
4888	65.1481
4872	64.524
4856	64.297
4840	66.3301
4824	65.573
4808	63.5363
4792	65.4496
4776	65.0997
4760	65.1041
4744	64.8163
4728	64.5123
4712	66.0606
4696	63.6927
4680	64.2806
4664	65.0182
4648	66.1589
4632	64.6676
4616	64.5301
4600	64.2328
4584	64.6818
4568	64.7958
4552	65.2217
4536	64.3404
4520	64.5154
4504	65.2915
4488	58.4852
4472	67.1629
4456	66.5462
4440	64.8706
4424	64.8096
4408	64.7427
4392	64.578
4376	64.9502
4360	64.8042
4344	64.6717
4328	64.7891
4312	64.7109
4296	64.8925
4280	64.731
4264	64.9266
4248	65.1218
4232	65.0906
4216	64.9761
4200	65.1796
4184	65.1852
4168	65.0661
4152	65.0674
4136	65.3234
4120	65.1104
4104	65.3018
4088	65.1843
4072	65.2086
4056	64.9285
4040	64.8891
4024	65.1073
4008	65.0939
3992	65.1722
3976	65.0877
3960	65.1138
3944	65.2084
3928	65.2804
3912	65.046
3896	65.3895
3880	65.2681
3864	65.1926
3848	65.4247
3832	65.1108
3816	65.1336
3800	65.4421
3784	65.1537
3768	65.1217
3752	65.6393
3736	65.551
3720	65.1539
3704	65.1866
3688	65.2424
3672	65.6034
3656	65.3929
3640	65.2399
3624	65.3669
3608	65.4099
3592	65.2057
3576	65.3155
3560	65.4852
3544	65.1246
3528	65.1271
3512	65.1975
3496	65.3458
3480	65.0551
3464	65.3014
3448	65.0972
3432	65.2184
3416	65.1247
3400	65.1959
3384	65.3193
3368	65.1239
3352	65.1867
3336	65.2519
3320	65.2798
3304	65.1162
3288	65.3288
3272	65.1204
3256	65.2757
3240	65.25
3224	65.1273
3208	65.3354
3192	65.2281
3176	65.1259
3160	65.1567
3144	65.1719
3128	65.044
3112	65.1604
3096	65.1692
3080	65.1397
3064	65.0386
3048	65.3096
3032	65.2534
3016	65.072
3000	65.0687
2984	65.172
2968	65.0882
2952	65.1166
2936	65.1779
2920	65.1363
2904	65.1896
2888	65.1513
2872	65.2596
2856	65.119
2840	65.1742
2824	65.087
2808	65.3026
2792	65.1943
2776	65.2131
2760	65.1678
2744	65.3462
2728	65.1998
2712	65.2332
2696	65.3298
2680	65.1231
2664	65.2735
2648	65.3239
2632	65.225
2616	65.318
2600	65.2779
2584	65.2007
2568	65.2367
2552	65.2341
2536	65.1563
2520	65.1917
2504	65.2659
2488	65.2247
2472	65.2672
2456	65.2592
2440	65.2226
2424	65.2265
2408	65.1898
2392	65.2248
2376	65.2689
2360	65.2539
2344	65.2458
2328	65.1844
2312	65.3031
2296	65.1685
2280	65.3106
2264	65.1295
2248	65.2239
2232	65.2588
2216	65.31
2200	65.1695
2184	65.1826
2168	65.2024
2152	65.2823
2136	65.2542
2120	65.2314
2104	65.1498
2088	65.2151
2072	65.2875
2056	65.2353
2040	65.2761
2024	65.2778
2008	65.2167
1992	65.2118
1976	65.2174
1960	65.2851
1944	65.2016
1928	65.2643
1912	65.1938
1896	65.2539
1880	65.3151
1864	65.217
1848	65.3089
1832	65.2552
1816	65.2022
1800	65.2186
1784	65.2678
1768	65.384
1752	65.1276
1736	65.3849
1720	65.3883
1704	65.3148
1688	65.4743
1672	65.4969
1656	65.3093
1640	65.2875
1624	65.2702
1608	65.231
1592	65.0722
1576	65.2888
1560	65.5161
1544	65.5964
1528	65.3125
1512	65.4783
1496	65.2662
1480	65.2702
1464	65.3768
1448	65.1252
1432	65.2715
1416	65.2255
1400	65.125
1384	65.0847
1368	65.2357
1352	65.1688
1336	65.0795
1320	65.1675
1304	65.1283
1288	65.1061
1272	65.0466
1256	65.0047
1240	65.0634
1224	65.1098
1208	65.1809
1192	64.9712
1176	65.0954
1160	65.0768
1144	64.8983
1128	65.1261
1112	65.1833
1096	64.9884
1080	65.1241
1064	65.1614
1048	65.1111
1032	65.0034
1016	65.0002
1000	65.2207
984	 65.0808
968	 65.2305
952	 65.0501
936	 65.2344
920	 65.0266
904	 65.1237
888	 65.2966
872	 65.4143
856	 65.2673
840	 65.3682
824	 65.4163
808	 65.2751
792	 65.1973
776	 65.4584
760	 65.2748
744	 65.2211
728	 65.1301
712	 65.4476
696	 65.1956
680	 65.314
664	 65.5014
648	 65.5063
632	 64.9256
616	 65.9078
600	 65.2249
584	 65.4739
568	 65.9625
552	 66.0278
536	 66.1578
520	 65.9898
504	 66.174
488	 66.2
472	 64.9343
456	 65.5702
440	 66.6574
424	 64.9426
408	 64.8755
392	 62.0596
376	 45.2506
370	 -7.580685