File: Bakgrunnsmateriale/MATLAB/FTIR/ftir_data/subCa/Mapping_25/BZ12041010-4_t22.asc
PE IR       SPECTRUM    SPECTRUM    ASCII       PEDS        1.60
  -1
BZ2EB6~1.ASC
17/04/10
10:49:10.00
17/04/10
10:49:36.00
tln
$BZ12041010-4_t0022$<tbV0>[2.6,-2.0,9.0,0.0,22,1,0]
27.028
64

2002,4.07
MIRTGS : RIGHTBACK : INTERNAL 2
MIR : ON : INTERNAL 2
OPTKBR

0.200000
8
8.000000
FILLER
RATIO
SPECTRUM
UNLOCKED 256

DOUBLE
64
COMBINED
1
0
0

0.002000
RATIO

1
0
TRUE
51149
0
LEFT NOT FITTED RIGHT NOT FITTED 0
NONE
NONE
15600
12
4.427000
51148
TRUE
1 0 8 72 0 0 0 0

15798

#HDR
-1
-1
#GR
µM
%T
2.38419e-05
0.0
2.000000
0.002000
12515
8
71.9348
22.5837
#DATA
2.000000	 54.9497
2.084000	 55.3784
2.168000	 55.362
2.252000	 56.4199
2.336000	 55.7815
2.420000	 54.8259
2.504000	 55.1598
2.588000	 55.3553
2.672000	 55.1216
2.756000	 55.2954
2.840000	 55.1323
2.924000	 55.0712
3.008000	 55.1843
3.092000	 55.0332
3.176000	 55.2527
3.260000	 55.3828
3.344000	 55.1484
3.428000	 54.8909
3.512000	 55.2167
3.596000	 55.3648
3.680000	 55.152
3.764000	 55.038
3.848000	 55.2772
3.932000	 55.3313
4.016000	 55.1616
4.100000	 55.2128
4.184000	 55.0859
4.268000	 55.355
4.352000	 55.2827
4.436000	 55.1321
4.520000	 55.2292
4.604000	 55.2782
4.688000	 55.33
4.772000	 55.2541
4.856000	 55.2535
4.940000	 55.1482
5.024000	 55.312
5.108000	 55.1413
5.192000	 55.1736
5.276000	 55.1751
5.359999	 55.2706
5.444000	 55.3418
5.528000	 55.3751
5.612000	 55.1468
5.696000	 55.1474
5.780000	 54.8944
5.864000	 54.8589
5.948000	 54.9256
6.032000	 55.1592
6.116000	 55.2534
6.200000	 55.1679
6.284000	 55.18
6.368000	 55.2694
6.452000	 55.2713
6.536000	 55.1436
6.620000	 55.0553
6.704000	 55.1393
6.788000	 54.9362
6.872000	 54.8607
6.956000	 54.8888
7.040000	 54.8851
7.124000	 55.0429
7.208000	 54.9353
7.292000	 54.926
7.376000	 55.0299
7.460000	 55.1331
7.544000	 54.9463
7.628000	 55.0665
7.712000	 54.9866
7.796000	 55.0408
7.880000	 55.2286
7.964000	 55.0305
8.048000	 55.0387
8.132000	 55.1083
8.216000	 55.0363
8.300000	 55.05
8.384000	 55.1901
8.468000	 54.9512
8.552000	 54.9902
8.635999	 54.7657
8.719999	 55.0215
8.804000	 55.0704
8.888000	 55.2256
8.972000	 55.0131
9.056000	 55.1181
9.140000	 55.0408
9.224000	 54.9718
9.308000	 54.8499
9.391999	 54.8452
9.475999	 55.1282
9.560000	 54.9762
9.644000	 55.1078
9.728000	 55.0053
9.812000	 54.9227
9.896000	 55.0832
9.980000	 55.1711
10.064	55.091
10.148	54.9629
10.232	54.9449
10.316	55.0048
10.4	55.1566
10.484	55.1221
10.568	55.0127
10.652	54.9998
10.736	55.0925
10.82	55.0781
10.904	54.907
10.988	54.8568
11.072	54.7877
11.156	55.0669
11.24	55.1026
11.324	55.0191
11.408	55.2342
11.492	55.0715
11.576	55.0805
11.66	55.1313
11.744	55.0029
11.828	55.0617
11.912	55.0868
11.996	55.1035
12.08	55.0665
12.164	54.9005
12.248	54.9725
12.332	55.2446
12.416	55.1403
12.5	54.8951
12.584	54.9189
12.668	54.9133
12.752	54.8049
12.836	54.8317
12.92	54.9448
13.004	54.8673
13.088	54.72
13.172	54.8676
13.256	55.0556
13.34	55.0927
13.424	55.0982
13.508	55.1645
13.592	55.1937
13.676	55.1624
13.76	55.1026
13.844	55.0462
13.928	55.0977
14.012	54.9698
14.096	54.7487
14.18	54.7131
14.264	54.8942
14.348	55.1346
14.432	55.1941
14.516	55.1434
14.6	55.1328
14.684	55.1236
14.768	55.0238
14.852	54.9195
14.936	54.8942
15.02	54.8965
15.104	54.9184
15.188	55.0109
15.272	55.1151
15.356	55.1296
15.44	55.0909
15.524	55.0411
15.608	54.9982
15.692	55.0135
15.776	55.0062
15.86	54.9084
15.944	54.8661
16.028	54.968
16.112	55.1033
16.196	55.1334
16.28	54.9726
16.364	54.701
16.448	54.593
16.532	54.7611
16.616	54.9644
16.7	54.9833
16.784	54.9289
16.868	55.0234
16.952	55.2917
17.036	55.5521
17.12	55.6372
17.204	55.5617
17.288	55.4121
17.372	55.2275
17.456	55.0733
17.54	55.0661
17.624	55.2405
17.708	55.4699
17.792	55.5821
17.876	55.4985
17.96	55.2965
18.044	55.1424
18.128	55.154
18.212	55.3248
18.296	55.5692
18.38	55.7815
18.464	55.8846
18.548	55.8704
18.632	55.7906
18.716	55.7112
18.8	55.6633
18.884	55.6243
18.968	55.5768
19.052	55.5728
19.136	55.6594
19.22	55.7857
19.304	55.8363
19.388	55.7544
19.472	55.5843
19.556	55.4147
19.64	55.3087
19.724	55.2898
19.808	55.3301
19.892	55.3419
19.976	55.2505
20.06	55.1125
20.144	55.0917
20.228	55.2919
20.312	55.6446
20.396	55.9698
20.48	56.1109
20.564	56.0276
20.648	55.7704
20.732	55.4285
20.816	55.0798
20.9	54.7912
20.984	54.5958
21.068	54.4882
21.152	54.4438
21.236	54.4203
21.32	54.3753
21.404	54.2705
21.488	54.1307
21.572	54.0604
21.656	54.1982
21.74	54.6361
21.824	55.3501
21.908	56.2104
21.992	57.0742
22.076	57.8558
22.16	58.5176
22.244	58.98
22.328	59.1073
22.412	58.7566
22.496	57.8693
22.58	56.5413
22.664	54.9979
22.748	53.5288
22.832	52.3863
22.916	51.7829
23	51.8224
23.084	52.4877
23.168	53.5808
23.252	54.777
23.336	55.7365
23.42	56.3023
23.504	56.5523
23.588	56.7198
23.672	56.9686
23.756	57.2062
23.84	57.1471
23.924	56.4977
24.008	55.2074
24.092	53.6091
24.176	52.3361
24.26	52.0624
24.344	53.2446
24.428	55.8568
24.512	59.3826
24.596	63.0733
24.68	66.2669
24.764	68.6473
24.848	70.2572
24.932	71.2955
25.016	71.865
25.1	71.7949
25.184	70.7913
25.268	68.6942
25.352	65.6545
25.436	62.2041
25.52	59.0771
25.604	56.8841
25.688	55.9366
25.772	56.107
25.856	56.9392
25.94	57.8574
26.024	58.3884
26.108	58.3512
26.192	57.8187
26.276	56.9771
26.36	56.0067
26.444	54.8828
26.528	53.3285
26.612	50.9623
26.696	47.4036
26.78	42.4889
26.864	36.331
26.948	29.347
27.028	22.5837