File: Bakgrunnsmateriale/MATLAB/FTIR/ftir_data/subCa/Mapping_25/BZ12041010-4_t02.asc
PE IR       SPECTRUM    SPECTRUM    ASCII       PEDS        1.60
  -1
BZ26B6~1.ASC
17/04/10
09:00:58.00
17/04/10
09:01:24.00
tln
$BZ12041010-4_t0002$<tbV0>[2.6,-12.4,9.0,0.0,22,1,0]
27.028
64

2002,4.07
MIRTGS : RIGHTBACK : INTERNAL 2
MIR : ON : INTERNAL 2
OPTKBR

0.200000
8
8.000000
FILLER
RATIO
SPECTRUM
UNLOCKED 256

DOUBLE
64
COMBINED
1
0
0

0.002000
RATIO

1
0
TRUE
51149
0
LEFT NOT FITTED RIGHT NOT FITTED 0
NONE
NONE
15600
12
4.427000
51148
TRUE
1 0 8 72 0 0 0 0

15798

#HDR
-1
-1
#GR
µM
%T
2.38419e-05
0.0
2.000000
0.002000
12515
8
84.7473
53.9797
#DATA
2.000000	 64.9079
2.084000	 64.4855
2.168000	 64.572
2.252000	 64.6371
2.336000	 65.0728
2.420000	 65.1082
2.504000	 64.939
2.588000	 64.9865
2.672000	 65.2478
2.756000	 65.45
2.840000	 65.0969
2.924000	 65.1266
3.008000	 65.1165
3.092000	 65.1317
3.176000	 65.1489
3.260000	 65.0407
3.344000	 65.0043
3.428000	 65.1933
3.512000	 65.1527
3.596000	 65.1885
3.680000	 65.1475
3.764000	 65.1768
3.848000	 65.143
3.932000	 65.1525
4.016000	 65.213
4.100000	 65.2559
4.184000	 65.2249
4.268000	 65.2147
4.352000	 65.1604
4.436000	 65.2675
4.520000	 65.3085
4.604000	 65.2607
4.688000	 65.1689
4.772000	 65.1755
4.856000	 65.1497
4.940000	 65.1888
5.024000	 65.1728
5.108000	 65.1917
5.192000	 65.2256
5.276000	 65.2892
5.359999	 65.2057
5.444000	 65.2586
5.528000	 65.2751
5.612000	 65.2452
5.696000	 65.2108
5.780000	 65.0991
5.864000	 65.1713
5.948000	 65.2921
6.032000	 65.3364
6.116000	 65.1689
6.200000	 65.2094
6.284000	 65.0762
6.368000	 65.1178
6.452000	 65.285
6.536000	 65.2052
6.620000	 65.3394
6.704000	 65.2697
6.788000	 65.3597
6.872000	 65.3868
6.956000	 65.1776
7.040000	 65.3279
7.124000	 65.1849
7.208000	 65.1252
7.292000	 65.0825
7.376000	 65.0835
7.460000	 65.0553
7.544000	 65.0834
7.628000	 65.1077
7.712000	 65.0004
7.796000	 65.0322
7.880000	 65.0271
7.964000	 65.0835
8.048000	 65.0502
8.132000	 65.0326
8.216000	 65.2031
8.300000	 65.2382
8.384000	 65.0739
8.468000	 65.0143
8.552000	 65.1447
8.635999	 65.1987
8.719999	 65.092
8.804000	 64.9794
8.888000	 65.1903
8.972000	 65.0362
9.056000	 65.0383
9.140000	 65.0193
9.224000	 65.1675
9.308000	 65.1341
9.391999	 65.0099
9.475999	 65.1104
9.560000	 64.8648
9.644000	 64.9309
9.728000	 64.9676
9.812000	 65.1709
9.896000	 65.151
9.980000	 65.1302
10.064	65.1667
10.148	65.0917
10.232	64.9275
10.316	65.2479
10.4	65.2506
10.484	65.2613
10.568	65.2511
10.652	65.33
10.736	65.516
10.82	65.2873
10.904	65.3248
10.988	65.1844
11.072	65.1284
11.156	65.1466
11.24	65.2841
11.324	65.1539
11.408	65.177
11.492	65.4629
11.576	65.5116
11.66	65.4084
11.744	65.289
11.828	65.2168
11.912	65.1989
11.996	65.1894
12.08	65.1613
12.164	65.5789
12.248	65.4451
12.332	65.2236
12.416	65.179
12.5	65.2569
12.584	65.3362
12.668	65.3681
12.752	65.4009
12.836	65.5742
12.92	65.6876
13.004	65.4788
13.088	65.3028
13.172	65.4071
13.256	65.4165
13.34	65.2641
13.424	65.2967
13.508	65.3721
13.592	65.2164
13.676	65.1247
13.76	65.1805
13.844	65.2714
13.928	65.3213
14.012	65.3319
14.096	65.3719
14.18	65.3768
14.264	65.2708
14.348	65.165
14.432	65.018
14.516	64.8695
14.6	64.8937
14.684	65.1054
14.768	65.4102
14.852	65.5831
14.936	65.5387
15.02	65.5269
15.104	65.7073
15.188	65.7836
15.272	65.6422
15.356	65.5539
15.44	65.5196
15.524	65.4503
15.608	65.4931
15.692	65.628
15.776	65.5706
15.86	65.3026
15.944	65.186
16.028	65.3704
16.112	65.6282
16.196	65.7841
16.28	65.8349
16.364	65.7836
16.448	65.6123
16.532	65.3576
16.616	65.149
16.7	65.1493
16.784	65.3827
16.868	65.6525
16.952	65.7121
17.036	65.5463
17.12	65.3686
17.204	65.3355
17.288	65.4455
17.372	65.6562
17.456	65.9148
17.54	66.1245
17.624	66.2145
17.708	66.2036
17.792	66.144
17.876	66.0756
17.96	66.0412
18.044	66.0788
18.128	66.1885
18.212	66.3388
18.296	66.4959
18.38	66.6114
18.464	66.6036
18.548	66.4269
18.632	66.165
18.716	65.9744
18.8	65.9207
18.884	65.9343
18.968	65.9302
19.052	65.9108
19.136	65.9289
19.22	65.9872
19.304	66.0148
19.388	65.9674
19.472	65.912
19.556	65.9481
19.64	66.0706
19.724	66.1685
19.808	66.1546
19.892	66.06
19.976	66.002
20.06	66.0707
20.144	66.2479
20.228	66.4218
20.312	66.4831
20.396	66.4191
20.48	66.3319
20.564	66.3532
20.648	66.5179
20.732	66.7214
20.816	66.8097
20.9	66.7142
20.984	66.5034
21.068	66.3101
21.152	66.209
21.236	66.1664
21.32	66.0827
21.404	65.896
21.488	65.6361
21.572	65.4013
21.656	65.288
21.74	65.3282
21.824	65.4763
21.908	65.6425
21.992	65.7443
22.076	65.7436
22.16	65.6652
22.244	65.5939
22.328	65.6193
22.412	65.7941
22.496	66.1032
22.58	66.4966
22.664	66.933
22.748	67.3888
22.832	67.8342
22.916	68.2118
23	68.4265
23.084	68.4057
23.168	68.1443
23.252	67.7191
23.336	67.2627
23.42	66.8912
23.504	66.6517
23.588	66.5022
23.672	66.3576
23.756	66.1396
23.84	65.7911
23.924	65.3244
24.008	64.8043
24.092	64.3208
24.176	63.9847
24.26	63.9206
24.344	64.2345
24.428	64.9506
24.512	65.9978
24.596	67.1895
24.68	68.2743
24.764	69.0267
24.848	69.3095
24.932	69.0878
25.016	68.4478
25.1	67.5381
25.184	66.6645
25.268	66.2253
25.352	66.5823
25.436	68.0315
25.52	70.632
25.604	74.1363
25.688	77.9963
25.772	81.4798
25.856	83.8872
25.94	84.7473
26.024	83.9135
26.108	81.6003
26.192	78.2602
26.276	74.4301
26.36	70.6225
26.444	67.2474
26.528	64.5375
26.612	62.609
26.696	61.3266
26.78	60.3214
26.864	59.0686
26.948	57.0312
27.028	53.9797