File: Bakgrunnsmateriale/MATLAB/FTIR/ftir_data/subCa/Mapping_25/BZ12041010-4_e27_cm-1.asc
PE IR       SPECTRUM    SPECTRUM    ASCII       PEDS        1.60
  -1
BZAC31~1.ASC
17/04/10
09:44:36.00
17/04/10
09:44:36.00
tln
$BZ12041010-4_e0027$<ebV0>[-23.0,28.0,5.5,0.0,22,1,0]
370
64

2002,4.07
MIRTGS : RIGHTBACK : INTERNAL 2
MIR : ON : INTERNAL 2
OPTKBR

0.200000
8
8.000000
FILLER
SINGLE
SPECTRUM
UNLOCKED 256

DOUBLE

COMBINED
1
0
0

1.000000
BACKG

1
0
TRUE
51149
0
LEFT NOT FITTED RIGHT NOT FITTED 0
NONE
NONE
15600
12
4.427000
51148
TRUE
1 0 8 72 0 0 0 0

15798

#HDR
-1
-1
#GR
CM-1
EGY
2.38419e-05
0.0
5000
-1.000000
4631
8
2.461099
0.010108
#DATA
5000	0.777316
4984	0.789189
4968	0.792145
4952	0.799679
4936	0.810003
4920	0.809431
4904	0.814890
4888	0.823307
4872	0.829124
4856	0.829029
4840	0.839114
4824	0.850725
4808	0.871586
4792	0.881671
4776	0.887608
4760	0.898575
4744	0.901246
4728	0.904941
4712	0.911068
4696	0.914049
4680	0.916767
4664	0.921177
4648	0.926804
4632	0.935220
4616	0.941991
4600	0.952839
4584	0.963544
4568	0.977206
4552	0.991129
4536	1.001429
4520	1.004743
4504	1.011490
4488	1.011514
4472	0.982117
4456	0.795483
4440	1.051473
4424	1.055049
4408	1.048636
4392	1.049017
4376	1.057720
4360	1.067924
4344	1.083540
4328	1.097249
4312	1.116108
4296	1.135611
4280	1.150012
4264	1.165485
4248	1.178479
4232	1.185107
4216	1.196002
4200	1.203012
4184	1.208662
4168	1.213908
4152	1.226258
4136	1.238131
4120	1.254129
4104	1.266407
4088	1.284813
4072	1.306462
4056	1.335716
4040	1.356387
4024	1.378583
4008	1.394033
3992	1.407289
3976	1.420402
3960	1.424694
3944	1.429510
3928	1.431822
3912	1.439952
3896	1.443719
3880	1.448965
3864	1.458001
3848	1.472997
3832	1.492953
3816	1.503825
3800	1.522660
3784	1.548552
3768	1.561522
3752	1.555228
3736	1.566576
3720	1.579976
3704	1.583743
3688	1.575541
3672	1.570272
3656	1.580739
3640	1.587748
3624	1.586365
3608	1.592707
3592	1.601600
3576	1.615142
3560	1.625299
3544	1.632046
3528	1.632928
3512	1.638865
3496	1.632761
3480	1.628017
3464	1.619315
3448	1.605510
3432	1.596164
3416	1.598978
3400	1.606154
3384	1.617574
3368	1.631379
3352	1.653194
3336	1.677417
3320	1.703000
3304	1.725077
3288	1.746344
3272	1.767182
3256	1.778769
3240	1.789760
3224	1.793408
3208	1.799511
3192	1.800704
3176	1.805448
3160	1.814627
3144	1.826024
3128	1.843762
3112	1.864242
3096	1.893877
3080	1.926469
3064	1.947784
3048	1.974368
3032	1.986455
3016	1.976323
3000	2.036237
2984	2.033567
2968	1.965904
2952	1.928830
2936	1.824831
2920	1.811552
2904	1.953911
2888	2.004265
2872	1.992344
2856	1.936054
2840	2.078270
2824	2.136325
2808	2.174448
2792	2.204132
2776	2.235198
2760	2.253484
2744	2.262687
2728	2.264928
2712	2.260637
2696	2.252578
2680	2.244663
2664	2.232241
2648	2.226901
2632	2.227258
2616	2.227163
2600	2.234721
2584	2.250409
2568	2.273106
2552	2.295565
2536	2.311921
2520	2.326798
2504	2.333641
2488	2.331495
2472	2.326869
2456	2.310681
2440	2.293348
2424	2.279019
2408	2.264308
2392	2.255368
2376	2.248311
2360	2.243018
2344	2.270102
2328	2.290678
2312	2.322959
2296	2.350902
2280	2.372765
2264	2.381205
2248	2.388858
2232	2.386260
2216	2.378773
2200	2.364468
2184	2.352905
2168	2.341389
2152	2.341771
2136	2.341246
2120	2.340722
2104	2.342772
2088	2.345490
2072	2.362847
2056	2.396178
2040	2.428245
2024	2.448844
2008	2.459907
1992	2.459764
1976	2.449536
1960	2.434515
1944	2.422189
1928	2.407193
1912	2.390098
1896	2.375936
1880	2.379560
1864	2.386307
1848	2.395391
1832	2.411508
1816	2.428269
1800	2.434897
1784	2.434706
1768	2.414846
1752	2.387166
1736	2.327156
1720	2.311635
1704	2.274632
1688	2.251172
1672	2.228403
1656	2.178287
1640	2.157211
1624	2.106404
1608	1.973462
1592	2.016758
1576	1.984524
1560	1.927685
1544	1.958942
1528	2.107310
1512	2.088594
1496	1.700329
1480	1.961159
1464	1.934719
1448	1.783227
1432	1.870298
1416	1.844763
1400	1.730060
1384	1.785159
1368	1.815891
1352	1.816940
1336	1.826333
1320	1.854801
1304	1.855397
1288	1.854562
1272	1.805257
1256	1.757550
1240	1.834774
1224	1.813173
1208	1.747107
1192	1.741099
1176	1.697468
1160	1.627779
1144	1.596164
1128	1.538181
1112	1.457905
1096	1.423430
1080	1.427984
1064	1.433753
1048	1.305937
1032	1.378536
1016	1.365327
1000	1.398921
984	 1.382875
968	 1.342868
952	 1.285815
936	 1.253366
920	 1.214528
904	 1.161527
888	 1.120162
872	 1.036596
856	 1.093959
840	 1.060056
824	 0.844407
808	 0.946831
792	 0.961422
776	 0.976753
760	 0.962901
744	 0.940656
728	 0.901579
712	 0.855851
696	 0.790786
680	 0.733208
664	 0.706982
648	 0.666499
632	 0.623178
616	 0.575876
600	 0.523138
584	 0.509309
568	 0.494861
552	 0.465917
536	 0.437903
520	 0.400471
504	 0.359010
488	 0.305938
472	 0.253272
456	 0.196647
440	 0.150179
424	 0.098299
408	 0.053024
392	 0.026702
376	 0.014734
370	 0.010108