File: Bakgrunnsmateriale/MATLAB/FTIR/ftir_data/subCa/Mapping_25/BZ12041010-4_t15_cm-1.asc
PE IR       SPECTRUM    SPECTRUM    ASCII       PEDS        1.60
  -1
BZ2C7E~1.ASC
17/04/10
10:09:00.00
17/04/10
10:09:00.00
tln
$BZ12041010-4_t0015$<tbV0>[-5.2,-7.2,9.0,0.0,22,1,0]
370
64

2002,4.07
MIRTGS : RIGHTBACK : INTERNAL 2
MIR : ON : INTERNAL 2
OPTKBR

0.200000
8
8.000000
FILLER
RATIO
SPECTRUM
UNLOCKED 256

DOUBLE
64
COMBINED
1
0
0

1.000000
RATIO

1
0
TRUE
51149
0
LEFT NOT FITTED RIGHT NOT FITTED 0
NONE
NONE
15600
12
4.427000
51148
TRUE
1 0 8 72 0 0 0 0

15798

#HDR
-1
-1
#GR
CM-1
%T
2.38419e-05
0.0
5000
-1.000000
4631
8
78.9845
31.7911
#DATA
5000	64.6822
4984	64.9325
4968	65.1167
4952	64.2222
4936	64.9573
4920	65.0193
4904	65.3911
4888	64.3196
4872	64.4365
4856	66.101
4840	67.3813
4824	66.1535
4808	65.0063
4792	66.4113
4776	65.3003
4760	65.7311
4744	65.4368
4728	65.3816
4712	65.4282
4696	64.9652
4680	65.0048
4664	65.2832
4648	65.0077
4632	64.9877
4616	64.9635
4600	64.9362
4584	65.2136
4568	64.7534
4552	64.7757
4536	65.2536
4520	65.1096
4504	64.8258
4488	64.5206
4472	61.3386
4456	75.1398
4440	64.7767
4424	63.8383
4408	64.5185
4392	65.6615
4376	65.145
4360	64.8338
4344	64.801
4328	65.3981
4312	65.3146
4296	65.1739
4280	64.9205
4264	65.0944
4248	64.992
4232	65.1273
4216	65.1826
4200	65.2723
4184	65.3641
4168	65.4146
4152	65.1972
4136	64.9186
4120	65.1867
4104	65.09
4088	65.3741
4072	65.6398
4056	65.2234
4040	64.9949
4024	64.9132
4008	65.1348
3992	65.0232
3976	65.089
3960	65.2386
3944	64.981
3928	65.3644
3912	65.0684
3896	65.3394
3880	65.3583
3864	65.2099
3848	65.1643
3832	65.2443
3816	65.3621
3800	65.4148
3784	65.2974
3768	65.1384
3752	65.2267
3736	65.291
3720	65.4452
3704	65.2974
3688	65.2762
3672	65.2375
3656	65.1921
3640	65.185
3624	65.3719
3608	65.4766
3592	65.3309
3576	65.4181
3560	65.2357
3544	65.3517
3528	65.4551
3512	65.3809
3496	65.3753
3480	65.2894
3464	65.067
3448	65.1818
3432	65.0117
3416	65.3035
3400	65.3703
3384	65.2896
3368	65.0672
3352	65.4379
3336	65.3662
3320	65.3074
3304	65.1838
3288	65.1884
3272	65.2593
3256	65.2799
3240	65.3422
3224	65.3707
3208	65.1989
3192	65.4026
3176	65.3651
3160	65.354
3144	65.2301
3128	65.1991
3112	65.3467
3096	65.279
3080	65.3463
3064	65.2829
3048	65.2828
3032	65.4914
3016	65.2757
3000	65.1663
2984	65.3623
2968	65.3856
2952	65.1916
2936	65.1611
2920	65.0926
2904	65.2256
2888	65.2637
2872	65.0725
2856	65.1442
2840	65.3207
2824	65.3494
2808	65.4306
2792	65.4086
2776	65.2
2760	65.352
2744	65.439
2728	65.3621
2712	65.4032
2696	65.3193
2680	65.3894
2664	65.3271
2648	65.3307
2632	65.2702
2616	65.3861
2600	65.4585
2584	65.2895
2568	65.3455
2552	65.3677
2536	65.3245
2520	65.238
2504	65.3974
2488	65.2892
2472	65.2968
2456	65.2913
2440	65.5148
2424	65.3721
2408	65.3718
2392	65.2946
2376	65.2688
2360	65.3827
2344	65.2898
2328	65.3669
2312	65.3074
2296	65.3203
2280	65.2446
2264	65.3173
2248	65.2678
2232	65.3378
2216	65.3349
2200	65.4315
2184	65.3483
2168	65.3713
2152	65.215
2136	65.3
2120	65.3254
2104	65.3559
2088	65.2472
2072	65.4326
2056	65.4221
2040	65.3531
2024	65.3314
2008	65.3604
1992	65.4231
1976	65.3122
1960	65.4005
1944	65.3556
1928	65.366
1912	65.3652
1896	65.3173
1880	65.2716
1864	65.3337
1848	65.3873
1832	65.2449
1816	65.3168
1800	65.3226
1784	65.2857
1768	65.2629
1752	65.2677
1736	65.0749
1720	65.0805
1704	65.1471
1688	65.2235
1672	65.181
1656	65.3507
1640	65.2259
1624	65.2395
1608	65.2192
1592	65.2567
1576	65.3027
1560	65.3562
1544	65.2005
1528	65.2985
1512	65.3638
1496	65.4284
1480	65.1942
1464	65.3434
1448	65.2771
1432	65.2466
1416	65.253
1400	65.3916
1384	65.2282
1368	65.3758
1352	65.2124
1336	65.3148
1320	65.255
1304	65.3346
1288	65.3105
1272	65.201
1256	65.2555
1240	65.2689
1224	65.2269
1208	65.1705
1192	65.2608
1176	65.1059
1160	65.1707
1144	65.3071
1128	65.3016
1112	65.1613
1096	65.1678
1080	65.0319
1064	65.3234
1048	65.113
1032	65.145
1016	65.3461
1000	65.3869
984	 65.2559
968	 65.2218
952	 65.2478
936	 65.1751
920	 65.3517
904	 65.1774
888	 65.4948
872	 65.4661
856	 65.3854
840	 65.4366
824	 65.5521
808	 65.4803
792	 65.4589
776	 65.4685
760	 65.5046
744	 65.552
728	 65.4483
712	 65.3214
696	 65.4046
680	 65.5227
664	 65.163
648	 65.1153
632	 65.3061
616	 65.656
600	 65.6786
584	 65.4145
568	 65.0026
552	 66.1099
536	 65.4426
520	 65.748
504	 66.2412
488	 66.0477
472	 65.5912
456	 65.4528
440	 63.7943
424	 62.7453
408	 74.392
392	 59.7946
376	 34.1915
370	 31.7911