File: Bakgrunnsmateriale/MATLAB/FTIR/ftir_data/subCa/Mapping_25/BZ12041010-4_t18.asc
PE IR       SPECTRUM    SPECTRUM    ASCII       PEDS        1.60
  -1
BZ4ABE~1.ASC
17/04/10
10:23:10.00
17/04/10
10:23:36.00
tln
$BZ12041010-4_t0018$<tbV0>[0.0,-4.6,9.0,0.0,22,1,0]
27.028
64

2002,4.07
MIRTGS : RIGHTBACK : INTERNAL 2
MIR : ON : INTERNAL 2
OPTKBR

0.200000
8
8.000000
FILLER
RATIO
SPECTRUM
UNLOCKED 256

DOUBLE
64
COMBINED
1
0
0

0.002000
RATIO

1
0
TRUE
51149
0
LEFT NOT FITTED RIGHT NOT FITTED 0
NONE
NONE
15600
12
4.427000
51148
TRUE
1 0 8 72 0 0 0 0

15798

#HDR
-1
-1
#GR
µM
%T
2.38419e-05
0.0
2.000000
0.002000
12515
8
78.6644
3.681367
#DATA
2.000000	 64.9023
2.084000	 65.3794
2.168000	 65.3068
2.252000	 64.7701
2.336000	 65.3455
2.420000	 65.0017
2.504000	 65.0255
2.588000	 65.2577
2.672000	 65.3247
2.756000	 65.3316
2.840000	 65.381
2.924000	 65.2947
3.008000	 65.2267
3.092000	 65.4364
3.176000	 65.2581
3.260000	 65.3872
3.344000	 65.4618
3.428000	 65.1013
3.512000	 65.2537
3.596000	 65.2698
3.680000	 65.3939
3.764000	 65.4457
3.848000	 65.345
3.932000	 65.3486
4.016000	 65.3321
4.100000	 65.3916
4.184000	 65.31
4.268000	 65.2549
4.352000	 65.3553
4.436000	 65.2716
4.520000	 65.2621
4.604000	 65.3123
4.688000	 65.315
4.772000	 65.2527
4.856000	 65.4319
4.940000	 65.359
5.024000	 65.3281
5.108000	 65.3612
5.192000	 65.3227
5.276000	 65.2151
5.359999	 65.2516
5.444000	 65.3299
5.528000	 65.2144
5.612000	 65.3212
5.696000	 65.2684
5.780000	 65.1036
5.864000	 65.266
5.948000	 65.1777
6.032000	 65.2379
6.116000	 65.2867
6.200000	 65.3163
6.284000	 65.3458
6.368000	 65.2108
6.452000	 65.3026
6.536000	 65.249
6.620000	 65.3599
6.704000	 65.2666
6.788000	 65.3099
6.872000	 65.3078
6.956000	 65.246
7.040000	 65.2197
7.124000	 65.2623
7.208000	 65.2452
7.292000	 65.2674
7.376000	 65.1945
7.460000	 65.1807
7.544000	 65.1703
7.628000	 65.2094
7.712000	 65.2085
7.796000	 65.1825
7.880000	 65.0482
7.964000	 65.1758
8.048000	 65.2008
8.132000	 65.3049
8.216000	 65.1654
8.300000	 65.2151
8.384000	 65.0856
8.468000	 65.1222
8.552000	 65.1456
8.635999	 65.1608
8.719999	 65.1356
8.804000	 65.0323
8.888000	 65.1275
8.972000	 64.9983
9.056000	 64.9908
9.140000	 65.0938
9.224000	 65.1301
9.308000	 64.8224
9.391999	 65.1251
9.475999	 65.1126
9.560000	 65.0662
9.644000	 65.2267
9.728000	 64.9905
9.812000	 65.087
9.896000	 65.096
9.980000	 65.138
10.064	65.1441
10.148	65.251
10.232	65.3922
10.316	65.2563
10.4	65.1615
10.484	65.0489
10.568	65.0441
10.652	65.151
10.736	65.1149
10.82	65.2156
10.904	65.1922
10.988	65.224
11.072	65.2814
11.156	65.3614
11.24	65.383
11.324	65.2075
11.408	65.2339
11.492	65.293
11.576	65.3401
11.66	65.3347
11.744	65.2694
11.828	65.3924
11.912	65.4926
11.996	65.6065
12.08	65.6698
12.164	65.5179
12.248	65.4109
12.332	65.3588
12.416	65.3207
12.5	65.3262
12.584	65.2865
12.668	65.4509
12.752	65.4939
12.836	65.4174
12.92	65.6489
13.004	65.6214
13.088	65.5309
13.172	65.5315
13.256	65.4873
13.34	65.3406
13.424	65.2905
13.508	65.5439
13.592	65.6035
13.676	65.4884
13.76	65.4037
13.844	65.4177
13.928	65.5656
14.012	65.5245
14.096	65.4252
14.18	65.4287
14.264	65.3216
14.348	65.2786
14.432	65.4131
14.516	65.5144
14.6	65.5287
14.684	65.5678
14.768	65.6085
14.852	65.5156
14.936	65.3785
15.02	65.3761
15.104	65.4522
15.188	65.5002
15.272	65.4838
15.356	65.4342
15.44	65.4366
15.524	65.4094
15.608	65.3001
15.692	65.2791
15.776	65.3485
15.86	65.3482
15.944	65.3157
16.028	65.3747
16.112	65.5292
16.196	65.6943
16.28	65.7426
16.364	65.646
16.448	65.5649
16.532	65.5955
16.616	65.5838
16.7	65.4245
16.784	65.3086
16.868	65.4165
16.952	65.5789
17.036	65.5253
17.12	65.295
17.204	65.1662
17.288	65.2746
17.372	65.4856
17.456	65.5896
17.54	65.5166
17.624	65.384
17.708	65.3275
17.792	65.3517
17.876	65.3911
17.96	65.4452
18.044	65.547
18.128	65.6688
18.212	65.7437
18.296	65.7362
18.38	65.6357
18.464	65.4625
18.548	65.3036
18.632	65.2642
18.716	65.357
18.8	65.4853
18.884	65.5591
18.968	65.5855
19.052	65.6419
19.136	65.7737
19.22	65.9516
19.304	66.1146
19.388	66.2268
19.472	66.2911
19.556	66.3395
19.64	66.3937
19.724	66.4109
19.808	66.3153
19.892	66.1114
19.976	65.9138
20.06	65.8297
20.144	65.8614
20.228	65.9356
20.312	65.984
20.396	65.9807
20.48	65.9335
20.564	65.8533
20.648	65.7349
20.732	65.5734
20.816	65.4005
20.9	65.2895
20.984	65.2967
21.068	65.4112
21.152	65.5585
21.236	65.6479
21.32	65.6251
21.404	65.5012
21.488	65.3365
21.572	65.2015
21.656	65.1389
21.74	65.146
21.824	65.1894
21.908	65.2518
21.992	65.3632
22.076	65.5856
22.16	65.9581
22.244	66.3987
22.328	66.7478
22.412	66.855
22.496	66.6996
22.58	66.4166
22.664	66.2002
22.748	66.1828
22.832	66.3582
22.916	66.5958
23	66.732
23.084	66.6844
23.168	66.5126
23.252	66.3973
23.336	66.5786
23.42	67.2384
23.504	68.437
23.588	70.0666
23.672	71.8896
23.756	73.5869
23.84	74.8726
23.924	75.5313
24.008	75.4735
24.092	74.7459
24.176	73.4756
24.26	71.8978
24.344	70.3097
24.428	68.9745
24.512	68.1598
24.596	68.0018
24.68	68.496
24.764	69.5111
24.848	70.8024
24.932	72.0875
25.016	73.1384
25.1	73.8084
25.184	74.0097
25.268	73.7393
25.352	73.1171
25.436	72.0661
25.52	70.4977
25.604	68.5008
25.688	66.5016
25.772	64.2518
25.856	60.4921
25.94	54.1148
26.024	46.0488
26.108	40.114
26.192	38.2559
26.276	39.1333
26.36	35.9015
26.444	25.5216
26.528	10.8272
26.612	3.706670
26.696	12.0691
26.78	31.9731
26.864	45.8739
26.948	35.5882
27.028	5.106735