File: Bakgrunnsmateriale/MATLAB/FTIR/ftir_data/subCa/Mapping_25/BZ12041010-4_t14.asc
PE IR       SPECTRUM    SPECTRUM    ASCII       PEDS        1.60
  -1
BZ3ABE~1.ASC
17/04/10
10:04:24.00
17/04/10
10:04:50.00
tln
$BZ12041010-4_t0014$<tbV0>[-2.6,-7.2,9.0,0.0,22,1,0]
27.028
64

2002,4.07
MIRTGS : RIGHTBACK : INTERNAL 2
MIR : ON : INTERNAL 2
OPTKBR

0.200000
8
8.000000
FILLER
RATIO
SPECTRUM
UNLOCKED 256

DOUBLE
64
COMBINED
1
0
0

0.002000
RATIO

1
0
TRUE
51149
0
LEFT NOT FITTED RIGHT NOT FITTED 0
NONE
NONE
15600
12
4.427000
51148
TRUE
1 0 8 72 0 0 0 0

15798

#HDR
-1
-1
#GR
µM
%T
2.38419e-05
0.0
2.000000
0.002000
12515
8
95.9643
48.8006
#DATA
2.000000	 64.6823
2.084000	 65.311
2.168000	 64.4554
2.252000	 64.3948
2.336000	 64.9086
2.420000	 65.4058
2.504000	 64.9932
2.588000	 65.2157
2.672000	 65.4676
2.756000	 65.4742
2.840000	 65.2721
2.924000	 65.1218
3.008000	 65.3219
3.092000	 65.3946
3.176000	 65.3947
3.260000	 65.3368
3.344000	 65.2934
3.428000	 65.12
3.512000	 65.1698
3.596000	 65.3124
3.680000	 65.4291
3.764000	 65.1835
3.848000	 65.2978
3.932000	 65.3103
4.016000	 65.3279
4.100000	 65.5705
4.184000	 65.4031
4.268000	 65.3202
4.352000	 65.3172
4.436000	 65.184
4.520000	 65.2968
4.604000	 65.3512
4.688000	 65.2735
4.772000	 65.3185
4.856000	 65.3116
4.940000	 65.2806
5.024000	 65.32
5.108000	 65.3803
5.192000	 65.4594
5.276000	 65.3517
5.359999	 65.3864
5.444000	 65.2183
5.528000	 65.2788
5.612000	 65.2025
5.696000	 65.2364
5.780000	 65.1171
5.864000	 65.2121
5.948000	 65.2374
6.032000	 65.2114
6.116000	 65.0941
6.200000	 65.3106
6.284000	 65.3084
6.368000	 65.1027
6.452000	 65.2391
6.536000	 65.163
6.620000	 65.1734
6.704000	 65.3013
6.788000	 65.2687
6.872000	 65.1653
6.956000	 65.1414
7.040000	 65.1193
7.124000	 65.1687
7.208000	 65.2171
7.292000	 65.2734
7.376000	 65.1264
7.460000	 65.1529
7.544000	 65.1549
7.628000	 65.0914
7.712000	 65.0901
7.796000	 65.1414
7.880000	 65.1902
7.964000	 65.1121
8.048000	 65.1577
8.132000	 65.2221
8.216000	 65.1187
8.300000	 65.193
8.384000	 65.0958
8.468000	 65.1682
8.552000	 65.071
8.635999	 65.1874
8.719999	 65.0482
8.804000	 65.0628
8.888000	 65.1987
8.972000	 65.1718
9.056000	 65.1672
9.140000	 65.1398
9.224000	 65.272
9.308000	 65.0577
9.391999	 65.227
9.475999	 65.3002
9.560000	 65.3336
9.644000	 65.3239
9.728000	 65.175
9.812000	 65.1178
9.896000	 65.3651
9.980000	 65.2675
10.064	65.2347
10.148	65.2433
10.232	65.2795
10.316	65.1534
10.4	65.2308
10.484	65.1548
10.568	65.369
10.652	65.198
10.736	65.0032
10.82	65.1718
10.904	65.3358
10.988	65.2939
11.072	65.3749
11.156	65.3119
11.24	65.3771
11.324	65.341
11.408	65.3258
11.492	65.326
11.576	65.214
11.66	65.1008
11.744	65.0768
11.828	65.3304
11.912	65.324
11.996	65.3434
12.08	65.4233
12.164	65.4154
12.248	65.473
12.332	65.545
12.416	65.4295
12.5	65.2899
12.584	65.1146
12.668	65.2248
12.752	65.3994
12.836	65.4748
12.92	65.4666
13.004	65.4925
13.088	65.5409
13.172	65.5662
13.256	65.5424
13.34	65.4991
13.424	65.4812
13.508	65.3733
13.592	65.2506
13.676	65.2776
13.76	65.249
13.844	65.3593
13.928	65.5869
14.012	65.4589
14.096	65.2265
14.18	65.1956
14.264	65.3233
14.348	65.4061
14.432	65.2866
14.516	65.1443
14.6	65.2586
14.684	65.516
14.768	65.6216
14.852	65.5317
14.936	65.3662
15.02	65.2919
15.104	65.3591
15.188	65.4883
15.272	65.59
15.356	65.5972
15.44	65.5428
15.524	65.5351
15.608	65.5939
15.692	65.6295
15.776	65.6485
15.86	65.698
15.944	65.6842
16.028	65.5939
16.112	65.563
16.196	65.6001
16.28	65.5741
16.364	65.4414
16.448	65.3524
16.532	65.4872
16.616	65.7198
16.7	65.7601
16.784	65.6484
16.868	65.6087
16.952	65.5877
17.036	65.4108
17.12	65.1503
17.204	64.9962
17.288	65.0011
17.372	65.0856
17.456	65.1445
17.54	65.1357
17.624	65.138
17.708	65.2445
17.792	65.4319
17.876	65.6138
17.96	65.7463
18.044	65.8058
18.128	65.7913
18.212	65.7772
18.296	65.8517
18.38	65.9602
18.464	65.96
18.548	65.8394
18.632	65.7458
18.716	65.7673
18.8	65.8056
18.884	65.718
18.968	65.522
19.052	65.3965
19.136	65.4763
19.22	65.7252
19.304	66.0034
19.388	66.193
19.472	66.2324
19.556	66.1192
19.64	65.9176
19.724	65.7147
19.808	65.5664
19.892	65.4698
19.976	65.3931
20.06	65.3123
20.144	65.2468
20.228	65.2618
20.312	65.396
20.396	65.5945
20.48	65.7382
20.564	65.7395
20.648	65.6212
20.732	65.5106
20.816	65.5609
20.9	65.8368
20.984	66.2278
21.068	66.4988
21.152	66.4761
21.236	66.1826
21.32	65.8163
21.404	65.6
21.488	65.6231
21.572	65.8106
21.656	65.9971
21.74	66.0451
21.824	65.9429
21.908	65.8152
21.992	65.8159
22.076	66.0032
22.16	66.2669
22.244	66.3487
22.328	66.0255
22.412	65.2595
22.496	64.2876
22.58	63.4853
22.664	63.1775
22.748	63.4623
22.832	64.1663
22.916	64.971
23	65.5746
23.084	65.8158
23.168	65.742
23.252	65.547
23.336	65.4445
23.42	65.6034
23.504	66.0655
23.588	66.7459
23.672	67.5068
23.756	68.2148
23.84	68.8047
23.924	69.2985
24.008	69.806
24.092	70.4991
24.176	71.5317
24.26	72.9119
24.344	74.4665
24.428	75.8809
24.512	76.7199
24.596	76.5963
24.68	75.2149
24.764	72.4589
24.848	68.4474
24.932	63.5775
25.016	58.4873
25.1	53.9776
25.184	50.7116
25.268	49.0169
25.352	48.9683
25.436	50.1542
25.52	51.7512
25.604	52.8381
25.688	53.3325
25.772	53.5655
25.856	53.6866
25.94	53.6551
26.024	53.976
26.108	56.0389
26.192	60.4933
26.276	66.3093
26.36	69.1787
26.444	66.8089
26.528	60.3474
26.612	56.5682
26.696	60.634
26.78	71.3717
26.864	80.8198
26.948	81.0204
27.028	75.6622