File: Bakgrunnsmateriale/MATLAB/FTIR/ftir_data/subCa/Mapping_25/BZ12041010-4_t17_cm-1.asc
PE IR       SPECTRUM    SPECTRUM    ASCII       PEDS        1.60
  -1
BZ2C75~1.ASC
17/04/10
10:18:33.00
17/04/10
10:18:33.00
tln
$BZ12041010-4_t0017$<tbV0>[2.6,-4.6,9.0,0.0,22,1,0]
370
64

2002,4.07
MIRTGS : RIGHTBACK : INTERNAL 2
MIR : ON : INTERNAL 2
OPTKBR

0.200000
8
8.000000
FILLER
RATIO
SPECTRUM
UNLOCKED 256

DOUBLE
64
COMBINED
1
0
0

1.000000
RATIO

1
0
TRUE
51149
0
LEFT NOT FITTED RIGHT NOT FITTED 0
NONE
NONE
15600
12
4.427000
51148
TRUE
1 0 8 72 0 0 0 0

15798

#HDR
-1
-1
#GR
CM-1
%T
2.38419e-05
0.0
5000
-1.000000
4631
8
112.152
32.6557
#DATA
5000	64.9986
4984	64.619
4968	64.2402
4952	64.6421
4936	64.149
4920	65.0738
4904	65.3681
4888	64.6784
4872	65.4332
4856	67.0394
4840	64.4349
4824	65.6689
4808	63.3472
4792	65.5244
4776	66.2849
4760	64.9373
4744	65.0374
4728	65.6961
4712	65.5136
4696	64.9839
4680	65.0668
4664	64.739
4648	64.1665
4632	64.3154
4616	64.5559
4600	63.9735
4584	64.1777
4568	63.9102
4552	64.1515
4536	63.3085
4520	63.8991
4504	64.2323
4488	64.2021
4472	68.2389
4456	104.021
4440	63.6849
4424	62.6809
4408	63.6423
4392	64.106
4376	63.4387
4360	64.1655
4344	64.0227
4328	64.5278
4312	64.5391
4296	64.4827
4280	64.7592
4264	64.9117
4248	65.1469
4232	65.4592
4216	65.3901
4200	65.3363
4184	65.6005
4168	65.7883
4152	65.3435
4136	65.6114
4120	65.4045
4104	65.5972
4088	65.701
4072	65.4008
4056	65.3534
4040	65.1475
4024	65.0321
4008	65.1298
3992	65.0597
3976	65.2257
3960	65.0423
3944	64.9204
3928	65.4197
3912	65.1552
3896	64.8072
3880	65.2462
3864	65.2458
3848	65.2366
3832	65.0493
3816	65.2791
3800	65.4127
3784	65.4521
3768	65.1801
3752	65.3369
3736	65.4169
3720	65.5372
3704	65.5025
3688	65.3986
3672	65.4489
3656	65.3411
3640	65.4061
3624	65.4419
3608	65.5071
3592	65.5178
3576	65.4443
3560	65.2527
3544	65.2802
3528	65.3641
3512	65.188
3496	65.2783
3480	64.9759
3464	65.1986
3448	65.2334
3432	65.2264
3416	65.3082
3400	65.1939
3384	65.1191
3368	65.4136
3352	65.2869
3336	65.5027
3320	65.2731
3304	65.3
3288	65.5002
3272	65.277
3256	65.3079
3240	65.3122
3224	65.3364
3208	65.2945
3192	65.3557
3176	65.3671
3160	65.1759
3144	65.3836
3128	65.2069
3112	65.2932
3096	65.1581
3080	65.2814
3064	65.2382
3048	65.3953
3032	65.3279
3016	65.2081
3000	65.2649
2984	65.4157
2968	65.2453
2952	65.2167
2936	65.2588
2920	65.1817
2904	65.381
2888	65.401
2872	65.231
2856	65.0894
2840	65.2614
2824	65.3513
2808	65.4364
2792	65.3032
2776	65.4586
2760	65.3929
2744	65.3452
2728	65.2939
2712	65.3556
2696	65.3526
2680	65.2371
2664	65.4144
2648	65.4133
2632	65.2467
2616	65.3757
2600	65.3243
2584	65.2291
2568	65.3561
2552	65.2038
2536	65.265
2520	65.3414
2504	65.3718
2488	65.4099
2472	65.2597
2456	65.3917
2440	65.4067
2424	65.3908
2408	65.3952
2392	65.3161
2376	65.2811
2360	65.2517
2344	65.3224
2328	65.4161
2312	65.4268
2296	65.3259
2280	65.2463
2264	65.3449
2248	65.2918
2232	65.3287
2216	65.2802
2200	65.2403
2184	65.2847
2168	65.359
2152	65.2977
2136	65.2635
2120	65.2697
2104	65.3082
2088	65.3269
2072	65.4241
2056	65.2614
2040	65.2591
2024	65.3719
2008	65.3239
1992	65.3488
1976	65.4124
1960	65.393
1944	65.3132
1928	65.461
1912	65.3654
1896	65.3726
1880	65.3623
1864	65.2822
1848	65.3769
1832	65.2862
1816	65.2752
1800	65.2984
1784	65.1797
1768	65.2292
1752	65.1876
1736	65.145
1720	64.9728
1704	65.0114
1688	65.1423
1672	65.1048
1656	65.3711
1640	65.2321
1624	65.2654
1608	65.2764
1592	65.2514
1576	65.373
1560	65.4514
1544	65.2196
1528	65.2749
1512	65.3349
1496	65.5172
1480	65.1887
1464	65.3458
1448	65.3632
1432	65.2554
1416	65.2167
1400	65.2738
1384	65.2574
1368	65.275
1352	65.1455
1336	65.2348
1320	65.0778
1304	65.1668
1288	65.2411
1272	65.0798
1256	65.0518
1240	65.1402
1224	65.1619
1208	65.2806
1192	65.0098
1176	65.265
1160	65.2548
1144	65.1462
1128	65.285
1112	65.1361
1096	65.1826
1080	65.119
1064	65.2925
1048	65.0839
1032	65.0882
1016	65.1759
1000	65.0467
984	 65.2601
968	 65.2755
952	 65.407
936	 65.0949
920	 65.199
904	 65.2512
888	 65.3351
872	 65.1889
856	 65.2055
840	 65.3423
824	 65.4983
808	 65.4016
792	 65.1978
776	 65.4893
760	 65.4819
744	 65.5114
728	 65.5145
712	 65.3171
696	 65.3861
680	 65.4944
664	 65.5427
648	 65.3401
632	 65.4444
616	 65.5097
600	 65.7434
584	 65.7441
568	 65.7525
552	 65.5472
536	 65.6657
520	 65.5006
504	 66.5229
488	 66.1056
472	 65.591
456	 65.2166
440	 66.6025
424	 65.1922
408	 81.6141
392	 56.582
376	 45.928
370	 63.1111