File: Bakgrunnsmateriale/MATLAB/FTIR/ftir_data/subCa/Mapping_25/BZ12041010-4_t12_cm-1.asc
PE IR       SPECTRUM    SPECTRUM    ASCII       PEDS        1.60
  -1
BZ2CF1~1.ASC
17/04/10
09:55:10.00
17/04/10
09:55:10.00
tln
$BZ12041010-4_t0012$<tbV0>[2.6,-7.2,9.0,0.0,22,1,0]
370
64

2002,4.07
MIRTGS : RIGHTBACK : INTERNAL 2
MIR : ON : INTERNAL 2
OPTKBR

0.200000
8
8.000000
FILLER
RATIO
SPECTRUM
UNLOCKED 256

DOUBLE
64
COMBINED
1
0
0

1.000000
RATIO

1
0
TRUE
51149
0
LEFT NOT FITTED RIGHT NOT FITTED 0
NONE
NONE
15600
12
4.427000
51148
TRUE
1 0 8 72 0 0 0 0

15798

#HDR
-1
-1
#GR
CM-1
%T
2.38419e-05
0.0
5000
-1.000000
4631
8
153.093
37.1085
#DATA
5000	64.8086
4984	64.5729
4968	65.1134
4952	65.3092
4936	64.577
4920	65.538
4904	64.0296
4888	64.5824
4872	62.7432
4856	62.8054
4840	64.007
4824	66.0924
4808	65.4053
4792	64.2598
4776	65.3689
4760	64.7794
4744	65.4609
4728	65.6745
4712	65.0455
4696	64.9407
4680	65.1744
4664	65.0669
4648	64.9292
4632	64.9297
4616	64.8981
4600	64.4863
4584	65.0384
4568	64.7162
4552	64.4415
4536	64.5423
4520	64.5655
4504	64.7187
4488	65.0689
4472	65.4628
4456	80.225
4440	64.4544
4424	64.0567
4408	64.3953
4392	64.5429
4376	64.3803
4360	64.7884
4344	64.5972
4328	64.8674
4312	64.7614
4296	64.9078
4280	64.9388
4264	65.0569
4248	64.9187
4232	64.8627
4216	65.0674
4200	64.9877
4184	65.2458
4168	65.4173
4152	65.0794
4136	65.1835
4120	65.1551
4104	65.3413
4088	65.4567
4072	65.4268
4056	65.2132
4040	65.1312
4024	64.9321
4008	65.1455
3992	65.0308
3976	64.7373
3960	65.1295
3944	65.1086
3928	65.3651
3912	65.0666
3896	64.9875
3880	65.1139
3864	65.348
3848	65.1815
3832	65.0056
3816	65.2003
3800	65.1499
3784	65.2465
3768	65.1536
3752	65.1139
3736	65.1065
3720	65.3366
3704	65.3872
3688	65.5636
3672	65.2851
3656	65.1196
3640	65.1721
3624	65.1604
3608	65.2714
3592	65.3646
3576	65.3336
3560	65.2162
3544	65.161
3528	65.2302
3512	65.1419
3496	65.3489
3480	65.1
3464	65.0311
3448	65.0784
3432	65.2867
3416	65.1617
3400	65.2289
3384	65.1334
3368	65.3504
3352	65.2763
3336	65.371
3320	65.1748
3304	65.2461
3288	65.2574
3272	65.1742
3256	65.4257
3240	65.1957
3224	65.3926
3208	65.2089
3192	65.1859
3176	65.3716
3160	65.4296
3144	65.245
3128	65.299
3112	65.3671
3096	65.3268
3080	65.2098
3064	65.1971
3048	65.3192
3032	65.2071
3016	65.2128
3000	65.1738
2984	65.2717
2968	65.3438
2952	65.2397
2936	65.2144
2920	65.0282
2904	65.2913
2888	65.1934
2872	65.2809
2856	65.0963
2840	65.253
2824	65.3174
2808	65.3868
2792	65.2003
2776	65.2807
2760	65.1789
2744	65.2197
2728	65.3774
2712	65.3137
2696	65.3163
2680	65.2446
2664	65.3914
2648	65.3046
2632	65.3121
2616	65.3654
2600	65.3
2584	65.1788
2568	65.3593
2552	65.282
2536	65.3095
2520	65.2049
2504	65.2838
2488	65.3483
2472	65.2594
2456	65.3024
2440	65.3951
2424	65.3493
2408	65.3605
2392	65.3634
2376	65.2697
2360	65.3997
2344	65.2397
2328	65.353
2312	65.3394
2296	65.3533
2280	65.2114
2264	65.2794
2248	65.2224
2232	65.2853
2216	65.2247
2200	65.231
2184	65.374
2168	65.388
2152	65.2222
2136	65.2185
2120	65.3158
2104	65.4169
2088	65.2118
2072	65.4138
2056	65.2779
2040	65.2906
2024	65.2996
2008	65.2691
1992	65.227
1976	65.2652
1960	65.3082
1944	65.3281
1928	65.3473
1912	65.2673
1896	65.3356
1880	65.3141
1864	65.2121
1848	65.2809
1832	65.254
1816	65.3044
1800	65.2977
1784	65.1807
1768	65.2989
1752	65.1514
1736	65.1422
1720	65.1175
1704	65.2975
1688	65.3361
1672	65.1683
1656	65.1894
1640	65.1355
1624	65.213
1608	65.2207
1592	65.2071
1576	65.127
1560	65.1108
1544	65.1063
1528	65.1984
1512	65.166
1496	65.3075
1480	65.1669
1464	65.2258
1448	65.1429
1432	65.1652
1416	65.1761
1400	65.2655
1384	65.2059
1368	65.3615
1352	65.1898
1336	65.2368
1320	65.2229
1304	65.1849
1288	65.2131
1272	65.2045
1256	65.102
1240	65.1132
1224	65.1658
1208	65.1486
1192	65.1568
1176	65.141
1160	65.2458
1144	65.1481
1128	65.0768
1112	65.0523
1096	65.1403
1080	65.0354
1064	65.1072
1048	65.0661
1032	65.1322
1016	64.9804
1000	65.1666
984	 65.3093
968	 65.3444
952	 65.3785
936	 65.217
920	 65.1672
904	 65.2507
888	 65.4386
872	 65.3109
856	 65.4316
840	 65.3208
824	 65.5182
808	 65.4114
792	 65.041
776	 65.4536
760	 65.4002
744	 65.4508
728	 65.3329
712	 65.1981
696	 65.4502
680	 65.4647
664	 65.6067
648	 65.3484
632	 65.4066
616	 65.6379
600	 65.4891
584	 65.3042
568	 65.3827
552	 66.0147
536	 65.6281
520	 65.8579
504	 65.6362
488	 65.4202
472	 66.1372
456	 66.1908
440	 67.6123
424	 66.7813
408	 77.5083
392	 65.6941
376	 73.7093
370	 150.538