File: Bakgrunnsmateriale/MATLAB/FTIR/ftir_data/subCa/Mapping_25/BZ12041010-4_t02_cm-1.asc
PE IR       SPECTRUM    SPECTRUM    ASCII       PEDS        1.60
  -1
BZABF1~1.ASC
17/04/10
09:00:58.00
17/04/10
09:00:58.00
tln
$BZ12041010-4_t0002$<tbV0>[2.6,-12.4,9.0,0.0,22,1,0]
370
64

2002,4.07
MIRTGS : RIGHTBACK : INTERNAL 2
MIR : ON : INTERNAL 2
OPTKBR

0.200000
8
8.000000
FILLER
RATIO
SPECTRUM
UNLOCKED 256

DOUBLE
64
COMBINED
1
0
0

1.000000
RATIO

1
0
TRUE
51149
0
LEFT NOT FITTED RIGHT NOT FITTED 0
NONE
NONE
15600
12
4.427000
51148
TRUE
1 0 8 72 0 0 0 0

15798

#HDR
-1
-1
#GR
CM-1
%T
2.38419e-05
0.0
5000
-1.000000
4631
8
84.6141
53.9797
#DATA
5000	64.9079
4984	64.4065
4968	64.933
4952	65.2763
4936	64.5049
4920	64.6838
4904	64.7333
4888	64.9403
4872	64.7209
4856	64.4124
4840	64.3251
4824	65.4675
4808	63.7048
4792	63.9746
4776	65.4621
4760	64.4619
4744	66.2485
4728	63.6751
4712	65.5809
4696	63.2951
4680	64.3169
4664	65.1669
4648	65.6477
4632	65.1055
4616	64.6631
4600	64.3551
4584	64.6586
4568	64.3027
4552	65.5398
4536	64.7515
4520	64.994
4504	65.7914
4488	58.1637
4472	70.8151
4456	64.1086
4440	64.6239
4424	65.0868
4408	65.3777
4392	65.0388
4376	64.9912
4360	64.7073
4344	64.9596
4328	64.7312
4312	64.8893
4296	64.8946
4280	65.0709
4264	64.7749
4248	64.8766
4232	64.7824
4216	64.8923
4200	65.2524
4184	64.8849
4168	65.2962
4152	65.1044
4136	64.9786
4120	65.1917
4104	64.9604
4088	65.0191
4072	65.0734
4056	64.9968
4040	65.2069
4024	65.1882
4008	65.1212
3992	64.9438
3976	64.8858
3960	65.1569
3944	65.0504
3928	65.136
3912	65.0204
3896	65.2162
3880	65.2854
3864	64.9868
3848	65.2647
3832	65.2604
3816	65.1174
3800	65.1711
3784	65.0884
3768	65.1501
3752	65.3574
3736	65.3133
3720	65.2331
3704	65.2529
3688	65.1833
3672	65.3347
3656	65.0741
3640	65.268
3624	65.401
3608	65.3047
3592	65.1072
3576	65.272
3560	65.1988
3544	64.9102
3528	65.2164
3512	65.1131
3496	64.9058
3480	65.1493
3464	65.0754
3448	65.0888
3432	65.1258
3416	65.1559
3400	65.1125
3384	65.1877
3368	65.161
3352	64.8927
3336	64.9558
3320	65.1585
3304	65.0426
3288	65.0731
3272	64.9742
3256	65.281
3240	65.0917
3224	65.0308
3208	65.1856
3192	65.2545
3176	64.887
3160	65.1151
3144	65.1658
3128	65.1849
3112	65.1647
3096	64.9908
3080	65.1891
3064	65.0649
3048	65.2191
3032	65.137
3016	65.0837
3000	64.9701
2984	65.0141
2968	65.195
2952	65.0378
2936	65.0862
2920	65.1309
2904	65.2327
2888	65.1257
2872	65.087
2856	65.1073
2840	65.2003
2824	65.0512
2808	65.2153
2792	65.0833
2776	65.1828
2760	65.2051
2744	65.2831
2728	65.1495
2712	65.0961
2696	65.2012
2680	64.9181
2664	65.1276
2648	65.1876
2632	65.1245
2616	65.1637
2600	65.1335
2584	65.1146
2568	65.0698
2552	65.2
2536	65.089
2520	65.1716
2504	65.2057
2488	65.1889
2472	65.3191
2456	65.2534
2440	65.2606
2424	65.1823
2408	65.2041
2392	65.1992
2376	65.156
2360	65.2289
2344	65.2276
2328	65.2104
2312	65.2395
2296	65.1779
2280	65.2879
2264	65.1453
2248	65.2377
2232	65.1766
2216	65.2873
2200	65.0998
2184	65.2209
2168	65.2657
2152	65.2742
2136	65.1688
2120	65.2675
2104	65.223
2088	65.1744
2072	65.1228
2056	65.142
2040	65.1967
2024	65.1929
2008	65.2712
1992	65.1736
1976	65.3232
1960	65.2043
1944	65.1834
1928	65.2345
1912	65.2557
1896	65.2815
1880	65.3224
1864	65.2103
1848	65.2936
1832	65.3211
1816	65.247
1800	65.2873
1784	65.2969
1768	65.2877
1752	65.2405
1736	65.1813
1720	65.0809
1704	65.2112
1688	65.3106
1672	65.2114
1656	65.3982
1640	65.2362
1624	65.1723
1608	65.0955
1592	65.0747
1576	65.1554
1560	65.4857
1544	65.3696
1528	65.211
1512	65.2807
1496	65.3029
1480	65.249
1464	65.3486
1448	65.1977
1432	65.2539
1416	65.2351
1400	65.2026
1384	65.0439
1368	65.0232
1352	65.1023
1336	65.0547
1320	65.1313
1304	65.0651
1288	65.0113
1272	65.07
1256	65.083
1240	65.0498
1224	65.1446
1208	65.2298
1192	65.0585
1176	65.1228
1160	65.1451
1144	65.0371
1128	65.2055
1112	65.067
1096	64.9861
1080	65.1926
1064	65.0221
1048	64.9343
1032	64.8821
1016	65.1084
1000	65.1219
984	 65.026
968	 65.258
952	 65.2411
936	 65.4228
920	 65.3077
904	 65.1329
888	 65.2788
872	 65.388
856	 65.3621
840	 65.1907
824	 65.4673
808	 65.1802
792	 65.3569
776	 65.6777
760	 65.384
744	 65.3246
728	 65.1575
712	 65.3428
696	 65.138
680	 65.1834
664	 65.5999
648	 65.525
632	 65.427
616	 65.8185
600	 65.1175
584	 65.3642
568	 66.2052
552	 66.1694
536	 66.0954
520	 65.9941
504	 66.121
488	 66.3261
472	 66.1899
456	 65.6779
440	 67.2759
424	 66.5073
408	 65.9679
392	 70.2764
376	 62.9252
370	 53.9797