File: Bakgrunnsmateriale/MATLAB/FTIR/ftir_data/subCa/Mapping_25/BZ12041010-4_t04_cm-1.asc
PE IR       SPECTRUM    SPECTRUM    ASCII       PEDS        1.60
  -1
BZABFE~1.ASC
17/04/10
09:10:12.00
17/04/10
09:10:12.00
tln
$BZ12041010-4_t0004$<tbV0>[-2.6,-12.4,9.0,0.0,22,1,0]
370
64

2002,4.07
MIRTGS : RIGHTBACK : INTERNAL 2
MIR : ON : INTERNAL 2
OPTKBR

0.200000
8
8.000000
FILLER
RATIO
SPECTRUM
UNLOCKED 256

DOUBLE
64
COMBINED
1
0
0

1.000000
RATIO

1
0
TRUE
51149
0
LEFT NOT FITTED RIGHT NOT FITTED 0
NONE
NONE
15600
12
4.427000
51148
TRUE
1 0 8 72 0 0 0 0

15798

#HDR
-1
-1
#GR
CM-1
%T
2.38419e-05
0.0
5000
-1.000000
4631
8
75.1068
35.0248
#DATA
5000	65.035
4984	64.4205
4968	64.6317
4952	64.8144
4936	64.8793
4920	65.0564
4904	64.5732
4888	64.8318
4872	64.8133
4856	65.173
4840	64.9994
4824	64.7338
4808	62.8577
4792	64.8101
4776	63.9657
4760	66.1752
4744	64.4385
4728	64.1833
4712	66.1211
4696	63.4775
4680	64.1891
4664	64.7619
4648	66.0562
4632	65.4787
4616	65.3152
4600	65.0205
4584	65.0766
4568	65.5643
4552	65.8198
4536	65.4342
4520	65.8643
4504	66.0023
4488	60.6239
4472	50.594
4456	64.8662
4440	66.4424
4424	66.0172
4408	66.3541
4392	65.6109
4376	65.6914
4360	65.648
4344	65.8861
4328	65.5847
4312	65.6188
4296	65.1116
4280	65.5778
4264	65.2646
4248	64.9603
4232	64.6949
4216	64.9436
4200	64.6365
4184	65.0521
4168	65.1484
4152	64.6801
4136	64.9284
4120	65.1544
4104	65.0255
4088	65.2215
4072	65.0219
4056	65.112
4040	64.9994
4024	65.0616
4008	65.1747
3992	65.403
3976	65.3003
3960	65.4265
3944	65.3553
3928	65.4529
3912	65.3131
3896	65.5396
3880	65.3338
3864	65.3619
3848	65.2257
3832	65.3219
3816	65.2487
3800	65.4797
3784	65.263
3768	65.2914
3752	65.5207
3736	65.594
3720	65.0757
3704	65.3402
3688	65.2864
3672	65.441
3656	65.3657
3640	65.4167
3624	65.4506
3608	65.3773
3592	65.314
3576	65.3162
3560	65.4375
3544	65.2401
3528	65.4776
3512	65.2794
3496	65.2869
3480	65.2434
3464	65.4567
3448	65.3259
3432	65.2927
3416	65.4176
3400	65.2799
3384	65.247
3368	65.1087
3352	65.2735
3336	65.2166
3320	65.2212
3304	65.2071
3288	65.2316
3272	65.2061
3256	65.3675
3240	65.1586
3224	65.1098
3208	65.248
3192	65.1349
3176	65.1842
3160	65.208
3144	65.3012
3128	65.2293
3112	65.2463
3096	65.3814
3080	65.2322
3064	65.1712
3048	65.275
3032	65.0935
3016	65.3005
3000	65.2129
2984	65.1289
2968	65.1143
2952	65.0304
2936	65.0584
2920	65.2386
2904	65.2174
2888	65.2381
2872	65.1633
2856	65.2804
2840	65.191
2824	65.2518
2808	65.2015
2792	65.3594
2776	65.3015
2760	65.2649
2744	65.3063
2728	65.2794
2712	65.2354
2696	65.2988
2680	65.1417
2664	65.3191
2648	65.3559
2632	65.4155
2616	65.3796
2600	65.295
2584	65.3703
2568	65.4427
2552	65.2343
2536	65.317
2520	65.3221
2504	65.314
2488	65.2421
2472	65.2869
2456	65.4254
2440	65.3513
2424	65.3001
2408	65.1756
2392	65.3326
2376	65.3017
2360	65.3791
2344	65.2756
2328	65.3164
2312	65.3456
2296	65.3442
2280	65.4449
2264	65.2603
2248	65.241
2232	65.2377
2216	65.3799
2200	65.3254
2184	65.3441
2168	65.3038
2152	65.3814
2136	65.3762
2120	65.2763
2104	65.3222
2088	65.3962
2072	65.2905
2056	65.3172
2040	65.3357
2024	65.3174
2008	65.3032
1992	65.3001
1976	65.3268
1960	65.3627
1944	65.3761
1928	65.3203
1912	65.3178
1896	65.4109
1880	65.3297
1864	65.3727
1848	65.3785
1832	65.4687
1816	65.3452
1800	65.4826
1784	65.4798
1768	65.5527
1752	65.2777
1736	65.3154
1720	65.2556
1704	65.4148
1688	65.4085
1672	65.4796
1656	65.5724
1640	65.4047
1624	65.3474
1608	65.3344
1592	65.2776
1576	65.3431
1560	65.698
1544	65.583
1528	65.4287
1512	65.4201
1496	65.6053
1480	65.2919
1464	65.3473
1448	65.0769
1432	65.3928
1416	65.3342
1400	65.2837
1384	65.1868
1368	65.2071
1352	65.1774
1336	65.2674
1320	65.1764
1304	65.4156
1288	65.2242
1272	65.1181
1256	65.2866
1240	65.2391
1224	65.3501
1208	65.3513
1192	65.161
1176	65.1642
1160	65.2173
1144	65.103
1128	65.2799
1112	65.1187
1096	65.0491
1080	65.3074
1064	65.2093
1048	65.2042
1032	65.1796
1016	64.9436
1000	65.239
984	 65.3657
968	 65.2297
952	 65.2507
936	 65.3259
920	 65.3624
904	 65.3516
888	 65.2914
872	 65.2404
856	 65.3917
840	 65.4335
824	 65.312
808	 65.4782
792	 65.4746
776	 65.6363
760	 65.4309
744	 65.499
728	 65.3301
712	 65.4421
696	 65.4864
680	 65.4954
664	 65.3965
648	 65.5018
632	 65.4747
616	 65.991
600	 65.1191
584	 65.7215
568	 66.3073
552	 66.1815
536	 66.1543
520	 66.2319
504	 66.6932
488	 66.1163
472	 66.4495
456	 65.6513
440	 66.8534
424	 66.0308
408	 69.8848
392	 74.2665
376	 47.3681
370	 35.0248