File: Bakgrunnsmateriale/MATLAB/FTIR/ftir_data/subCa/Mapping_25/BZ12041010-4_t01.asc
PE IR       SPECTRUM    SPECTRUM    ASCII       PEDS        1.60
  -1
BZ1204~4.ASC
17/04/10
08:56:20.00
17/04/10
08:56:47.00
tln
$BZ12041010-4_t0001$<tbV0>[5.2,-12.4,9.0,0.0,22,1,0]
27.028
64

2002,4.07
MIRTGS : RIGHTBACK : INTERNAL 2
MIR : ON : INTERNAL 2
OPTKBR

0.200000
8
8.000000
FILLER
RATIO
SPECTRUM
UNLOCKED 256

DOUBLE
64
COMBINED
1
0
0

0.002000
RATIO

1
0
TRUE
51149
0
LEFT NOT FITTED RIGHT NOT FITTED 0
NONE
NONE
15600
12
4.427000
51148
TRUE
1 0 8 72 0 0 0 0

15798

#HDR
-1
-1
#GR
µM
%T
2.38419e-05
0.0
2.000000
0.002000
12515
8
76.5367
59.3694
#DATA
2.000000	 64.8946
2.084000	 65.5175
2.168000	 64.9443
2.252000	 64.5502
2.336000	 64.885
2.420000	 65.156
2.504000	 65.1021
2.588000	 65.2222
2.672000	 65.4992
2.756000	 65.4724
2.840000	 65.252
2.924000	 65.1335
3.008000	 65.2602
3.092000	 65.2974
3.176000	 65.2271
3.260000	 65.1364
3.344000	 65.0906
3.428000	 65.1457
3.512000	 65.2843
3.596000	 65.2435
3.680000	 65.2638
3.764000	 65.29
3.848000	 65.2168
3.932000	 65.3314
4.016000	 65.4293
4.100000	 65.3712
4.184000	 65.2817
4.268000	 65.3254
4.352000	 65.3362
4.436000	 65.3128
4.520000	 65.3551
4.604000	 65.2413
4.688000	 65.2251
4.772000	 65.2724
4.856000	 65.2788
4.940000	 65.3862
5.024000	 65.2974
5.108000	 65.3412
5.192000	 65.366
5.276000	 65.3951
5.359999	 65.3147
5.444000	 65.3084
5.528000	 65.3971
5.612000	 65.3202
5.696000	 65.3797
5.780000	 65.1303
5.864000	 65.3363
5.948000	 65.4267
6.032000	 65.3356
6.116000	 65.2318
6.200000	 65.286
6.284000	 65.0934
6.368000	 65.1174
6.452000	 65.3516
6.536000	 65.2942
6.620000	 65.3729
6.704000	 65.3569
6.788000	 65.2997
6.872000	 65.2245
6.956000	 65.1431
7.040000	 65.259
7.124000	 65.3154
7.208000	 65.1749
7.292000	 65.2003
7.376000	 65.1662
7.460000	 65.2895
7.544000	 65.1854
7.628000	 65.164
7.712000	 65.2358
7.796000	 65.2521
7.880000	 65.1708
7.964000	 65.186
8.048000	 65.1623
8.132000	 65.1691
8.216000	 65.2026
8.300000	 65.2693
8.384000	 65.2741
8.468000	 65.0843
8.552000	 65.1372
8.635999	 65.1156
8.719999	 65.0574
8.804000	 65.0937
8.888000	 65.144
8.972000	 65.1654
9.056000	 64.9943
9.140000	 65.1351
9.224000	 65.1217
9.308000	 65.0889
9.391999	 65.1337
9.475999	 65.2258
9.560000	 65.1799
9.644000	 65.1595
9.728000	 65.1619
9.812000	 65.1518
9.896000	 65.1142
9.980000	 65.163
10.064	65.2404
10.148	65.1848
10.232	65.1419
10.316	65.1901
10.4	65.2549
10.484	65.1923
10.568	65.1918
10.652	65.2167
10.736	65.3683
10.82	65.1408
10.904	65.1254
10.988	65.3158
11.072	65.3254
11.156	65.2723
11.24	65.2827
11.324	65.4409
11.408	65.2554
11.492	65.3924
11.576	65.4984
11.66	65.5137
11.744	65.4348
11.828	65.3529
11.912	65.2464
11.996	65.2824
12.08	65.4351
12.164	65.3713
12.248	65.3371
12.332	65.4784
12.416	65.3939
12.5	65.2189
12.584	65.1249
12.668	65.2762
12.752	65.3808
12.836	65.4841
12.92	65.6098
13.004	65.6761
13.088	65.6012
13.172	65.5006
13.256	65.4895
13.34	65.4811
13.424	65.3224
13.508	65.3344
13.592	65.4862
13.676	65.3811
13.76	65.2393
13.844	65.2615
13.928	65.2433
14.012	65.179
14.096	65.1995
14.18	65.219
14.264	65.1383
14.348	65.124
14.432	65.1997
14.516	65.2488
14.6	65.3301
14.684	65.35
14.768	65.339
14.852	65.4227
14.936	65.439
15.02	65.3149
15.104	65.2478
15.188	65.3225
15.272	65.4159
15.356	65.4483
15.44	65.4452
15.524	65.4894
15.608	65.6166
15.692	65.6514
15.776	65.4628
15.86	65.2679
15.944	65.3325
16.028	65.5991
16.112	65.8218
16.196	65.8812
16.28	65.835
16.364	65.7433
16.448	65.6183
16.532	65.5103
16.616	65.503
16.7	65.6066
16.784	65.7384
16.868	65.8042
16.952	65.7483
17.036	65.5967
17.12	65.4646
17.204	65.4373
17.288	65.4934
17.372	65.5927
17.456	65.7374
17.54	65.891
17.624	65.9511
17.708	65.885
17.792	65.7945
17.876	65.792
17.96	65.8602
18.044	65.9204
18.128	65.9692
18.212	66.0376
18.296	66.0924
18.38	66.1002
18.464	66.0991
18.548	66.1348
18.632	66.1865
18.716	66.1846
18.8	66.0861
18.884	65.9372
18.968	65.8343
19.052	65.8221
19.136	65.8621
19.22	65.8815
19.304	65.8313
19.388	65.7322
19.472	65.6736
19.556	65.7235
19.64	65.8395
19.724	65.9042
19.808	65.8528
19.892	65.7391
19.976	65.6815
20.06	65.7553
20.144	65.9457
20.228	66.1776
20.312	66.3686
20.396	66.465
20.48	66.4651
20.564	66.4206
20.648	66.3959
20.732	66.4261
20.816	66.5039
20.9	66.6053
20.984	66.7193
21.068	66.831
21.152	66.8844
21.236	66.785
21.32	66.4581
21.404	65.9318
21.488	65.3531
21.572	64.9152
21.656	64.7649
21.74	64.9345
21.824	65.3314
21.908	65.7858
21.992	66.1266
22.076	66.2385
22.16	66.096
22.244	65.7715
22.328	65.3936
22.412	65.1076
22.496	65.0214
22.58	65.1557
22.664	65.4476
22.748	65.7708
22.832	65.9993
22.916	66.0543
23	65.9309
23.084	65.692
23.168	65.4509
23.252	65.3111
23.336	65.3296
23.42	65.4741
23.504	65.6369
23.588	65.6742
23.672	65.4816
23.756	65.0532
23.84	64.4808
23.924	63.9346
24.008	63.5831
24.092	63.5258
24.176	63.7616
24.26	64.2271
24.344	64.8222
24.428	65.4436
24.512	65.987
24.596	66.3628
24.68	66.5074
24.764	66.4039
24.848	66.1
24.932	65.6991
25.016	65.3306
25.1	65.1098
25.184	65.1508
25.268	65.5319
25.352	66.2645
25.436	67.3209
25.52	68.5933
25.604	69.8754
25.688	70.8762
25.772	71.2904
25.856	70.9027
25.94	69.6516
26.024	67.7021
26.108	65.4502
26.192	63.3375
26.276	61.7525
26.36	60.9948
26.444	61.1214
26.528	61.9482
26.612	63.1947
26.696	64.5216
26.78	65.5992
26.864	66.2213
26.948	66.2555
27.028	65.5787