File: Bakgrunnsmateriale/MATLAB/FTIR/ftir_data/subCa/Mapping_25/BZ12041010-4_t21_cm-1.asc
PE IR       SPECTRUM    SPECTRUM    ASCII       PEDS        1.60
  -1
BZAC74~1.ASC
17/04/10
10:44:32.00
17/04/10
10:44:32.00
tln
$BZ12041010-4_t0021$<tbV0>[5.2,-2.0,9.0,0.0,22,1,0]
370
64

2002,4.07
MIRTGS : RIGHTBACK : INTERNAL 2
MIR : ON : INTERNAL 2
OPTKBR

0.200000
8
8.000000
FILLER
RATIO
SPECTRUM
UNLOCKED 256

DOUBLE
64
COMBINED
1
0
0

1.000000
RATIO

1
0
TRUE
51149
0
LEFT NOT FITTED RIGHT NOT FITTED 0
NONE
NONE
15600
12
4.427000
51148
TRUE
1 0 8 72 0 0 0 0

15798

#HDR
-1
-1
#GR
CM-1
%T
2.38419e-05
0.0
5000
-1.000000
4631
8
69.9213
34.671
#DATA
5000	53.7279
4984	53.414
4968	53.2657
4952	53.3153
4936	53.5702
4920	53.5863
4904	52.3454
4888	53.2777
4872	54.1949
4856	53.9496
4840	53.8663
4824	53.4727
4808	53.2955
4792	53.7873
4776	53.523
4760	53.6468
4744	53.9639
4728	53.606
4712	53.6774
4696	53.8917
4680	53.474
4664	53.2356
4648	53.4188
4632	53.4826
4616	53.7618
4600	53.5028
4584	53.812
4568	53.5696
4552	53.7781
4536	53.2481
4520	53.8009
4504	53.5369
4488	53.4673
4472	53.2521
4456	55.438
4440	53.8689
4424	53.9023
4408	53.4665
4392	53.3558
4376	53.5532
4360	54.101
4344	54.0321
4328	53.7287
4312	53.8777
4296	53.5553
4280	54.1752
4264	54.0055
4248	53.8007
4232	53.622
4216	53.6866
4200	53.3256
4184	53.7052
4168	53.7534
4152	53.9287
4136	53.533
4120	53.7801
4104	53.9783
4088	53.8695
4072	53.8999
4056	53.8163
4040	54.1776
4024	53.8437
4008	53.7568
3992	53.8101
3976	53.8033
3960	53.5577
3944	53.5968
3928	53.6202
3912	53.658
3896	53.6631
3880	53.7592
3864	53.9137
3848	53.7135
3832	53.8039
3816	53.8532
3800	53.8992
3784	54.0153
3768	53.776
3752	53.9338
3736	53.7175
3720	53.754
3704	53.5671
3688	53.7926
3672	53.7851
3656	53.7667
3640	53.7199
3624	53.842
3608	54.032
3592	53.9453
3576	53.9504
3560	53.8491
3544	53.9649
3528	53.988
3512	53.9331
3496	53.8053
3480	53.6461
3464	53.6892
3448	53.7325
3432	53.688
3416	53.9051
3400	53.7418
3384	53.7494
3368	53.8031
3352	53.9038
3336	53.8489
3320	53.938
3304	53.7642
3288	53.8487
3272	53.784
3256	53.9131
3240	53.6939
3224	53.7641
3208	53.7212
3192	53.4985
3176	53.6385
3160	53.6065
3144	53.7508
3128	53.7455
3112	53.7712
3096	53.8712
3080	53.9221
3064	53.9288
3048	53.8554
3032	53.9434
3016	53.7833
3000	53.7524
2984	53.6216
2968	53.4193
2952	53.6635
2936	53.5491
2920	53.4464
2904	53.7036
2888	53.7606
2872	53.7695
2856	53.7949
2840	53.7792
2824	53.9416
2808	53.8904
2792	53.8139
2776	53.8342
2760	53.7885
2744	53.8299
2728	53.751
2712	53.7354
2696	53.7129
2680	53.789
2664	53.7384
2648	53.7604
2632	53.7344
2616	53.8171
2600	53.912
2584	53.9438
2568	53.9633
2552	53.8237
2536	53.7567
2520	53.8782
2504	53.8348
2488	53.7761
2472	53.7899
2456	53.7544
2440	53.7529
2424	53.8308
2408	53.7746
2392	53.7142
2376	53.8504
2360	53.8691
2344	53.8586
2328	53.8296
2312	53.8455
2296	53.7916
2280	53.8143
2264	53.715
2248	53.849
2232	53.7632
2216	53.7163
2200	53.64
2184	53.6454
2168	53.7954
2152	53.8176
2136	53.718
2120	53.6978
2104	53.789
2088	53.8945
2072	53.776
2056	53.7698
2040	53.7566
2024	53.6723
2008	53.7508
1992	53.6987
1976	53.6619
1960	53.5059
1944	53.5379
1928	53.6487
1912	53.5611
1896	53.5224
1880	53.5731
1864	53.6193
1848	53.63
1832	53.7213
1816	53.6727
1800	53.7529
1784	53.7046
1768	53.5893
1752	53.5405
1736	53.2736
1720	53.3978
1704	53.3438
1688	53.4055
1672	53.3432
1656	53.4987
1640	53.3892
1624	53.511
1608	53.5389
1592	53.584
1576	53.5055
1560	53.5796
1544	53.549
1528	53.6386
1512	53.3813
1496	53.3764
1480	53.4577
1464	53.3712
1448	53.3948
1432	53.4424
1416	53.4111
1400	53.3827
1384	53.3755
1368	53.5171
1352	53.5631
1336	53.5217
1320	53.5902
1304	53.6291
1288	53.4754
1272	53.5031
1256	53.3178
1240	53.3215
1224	53.3092
1208	53.15
1192	53.5735
1176	53.3244
1160	53.4681
1144	53.4721
1128	53.563
1112	53.5333
1096	53.2842
1080	53.3254
1064	53.2483
1048	53.3278
1032	53.6426
1016	53.6596
1000	53.7017
984	 53.6092
968	 53.6441
952	 53.5146
936	 53.736
920	 53.5767
904	 53.5905
888	 53.617
872	 53.69
856	 53.5621
840	 53.5201
824	 53.6574
808	 53.7486
792	 53.5617
776	 53.4422
760	 53.5162
744	 53.6338
728	 53.3821
712	 53.6086
696	 53.4511
680	 53.9652
664	 53.6012
648	 53.7498
632	 53.3093
616	 53.4934
600	 53.8186
584	 54.4407
568	 54.3744
552	 54.0025
536	 54.4449
520	 54.6927
504	 54.2372
488	 53.61
472	 54.0308
456	 54.5021
440	 54.1229
424	 53.5988
408	 64.0488
392	 54.8378
376	 60.4012
370	 42.4068