File: Bakgrunnsmateriale/MATLAB/FTIR/ftir_data/subCa/Mapping_25/BZ12041010-4_e27.asc
PE IR       SPECTRUM    SPECTRUM    ASCII       PEDS        1.60
  -1
BZ2EB8~1.ASC
17/04/10
09:44:36.00
17/04/10
09:45:02.00
tln
$BZ12041010-4_e0027$<ebV0>[-23.0,28.0,5.5,0.0,22,1,0]
27.028
64

2002,4.07
MIRTGS : RIGHTBACK : INTERNAL 2
MIR : ON : INTERNAL 2
OPTKBR

0.200000
8
8.000000
FILLER
SINGLE
SPECTRUM
UNLOCKED 256

DOUBLE

COMBINED
1
0
0

0.002000
BACKG

1
0
TRUE
51149
0
LEFT NOT FITTED RIGHT NOT FITTED 0
NONE
NONE
15600
12
4.427000
51148
TRUE
1 0 8 72 0 0 0 0

15798

#HDR
-1
-1
#GR
µM
EGY
2.38419e-05
0.0
2.000000
0.002000
12515
8
2.461099
0.010108
#DATA
2.000000	 0.777316
2.084000	 0.878508
2.168000	 0.945334
2.252000	 1.051592
2.336000	 1.149619
2.420000	 1.241370
2.504000	 1.406823
2.588000	 1.458018
2.672000	 1.558506
2.756000	 1.580937
2.840000	 1.636204
2.924000	 1.597893
3.008000	 1.696677
3.092000	 1.792492
3.176000	 1.822424
3.260000	 1.942322
3.344000	 2.038538
3.428000	 1.845990
3.512000	 2.021994
3.596000	 2.224274
3.680000	 2.261116
3.764000	 2.229241
3.848000	 2.234937
3.932000	 2.304112
4.016000	 2.331933
4.100000	 2.292185
4.184000	 2.254759
4.268000	 2.270452
4.352000	 2.348311
4.436000	 2.389020
4.520000	 2.376453
4.604000	 2.344364
4.688000	 2.341461
4.772000	 2.345601
4.856000	 2.388940
4.940000	 2.448568
5.024000	 2.458630
5.108000	 2.432219
5.192000	 2.404766
5.276000	 2.375653
5.359999	 2.383923
5.444000	 2.408376
5.528000	 2.434270
5.612000	 2.433287
5.696000	 2.400467
5.780000	 2.324907
5.864000	 2.282010
5.948000	 2.240581
6.032000	 2.191387
6.116000	 2.139252
6.200000	 2.007180
6.284000	 2.016842
6.368000	 1.980795
6.452000	 1.957181
6.536000	 2.098349
6.620000	 2.080829
6.704000	 1.688150
6.788000	 1.973967
6.872000	 1.789858
6.956000	 1.862090
7.040000	 1.857315
7.124000	 1.726868
7.208000	 1.786748
7.292000	 1.813618
7.376000	 1.817384
7.460000	 1.816187
7.544000	 1.848839
7.628000	 1.856559
7.712000	 1.855859
7.796000	 1.850534
7.880000	 1.773913
7.964000	 1.761459
8.048000	 1.834369
8.132000	 1.824489
8.216000	 1.785712
8.300000	 1.743943
8.384000	 1.742450
8.468000	 1.712510
8.552000	 1.671750
8.635999	 1.620476
8.719999	 1.601454
8.804000	 1.573423
8.888000	 1.523750
8.972000	 1.470315
9.056000	 1.431458
9.140000	 1.422957
9.224000	 1.428058
9.308000	 1.431223
9.391999	 1.434691
9.475999	 1.356885
9.560000	 1.324569
9.644000	 1.383734
9.728000	 1.369671
9.812000	 1.360349
9.896000	 1.378518
9.980000	 1.397151
10.064	1.397777
10.148	1.385598
10.232	1.368832
10.316	1.347355
10.4	1.320463
10.484	1.292314
10.568	1.270050
10.652	1.257758
10.736	1.243721
10.82	1.225295
10.904	1.205141
10.988	1.178104
11.072	1.159948
11.156	1.149716
11.24	1.129863
11.324	1.079032
11.408	1.031265
11.492	1.046963
11.576	1.083811
11.66	1.094635
11.744	1.088319
11.828	1.077360
11.912	1.057205
11.996	0.991594
12.08	0.879896
12.164	0.850495
12.248	0.913694
12.332	0.945404
12.416	0.945390
12.5	0.944709
12.584	0.954423
12.668	0.967959
12.752	0.977170
12.836	0.978707
12.92	0.974887
13.004	0.969761
13.088	0.965446
13.172	0.962403
13.256	0.957885
13.34	0.950449
13.424	0.942283
13.508	0.933905
13.592	0.923689
13.676	0.911065
13.76	0.897879
13.844	0.884378
13.928	0.871383
14.012	0.860263
14.096	0.848387
14.18	0.834441
14.264	0.818135
14.348	0.796961
14.432	0.767700
14.516	0.739816
14.6	0.729853
14.684	0.732602
14.768	0.732593
14.852	0.727199
14.936	0.719639
15.02	0.711253
15.104	0.702080
15.188	0.692265
15.272	0.682917
15.356	0.674391
15.44	0.665635
15.524	0.656219
15.608	0.646738
15.692	0.637293
15.776	0.628043
15.86	0.619439
15.944	0.611177
16.028	0.602464
16.112	0.592785
16.196	0.581577
16.28	0.568238
16.364	0.552566
16.448	0.536933
16.532	0.526120
16.616	0.522754
16.7	0.523560
16.784	0.523340
16.868	0.520117
16.952	0.515598
17.036	0.511852
17.12	0.509387
17.204	0.507489
17.288	0.505392
17.372	0.502895
17.456	0.500213
17.54	0.497385
17.624	0.494057
17.708	0.489787
17.792	0.484755
17.876	0.479625
17.96	0.474763
18.044	0.470053
18.128	0.465219
18.212	0.460340
18.296	0.455731
18.38	0.451555
18.464	0.447779
18.548	0.443910
18.632	0.439392
18.716	0.434075
18.8	0.428230
18.884	0.422597
18.968	0.417273
19.052	0.412193
19.136	0.406883
19.22	0.401222
19.304	0.395275
19.388	0.389378
19.472	0.383814
19.556	0.378405
19.64	0.372822
19.724	0.367012
19.808	0.361227
19.892	0.355670
19.976	0.350146
20.06	0.344093
20.144	0.337379
20.228	0.329919
20.312	0.322049
20.396	0.314303
20.48	0.306935
20.564	0.299979
20.648	0.293287
20.732	0.286703
20.816	0.280099
20.9	0.273523
20.984	0.267124
21.068	0.261038
21.152	0.255422
21.236	0.250254
21.32	0.245214
21.404	0.239930
21.488	0.234198
21.572	0.227805
21.656	0.220898
21.74	0.213641
21.824	0.206132
21.908	0.198607
21.992	0.191147
22.076	0.183932
22.16	0.177209
22.244	0.171371
22.328	0.166637
22.412	0.163010
22.496	0.160024
22.58	0.156981
22.664	0.153412
22.748	0.149050
22.832	0.144114
22.916	0.138967
23	0.133910
23.084	0.129128
23.168	0.124426
23.252	0.119693
23.336	0.114676
23.42	0.109358
23.504	0.103757
23.588	0.098092
23.672	0.092515
23.756	0.087144
23.84	0.082057
23.924	0.077240
24.008	0.072761
24.092	0.068565
24.176	0.064708
24.26	0.061169
24.344	0.058043
24.428	0.055329
24.512	0.052966
24.596	0.050918
24.68	0.049036
24.764	0.047108
24.848	0.045100
24.932	0.042880
25.016	0.040483
25.1	0.037914
25.184	0.035250
25.268	0.032649
25.352	0.030246
25.436	0.028169
25.52	0.026533
25.604	0.025309
25.688	0.024436
25.772	0.023755
25.856	0.023147
25.94	0.022456
26.024	0.021537
26.108	0.020431
26.192	0.019198
26.276	0.017958
26.36	0.016826
26.444	0.015911
26.528	0.015189
26.612	0.014633
26.696	0.014121
26.78	0.013454
26.864	0.012588
26.948	0.011420
27.028	0.010108