File: Bakgrunnsmateriale/MATLAB/FTIR/ftir_data/subCa/Mapping_25/BZ12041010-4_t25.asc
PE IR       SPECTRUM    SPECTRUM    ASCII       PEDS        1.60
  -1
BZ3EB2~1.ASC
17/04/10
11:03:01.00
17/04/10
11:03:27.00
tln
$BZ12041010-4_t0025$<tbV0>[-5.2,-2.0,9.0,0.0,22,1,0]
27.028
64

2002,4.07
MIRTGS : RIGHTBACK : INTERNAL 2
MIR : ON : INTERNAL 2
OPTKBR

0.200000
8
8.000000
FILLER
RATIO
SPECTRUM
UNLOCKED 256

DOUBLE
64
COMBINED
1
0
0

0.002000
RATIO

1
0
TRUE
51149
0
LEFT NOT FITTED RIGHT NOT FITTED 0
NONE
NONE
15600
12
4.427000
51148
TRUE
1 0 8 72 0 0 0 0

15798

#HDR
-1
-1
#GR
µM
%T
2.38419e-05
0.0
2.000000
0.002000
12515
8
83.4708
28.6169
#DATA
2.000000	 60.4513
2.084000	 60.6366
2.168000	 60.2534
2.252000	 62.0566
2.336000	 60.3041
2.420000	 60.2334
2.504000	 60.3845
2.588000	 60.4602
2.672000	 60.6956
2.756000	 60.5225
2.840000	 60.4749
2.924000	 60.5121
3.008000	 60.6873
3.092000	 60.5941
3.176000	 60.6737
3.260000	 60.5288
3.344000	 60.5014
3.428000	 60.468
3.512000	 60.5106
3.596000	 60.6487
3.680000	 60.5173
3.764000	 60.4739
3.848000	 60.6467
3.932000	 60.7668
4.016000	 60.5621
4.100000	 60.6093
4.184000	 60.702
4.268000	 60.7134
4.352000	 60.8658
4.436000	 60.692
4.520000	 60.6632
4.604000	 60.6329
4.688000	 60.7702
4.772000	 60.688
4.856000	 60.6633
4.940000	 60.669
5.024000	 60.5693
5.108000	 60.6318
5.192000	 60.6471
5.276000	 60.6682
5.359999	 60.6475
5.444000	 60.5915
5.528000	 60.6707
5.612000	 60.6288
5.696000	 60.4502
5.780000	 60.429
5.864000	 60.4104
5.948000	 60.5407
6.032000	 60.6324
6.116000	 60.6272
6.200000	 60.6368
6.284000	 60.6897
6.368000	 60.7247
6.452000	 60.5821
6.536000	 60.6029
6.620000	 60.5827
6.704000	 60.7778
6.788000	 60.633
6.872000	 60.6081
6.956000	 60.6213
7.040000	 60.6039
7.124000	 60.5771
7.208000	 60.526
7.292000	 60.5912
7.376000	 60.8666
7.460000	 60.6074
7.544000	 60.5089
7.628000	 60.5703
7.712000	 60.5318
7.796000	 60.4934
7.880000	 60.6637
7.964000	 60.3229
8.048000	 60.3661
8.132000	 60.4237
8.216000	 60.4437
8.300000	 60.4158
8.384000	 60.5877
8.468000	 60.4866
8.552000	 60.4177
8.635999	 60.4357
8.719999	 60.5375
8.804000	 60.5126
8.888000	 60.7022
8.972000	 60.6348
9.056000	 60.7136
9.140000	 60.7271
9.224000	 60.5727
9.308000	 60.5369
9.391999	 60.5036
9.475999	 60.6129
9.560000	 60.3723
9.644000	 60.5205
9.728000	 60.6423
9.812000	 60.5808
9.896000	 60.6553
9.980000	 60.8537
10.064	60.8721
10.148	60.6522
10.232	60.7895
10.316	60.6941
10.4	60.8129
10.484	60.8215
10.568	60.7873
10.652	60.7466
10.736	60.6518
10.82	60.8284
10.904	60.8209
10.988	60.677
11.072	60.5442
11.156	60.5874
11.24	60.6271
11.324	60.5236
11.408	60.7628
11.492	60.8187
11.576	60.7856
11.66	60.6107
11.744	60.5288
11.828	60.5742
11.912	60.573
11.996	60.5579
12.08	60.6006
12.164	60.9252
12.248	61.0046
12.332	60.9454
12.416	60.9022
12.5	60.6488
12.584	60.6045
12.668	60.7393
12.752	60.7645
12.836	60.8156
12.92	60.8677
13.004	60.6419
13.088	60.6203
13.172	60.8207
13.256	60.7099
13.34	60.5834
13.424	60.6815
13.508	60.8581
13.592	60.8653
13.676	60.7865
13.76	60.8569
13.844	60.8998
13.928	60.8639
14.012	60.8734
14.096	60.813
14.18	60.5863
14.264	60.5408
14.348	60.7698
14.432	60.8433
14.516	60.8287
14.6	60.9308
14.684	60.9001
14.768	60.6314
14.852	60.5011
14.936	60.6351
15.02	60.7514
15.104	60.8006
15.188	60.887
15.272	60.9866
15.356	61.061
15.44	61.132
15.524	61.1409
15.608	60.9582
15.692	60.6874
15.776	60.5625
15.86	60.6051
15.944	60.6834
16.028	60.7614
16.112	60.8389
16.196	60.822
16.28	60.7273
16.364	60.7622
16.448	60.9612
16.532	61.116
16.616	61.1062
16.7	60.9832
16.784	60.841
16.868	60.7624
16.952	60.7348
17.036	60.7128
17.12	60.7833
17.204	61.0294
17.288	61.3159
17.372	61.4455
17.456	61.4017
17.54	61.2901
17.624	61.1826
17.708	61.0796
17.792	60.9367
17.876	60.7249
17.96	60.5143
18.044	60.4382
18.128	60.5473
18.212	60.7445
18.296	60.8819
18.38	60.8848
18.464	60.796
18.548	60.7354
18.632	60.7949
18.716	60.9584
18.8	61.1244
18.884	61.2013
18.968	61.1941
19.052	61.2052
19.136	61.2937
19.22	61.3959
19.304	61.4044
19.388	61.2781
19.472	61.0413
19.556	60.7468
19.64	60.4641
19.724	60.2441
19.808	60.0677
19.892	59.842
19.976	59.5221
20.06	59.2362
20.144	59.1981
20.228	59.4884
20.312	59.9627
20.396	60.3746
20.48	60.5636
20.564	60.5523
20.648	60.495
20.732	60.5561
20.816	60.7999
20.9	61.1241
20.984	61.3145
21.068	61.2046
21.152	60.8314
21.236	60.4276
21.32	60.2261
21.404	60.262
21.488	60.3666
21.572	60.3911
21.656	60.39
21.74	60.5623
21.824	61.0007
21.908	61.4712
21.992	61.5312
22.076	60.8715
22.16	59.5917
22.244	58.1937
22.328	57.2111
22.412	56.9
22.496	57.105
22.58	57.5026
22.664	57.8833
22.748	58.2845
22.832	58.8636
22.916	59.6809
23	60.5477
23.084	61.1582
23.168	61.2278
23.252	60.6945
23.336	59.7651
23.42	58.7501
23.504	57.9386
23.588	57.4525
23.672	57.222
23.756	57.0502
23.84	56.7577
23.924	56.2382
24.008	55.4852
24.092	54.5753
24.176	53.607
24.26	52.7457
24.344	52.1998
24.428	52.1593
24.512	52.8301
24.596	54.3341
24.68	56.7342
24.764	60.0206
24.848	64.069
24.932	68.587
25.016	73.1008
25.1	77.0137
25.184	79.6626
25.268	80.5527
25.352	79.5061
25.436	76.7354
25.52	72.8065
25.604	68.4001
25.688	64.0511
25.772	59.976
25.856	56.1036
25.94	52.2143
26.024	48.1324
26.108	43.9012
26.192	39.7972
26.276	36.2276
26.36	33.5495
26.444	31.9171
26.528	31.2215
26.612	31.1613
26.696	31.3432
26.78	31.4054
26.864	31.0646
26.948	30.1368
27.028	28.6169