File: Bakgrunnsmateriale/MATLAB/FTIR/ftir_data/subCa/Mapping_25/BZ12041010-4_t08.asc
PE IR       SPECTRUM    SPECTRUM    ASCII       PEDS        1.60
  -1
BZ46BE~1.ASC
17/04/10
09:29:00.00
17/04/10
09:29:26.00
tln
$BZ12041010-4_t0008$<tbV0>[0.0,-9.8,9.0,0.0,22,1,0]
27.028
64

2002,4.07
MIRTGS : RIGHTBACK : INTERNAL 2
MIR : ON : INTERNAL 2
OPTKBR

0.200000
8
8.000000
FILLER
RATIO
SPECTRUM
UNLOCKED 256

DOUBLE
64
COMBINED
1
0
0

0.002000
RATIO

1
0
TRUE
51149
0
LEFT NOT FITTED RIGHT NOT FITTED 0
NONE
NONE
15600
12
4.427000
51148
TRUE
1 0 8 72 0 0 0 0

15798

#HDR
-1
-1
#GR
µM
%T
2.38419e-05
0.0
2.000000
0.002000
12515
8
80.0818
-7.580685
#DATA
2.000000	 64.3792
2.084000	 65.242
2.168000	 64.7177
2.252000	 64.9134
2.336000	 64.7225
2.420000	 65.3635
2.504000	 65.1519
2.588000	 65.1922
2.672000	 65.514
2.756000	 65.4659
2.840000	 64.9426
2.924000	 65.1255
3.008000	 65.2249
3.092000	 65.2329
3.176000	 65.2286
3.260000	 65.0168
3.344000	 65.1247
3.428000	 65.1337
3.512000	 65.216
3.596000	 65.1781
3.680000	 65.2745
3.764000	 65.2215
3.848000	 65.2675
3.932000	 65.222
4.016000	 65.2504
4.100000	 65.2164
4.184000	 65.2376
4.268000	 65.2612
4.352000	 65.1938
4.436000	 65.2988
4.520000	 65.2779
4.604000	 65.2211
4.688000	 65.2615
4.772000	 65.2963
4.856000	 65.2831
4.940000	 65.2805
5.024000	 65.1901
5.108000	 65.2765
5.192000	 65.2668
5.276000	 65.2572
5.359999	 65.2204
5.444000	 65.1973
5.528000	 65.2611
5.612000	 65.2707
5.696000	 65.1587
5.780000	 65.1841
5.864000	 65.2706
5.948000	 65.5101
6.032000	 65.2515
6.116000	 65.296
6.200000	 65.348
6.284000	 65.073
6.368000	 65.2767
6.452000	 65.4255
6.536000	 65.2666
6.620000	 65.5162
6.704000	 65.3058
6.788000	 65.3559
6.872000	 65.2143
6.956000	 65.2017
7.040000	 65.2492
7.124000	 65.1365
7.208000	 65.0819
7.292000	 65.241
7.376000	 65.1567
7.460000	 65.1295
7.544000	 65.0973
7.628000	 65.1174
7.712000	 65.1987
7.796000	 65.0435
7.880000	 65.0399
7.964000	 65.0041
8.048000	 65.0791
8.132000	 65.0947
8.216000	 65.0833
8.300000	 65.1997
8.384000	 64.9773
8.468000	 65.0052
8.552000	 65.0835
8.635999	 65.0851
8.719999	 64.9595
8.804000	 64.8639
8.888000	 65.1519
8.972000	 65.1789
9.056000	 65.0314
9.140000	 64.9915
9.224000	 65.124
9.308000	 65.0099
9.391999	 65.1486
9.475999	 65.1748
9.560000	 65.0663
9.644000	 65.0005
9.728000	 65.1141
9.812000	 65.1137
9.896000	 65.1213
9.980000	 65.2318
10.064	65.1388
10.148	65.0936
10.232	64.9593
10.316	65.1996
10.4	65.214
10.484	65.075
10.568	65.0143
10.652	65.1018
10.736	65.3485
10.82	65.1
10.904	65.0489
10.988	65.1165
11.072	65.1318
11.156	65.2605
11.24	65.3142
11.324	65.1924
11.408	65.2435
11.492	65.4575
11.576	65.3068
11.66	65.2254
11.744	65.3897
11.828	65.4575
11.912	65.355
11.996	65.2872
12.08	65.3997
12.164	65.4001
12.248	65.4603
12.332	65.4252
12.416	65.1639
12.5	65.1274
12.584	65.1436
12.668	65.2681
12.752	65.3364
12.836	65.4221
12.92	65.4542
13.004	65.3604
13.088	65.2543
13.172	65.2891
13.256	65.3491
13.34	65.3067
13.424	65.2363
13.508	65.1647
13.592	65.1561
13.676	65.169
13.76	65.1141
13.844	65.1732
13.928	65.3858
14.012	65.4514
14.096	65.4718
14.18	65.5128
14.264	65.3408
14.348	65.1965
14.432	65.2301
14.516	65.2011
14.6	65.1583
14.684	65.2743
14.768	65.3978
14.852	65.4712
14.936	65.5433
15.02	65.5288
15.104	65.4828
15.188	65.501
15.272	65.5466
15.356	65.5582
15.44	65.4982
15.524	65.4022
15.608	65.2906
15.692	65.1351
15.776	64.9823
15.86	64.9002
15.944	64.9361
16.028	65.1829
16.112	65.5936
16.196	65.8808
16.28	65.8593
16.364	65.6478
16.448	65.425
16.532	65.2608
16.616	65.196
16.7	65.2714
16.784	65.44
16.868	65.5685
16.952	65.5868
17.036	65.5421
17.12	65.477
17.204	65.3845
17.288	65.328
17.372	65.4256
17.456	65.6684
17.54	65.8928
17.624	65.9639
17.708	65.914
17.792	65.8744
17.876	65.9298
17.96	66.0339
18.044	66.0772
18.128	66.014
18.212	65.9176
18.296	65.9017
18.38	66.0096
18.464	66.1789
18.548	66.2827
18.632	66.2135
18.716	65.984
18.8	65.7539
18.884	65.7019
18.968	65.8546
19.052	66.0471
19.136	66.1038
19.22	66.0076
19.304	65.871
19.388	65.8011
19.472	65.8317
19.556	65.92
19.64	65.9927
19.724	66.0391
19.808	66.1206
19.892	66.2728
19.976	66.4279
20.06	66.4802
20.144	66.4079
20.228	66.2954
20.312	66.2335
20.396	66.2246
20.48	66.2061
20.564	66.1424
20.648	66.0562
20.732	65.9799
20.816	65.8976
20.9	65.7568
20.984	65.5319
21.068	65.2612
21.152	65.0148
21.236	64.8469
21.32	64.7824
21.404	64.8263
21.488	64.9572
21.572	65.1257
21.656	65.2793
21.74	65.3951
21.824	65.483
21.908	65.5547
21.992	65.6052
22.076	65.6264
22.16	65.6257
22.244	65.641
22.328	65.7182
22.412	65.8783
22.496	66.0975
22.58	66.3273
22.664	66.5288
22.748	66.6963
22.832	66.8464
22.916	66.9956
23	67.1408
23.084	67.2497
23.168	67.2585
23.252	67.0997
23.336	66.7282
23.42	66.1725
23.504	65.5244
23.588	64.9232
23.672	64.503
23.756	64.3356
23.84	64.3807
23.924	64.5477
24.008	64.7447
24.092	64.9004
24.176	64.9834
24.26	65.0211
24.344	65.0343
24.428	64.9966
24.512	64.8707
24.596	64.6252
24.68	64.2675
24.764	63.8558
24.848	63.3905
24.932	62.8372
25.016	62.1437
25.1	61.1549
25.184	59.9607
25.268	58.9555
25.352	58.6406
25.436	59.6785
25.52	62.4736
25.604	66.8376
25.688	72.0114
25.772	76.7373
25.856	79.6417
25.94	79.7053
26.024	76.6485
26.108	71.1476
26.192	64.3951
26.276	57.714
26.36	52.4356
26.444	49.0292
26.528	46.8725
26.612	44.7476
26.696	41.0152
26.78	34.2213
26.864	23.5317
26.948	8.958990
27.028	-7.580685