File: Bakgrunnsmateriale/MATLAB/FTIR/ftir_data/subCa/Mapping_25/BZ12041010-4_t14_cm-1.asc
PE IR       SPECTRUM    SPECTRUM    ASCII       PEDS        1.60
  -1
BZ2CFE~1.ASC
17/04/10
10:04:24.00
17/04/10
10:04:24.00
tln
$BZ12041010-4_t0014$<tbV0>[-2.6,-7.2,9.0,0.0,22,1,0]
370
64

2002,4.07
MIRTGS : RIGHTBACK : INTERNAL 2
MIR : ON : INTERNAL 2
OPTKBR

0.200000
8
8.000000
FILLER
RATIO
SPECTRUM
UNLOCKED 256

DOUBLE
64
COMBINED
1
0
0

1.000000
RATIO

1
0
TRUE
51149
0
LEFT NOT FITTED RIGHT NOT FITTED 0
NONE
NONE
15600
12
4.427000
51148
TRUE
1 0 8 72 0 0 0 0

15798

#HDR
-1
-1
#GR
CM-1
%T
2.38419e-05
0.0
5000
-1.000000
4631
8
96.8077
48.8013
#DATA
5000	64.6823
4984	64.8966
4968	65.0565
4952	64.6492
4936	64.8058
4920	65.0051
4904	64.7258
4888	65.5127
4872	65.671
4856	63.989
4840	65.4839
4824	65.4527
4808	64.7706
4792	64.6128
4776	65.5524
4760	64.802
4744	65.0434
4728	65.8489
4712	65.3629
4696	65.404
4680	65.1097
4664	64.8087
4648	64.8981
4632	64.8321
4616	64.6657
4600	64.3727
4584	64.4119
4568	64.2842
4552	63.9909
4536	64.0364
4520	64.6016
4504	64.2471
4488	63.8309
4472	66.3438
4456	79.4498
4440	64.2542
4424	63.7281
4408	64.2943
4392	64.169
4376	64.4398
4360	64.7925
4344	64.3438
4328	64.8403
4312	64.5807
4296	64.9702
4280	64.9362
4264	64.9934
4248	64.892
4232	65.5299
4216	65.1124
4200	65.3625
4184	65.4502
4168	65.6147
4152	65.2487
4136	65.265
4120	65.2834
4104	65.4014
4088	65.5993
4072	65.4075
4056	65.2276
4040	65.0678
4024	65.2647
4008	65.2971
3992	65.0377
3976	64.9742
3960	65.0353
3944	65.1736
3928	65.2609
3912	65.2434
3896	64.8378
3880	65.2586
3864	65.2157
3848	65.2563
3832	65.2649
3816	65.1837
3800	65.2845
3784	65.0118
3768	65.3877
3752	65.1033
3736	65.4122
3720	65.5151
3704	65.4576
3688	65.3306
3672	65.345
3656	65.2487
3640	65.4533
3624	65.3247
3608	65.3475
3592	65.3865
3576	65.4417
3560	65.3393
3544	65.2435
3528	65.3326
3512	65.1838
3496	65.2592
3480	65.1505
3464	65.1951
3448	65.31
3432	65.2109
3416	65.2545
3400	65.3199
3384	65.2271
3368	65.4917
3352	65.4781
3336	65.3758
3320	65.298
3304	65.3908
3288	65.3347
3272	65.2611
3256	65.56
3240	65.4302
3224	65.3565
3208	65.2954
3192	65.2351
3176	65.3994
3160	65.2529
3144	65.2687
3128	65.4002
3112	65.3304
3096	65.3937
3080	65.3705
3064	65.3265
3048	65.3736
3032	65.3404
3016	65.1787
3000	65.2084
2984	65.2425
2968	65.418
2952	65.2573
2936	65.2731
2920	65.0637
2904	65.3301
2888	65.2918
2872	65.2755
2856	65.3724
2840	65.2442
2824	65.3568
2808	65.3693
2792	65.3756
2776	65.2605
2760	65.3393
2744	65.3603
2728	65.3394
2712	65.3973
2696	65.2189
2680	65.3645
2664	65.2702
2648	65.3496
2632	65.3159
2616	65.4145
2600	65.2864
2584	65.2125
2568	65.2397
2552	65.2866
2536	65.3181
2520	65.326
2504	65.3223
2488	65.3393
2472	65.2484
2456	65.4158
2440	65.571
2424	65.4099
2408	65.4761
2392	65.4114
2376	65.274
2360	65.3789
2344	65.3092
2328	65.3273
2312	65.3395
2296	65.2946
2280	65.2787
2264	65.3607
2248	65.2421
2232	65.364
2216	65.245
2200	65.2811
2184	65.2893
2168	65.3635
2152	65.2485
2136	65.2347
2120	65.3933
2104	65.4124
2088	65.3254
2072	65.3323
2056	65.3101
2040	65.3113
2024	65.2807
2008	65.3067
1992	65.3062
1976	65.3211
1960	65.3806
1944	65.3398
1928	65.4383
1912	65.2652
1896	65.3583
1880	65.2807
1864	65.3666
1848	65.288
1832	65.2166
1816	65.3401
1800	65.3028
1784	65.1932
1768	65.2795
1752	65.22
1736	65.154
1720	65.1626
1704	65.2386
1688	65.3056
1672	65.2505
1656	65.2079
1640	65.0222
1624	65.2253
1608	65.2875
1592	65.3008
1576	65.1379
1560	65.1492
1544	65.1844
1528	65.148
1512	65.1601
1496	65.3722
1480	65.162
1464	65.3
1448	65.0968
1432	65.127
1416	65.1073
1400	65.226
1384	65.2274
1368	65.212
1352	65.1475
1336	65.1623
1320	65.1121
1304	65.0812
1288	65.1939
1272	65.154
1256	65.1071
1240	65.1632
1224	65.238
1208	65.1524
1192	65.0968
1176	65.1137
1160	65.162
1144	65.0067
1128	65.2124
1112	65.1702
1096	65.1033
1080	65.2106
1064	65.2445
1048	65.2527
1032	65.1892
1016	65.1386
1000	65.2424
984	 65.2555
968	 65.175
952	 65.2093
936	 65.0322
920	 65.2365
904	 65.3555
888	 65.3866
872	 65.3434
856	 65.062
840	 65.3315
824	 65.4142
808	 65.4983
792	 65.1325
776	 65.4738
760	 65.5646
744	 65.471
728	 65.2616
712	 65.3527
696	 65.3955
680	 65.5646
664	 65.3104
648	 65.5475
632	 65.676
616	 65.6033
600	 65.7744
584	 65.1414
568	 65.1305
552	 65.7959
536	 65.7411
520	 65.7621
504	 65.5235
488	 65.7479
472	 66.3795
456	 65.7977
440	 63.3426
424	 66.7188
408	 76.7094
392	 51.5845
376	 56.6786
370	 75.6622