File: Bakgrunnsmateriale/MATLAB/FTIR/ftir_data/subCa/Mapping_25/BZ12041010-4_t06.asc
PE IR       SPECTRUM    SPECTRUM    ASCII       PEDS        1.60
  -1
BZ36B6~1.ASC
17/04/10
09:19:46.00
17/04/10
09:20:12.00
tln
$BZ12041010-4_t0006$<tbV0>[5.2,-9.8,9.0,0.0,22,1,0]
27.028
64

2002,4.07
MIRTGS : RIGHTBACK : INTERNAL 2
MIR : ON : INTERNAL 2
OPTKBR

0.200000
8
8.000000
FILLER
RATIO
SPECTRUM
UNLOCKED 256

DOUBLE
64
COMBINED
1
0
0

0.002000
RATIO

1
0
TRUE
51149
0
LEFT NOT FITTED RIGHT NOT FITTED 0
NONE
NONE
15600
12
4.427000
51148
TRUE
1 0 8 72 0 0 0 0

15798

#HDR
-1
-1
#GR
µM
%T
2.38419e-05
0.0
2.000000
0.002000
12515
8
105.804
41.2644
#DATA
2.000000	 65.3397
2.084000	 65.3349
2.168000	 65.1574
2.252000	 65.3607
2.336000	 64.7588
2.420000	 65.0936
2.504000	 64.8783
2.588000	 65.1704
2.672000	 65.6714
2.756000	 65.2714
2.840000	 65.1641
2.924000	 65.2578
3.008000	 65.1473
3.092000	 65.2155
3.176000	 65.1505
3.260000	 65.0353
3.344000	 65.1412
3.428000	 65.0854
3.512000	 65.2544
3.596000	 65.1966
3.680000	 65.2176
3.764000	 65.2649
3.848000	 65.1748
3.932000	 65.2726
4.016000	 65.2452
4.100000	 65.2165
4.184000	 65.2404
4.268000	 65.2894
4.352000	 65.2912
4.436000	 65.3576
4.520000	 65.3322
4.604000	 65.2677
4.688000	 65.0936
4.772000	 65.2925
4.856000	 65.2867
4.940000	 65.3315
5.024000	 65.2665
5.108000	 65.234
5.192000	 65.2738
5.276000	 65.2365
5.359999	 65.2516
5.444000	 65.3082
5.528000	 65.2934
5.612000	 65.2323
5.696000	 65.2975
5.780000	 65.1442
5.864000	 65.3104
5.948000	 65.392
6.032000	 65.4017
6.116000	 65.3779
6.200000	 65.2003
6.284000	 65.0512
6.368000	 65.3773
6.452000	 65.3972
6.536000	 65.3321
6.620000	 65.4135
6.704000	 65.3873
6.788000	 65.2287
6.872000	 65.369
6.956000	 65.1707
7.040000	 65.3805
7.124000	 65.1503
7.208000	 65.159
7.292000	 65.1347
7.376000	 65.0775
7.460000	 65.0631
7.544000	 65.1403
7.628000	 65.0495
7.712000	 65.2075
7.796000	 65.0724
7.880000	 65.0723
7.964000	 65.1549
8.048000	 65.1438
8.132000	 65.1235
8.216000	 65.0749
8.300000	 65.2031
8.384000	 65.0454
8.468000	 65.0212
8.552000	 65.0415
8.635999	 65.0627
8.719999	 65.0519
8.804000	 65.0035
8.888000	 65.275
8.972000	 65.0459
9.056000	 64.808
9.140000	 64.8329
9.224000	 64.9764
9.308000	 64.9298
9.391999	 65.0301
9.475999	 65.1991
9.560000	 65.1877
9.644000	 65.024
9.728000	 65.0407
9.812000	 65.2315
9.896000	 65.0635
9.980000	 65.212
10.064	65.0396
10.148	65.0919
10.232	65.1071
10.316	65.0694
10.4	65.2455
10.484	65.3667
10.568	65.4348
10.652	65.2562
10.736	65.3384
10.82	65.254
10.904	65.0392
10.988	65.1672
11.072	65.2874
11.156	65.2791
11.24	65.2212
11.324	65.1637
11.408	65.2691
11.492	65.4568
11.576	65.556
11.66	65.3838
11.744	65.2675
11.828	65.198
11.912	65.1713
11.996	65.0663
12.08	65.2501
12.164	65.4848
12.248	65.473
12.332	65.5736
12.416	65.476
12.5	65.3789
12.584	65.5525
12.668	65.6063
12.752	65.5733
12.836	65.756
12.92	65.7962
13.004	65.4948
13.088	65.3742
13.172	65.5386
13.256	65.5576
13.34	65.42
13.424	65.3443
13.508	65.3156
13.592	65.4021
13.676	65.4975
13.76	65.4562
13.844	65.3622
13.928	65.3209
14.012	65.3134
14.096	65.3141
14.18	65.3119
14.264	65.1999
14.348	65.1938
14.432	65.3518
14.516	65.364
14.6	65.2895
14.684	65.3189
14.768	65.4484
14.852	65.6742
14.936	65.8342
15.02	65.7759
15.104	65.6664
15.188	65.6502
15.272	65.6332
15.356	65.5308
15.44	65.4135
15.524	65.4467
15.608	65.6458
15.692	65.7302
15.776	65.5298
15.86	65.2567
15.944	65.1498
16.028	65.2072
16.112	65.3459
16.196	65.5455
16.28	65.749
16.364	65.8007
16.448	65.6556
16.532	65.4933
16.616	65.4815
16.7	65.586
16.784	65.7046
16.868	65.8018
16.952	65.8351
17.036	65.8051
17.12	65.8032
17.204	65.8217
17.288	65.7798
17.372	65.7283
17.456	65.7882
17.54	65.9404
17.624	66.0382
17.708	65.997
17.792	65.8604
17.876	65.7191
17.96	65.6103
18.044	65.5298
18.128	65.5103
18.212	65.6173
18.296	65.8425
18.38	66.0619
18.464	66.1285
18.548	65.9955
18.632	65.7253
18.716	65.431
18.8	65.2262
18.884	65.1907
18.968	65.3146
19.052	65.4796
19.136	65.5591
19.22	65.5431
19.304	65.536
19.388	65.6504
19.472	65.9249
19.556	66.2933
19.64	66.6109
19.724	66.7324
19.808	66.5985
19.892	66.267
19.976	65.8986
20.06	65.679
20.144	65.7063
20.228	65.9174
20.312	66.1412
20.396	66.2365
20.48	66.1885
20.564	66.0874
20.648	66.0233
20.732	66.0174
20.816	66.0345
20.9	66.0371
20.984	66.0103
21.068	65.9375
21.152	65.7754
21.236	65.4832
21.32	65.0685
21.404	64.6228
21.488	64.2836
21.572	64.1546
21.656	64.2642
21.74	64.561
21.824	64.9498
21.908	65.3324
21.992	65.6283
22.076	65.7886
22.16	65.805
22.244	65.7176
22.328	65.6231
22.412	65.6469
22.496	65.8861
22.58	66.3413
22.664	66.9043
22.748	67.3751
22.832	67.5643
22.916	67.3816
23	66.8675
23.084	66.1454
23.168	65.3887
23.252	64.7395
23.336	64.2801
23.42	64.0738
23.504	64.1847
23.588	64.6342
23.672	65.3695
23.756	66.2467
23.84	66.9893
23.924	67.3427
24.008	67.1949
24.092	66.6387
24.176	65.9775
24.26	65.6712
24.344	66.117
24.428	67.3445
24.512	68.9442
24.596	70.1416
24.68	70.1188
24.764	68.4487
24.848	65.3167
24.932	61.4771
25.016	57.9849
25.1	55.8323
25.184	55.8699
25.268	58.5415
25.352	63.8268
25.436	71.3794
25.52	80.4382
25.604	89.8458
25.688	98.1248
25.772	103.805
25.856	105.803
25.94	103.61
26.024	97.4739
26.108	88.4449
26.192	77.8916
26.276	67.1688
26.36	57.4191
26.444	49.5053
26.528	44.053
26.612	41.4563
26.696	41.9495
26.78	45.5455
26.864	51.8114
26.948	59.6251
27.028	66.6885