File: Bakgrunnsmateriale/MATLAB/FTIR/ftir_data/subCa/Mapping_25/BZ12041010-4_t12.asc
PE IR       SPECTRUM    SPECTRUM    ASCII       PEDS        1.60
  -1
BZ2AB6~1.ASC
17/04/10
09:55:10.00
17/04/10
09:55:36.00
tln
$BZ12041010-4_t0012$<tbV0>[2.6,-7.2,9.0,0.0,22,1,0]
27.028
64

2002,4.07
MIRTGS : RIGHTBACK : INTERNAL 2
MIR : ON : INTERNAL 2
OPTKBR

0.200000
8
8.000000
FILLER
RATIO
SPECTRUM
UNLOCKED 256

DOUBLE
64
COMBINED
1
0
0

0.002000
RATIO

1
0
TRUE
51149
0
LEFT NOT FITTED RIGHT NOT FITTED 0
NONE
NONE
15600
12
4.427000
51148
TRUE
1 0 8 72 0 0 0 0

15798

#HDR
-1
-1
#GR
µM
%T
2.38419e-05
0.0
2.000000
0.002000
12515
8
153.169
36.9501
#DATA
2.000000	 64.8086
2.084000	 64.7391
2.168000	 64.8673
2.252000	 64.4823
2.336000	 64.9166
2.420000	 65.0812
2.504000	 64.9591
2.588000	 65.3479
2.672000	 65.2312
2.756000	 65.2584
2.840000	 65.2028
2.924000	 65.1277
3.008000	 65.1852
3.092000	 65.2901
3.176000	 65.2557
3.260000	 65.2563
3.344000	 65.2758
3.428000	 65.0577
3.512000	 65.1787
3.596000	 65.3332
3.680000	 65.3785
3.764000	 65.3214
3.848000	 65.3203
3.932000	 65.2696
4.016000	 65.3378
4.100000	 65.4026
4.184000	 65.3468
4.268000	 65.2251
4.352000	 65.3602
4.436000	 65.2129
4.520000	 65.2402
4.604000	 65.3627
4.688000	 65.2251
4.772000	 65.2778
4.856000	 65.301
4.940000	 65.2989
5.024000	 65.2502
5.108000	 65.2966
5.192000	 65.323
5.276000	 65.3329
5.359999	 65.2344
5.444000	 65.271
5.528000	 65.2734
5.612000	 65.1813
5.696000	 65.1639
5.780000	 65.1523
5.864000	 65.2687
5.948000	 65.2481
6.032000	 65.2002
6.116000	 65.2258
6.200000	 65.3475
6.284000	 65.2056
6.368000	 65.1824
6.452000	 65.1119
6.536000	 65.2672
6.620000	 65.1746
6.704000	 65.2669
6.788000	 65.3389
6.872000	 65.2571
6.956000	 65.1304
7.040000	 65.2318
7.124000	 65.1509
7.208000	 65.2044
7.292000	 65.3276
7.376000	 65.1786
7.460000	 65.1961
7.544000	 65.2469
7.628000	 65.229
7.712000	 65.1246
7.796000	 65.2121
7.880000	 65.2278
7.964000	 65.1049
8.048000	 65.1168
8.132000	 65.2042
8.216000	 65.1256
8.300000	 65.1239
8.384000	 65.1461
8.468000	 65.1061
8.552000	 65.1575
8.635999	 65.2487
8.719999	 65.169
8.804000	 65.0838
8.888000	 65.1055
8.972000	 65.0751
9.056000	 65.0597
9.140000	 65.1639
9.224000	 65.1383
9.308000	 64.919
9.391999	 65.0986
9.475999	 65.0101
9.560000	 65.1212
9.644000	 65.2501
9.728000	 65.0428
9.812000	 64.9798
9.896000	 65.1226
9.980000	 65.1711
10.064	65.1788
10.148	65.2834
10.232	65.3224
10.316	65.3554
10.4	65.2413
10.484	65.2871
10.568	65.5508
10.652	65.3329
10.736	65.1179
10.82	65.1992
10.904	65.1315
10.988	65.1807
11.072	65.2627
11.156	65.3885
11.24	65.4292
11.324	65.5019
11.408	65.342
11.492	65.3356
11.576	65.3798
11.66	65.4153
11.744	65.4338
11.828	65.3305
11.912	65.3175
11.996	65.2703
12.08	65.4647
12.164	65.4747
12.248	65.3537
12.332	65.3834
12.416	65.4297
12.5	65.3417
12.584	65.0925
12.668	65.0854
12.752	65.2601
12.836	65.3992
12.92	65.4456
13.004	65.4052
13.088	65.4233
13.172	65.4047
13.256	65.4802
13.34	65.4867
13.424	65.4558
13.508	65.4284
13.592	65.3671
13.676	65.3194
13.76	65.345
13.844	65.4014
13.928	65.4236
14.012	65.2809
14.096	65.1169
14.18	65.2154
14.264	65.3964
14.348	65.4471
14.432	65.4379
14.516	65.3128
14.6	65.2666
14.684	65.4317
14.768	65.4675
14.852	65.3763
14.936	65.411
15.02	65.5466
15.104	65.6544
15.188	65.6796
15.272	65.6064
15.356	65.4612
15.44	65.3406
15.524	65.2975
15.608	65.2949
15.692	65.3326
15.776	65.3894
15.86	65.4139
15.944	65.4478
16.028	65.5252
16.112	65.5924
16.196	65.627
16.28	65.6489
16.364	65.6631
16.448	65.6829
16.532	65.6963
16.616	65.6104
16.7	65.3954
16.784	65.2141
16.868	65.2305
16.952	65.3732
17.036	65.4335
17.12	65.3119
17.204	65.0848
17.288	64.9006
17.372	64.8638
17.456	64.9794
17.54	65.1874
17.624	65.4401
17.708	65.6928
17.792	65.8644
17.876	65.9003
17.96	65.8694
18.044	65.9009
18.128	66.0384
18.212	66.1907
18.296	66.236
18.38	66.1309
18.464	65.9253
18.548	65.7202
18.632	65.626
18.716	65.682
18.8	65.8062
18.884	65.872
18.968	65.8351
19.052	65.7702
19.136	65.7684
19.22	65.8451
19.304	65.9445
19.388	66.0041
19.472	65.9908
19.556	65.9124
19.64	65.8123
19.724	65.7303
19.808	65.6656
19.892	65.5785
19.976	65.4399
20.06	65.2651
20.144	65.1168
20.228	65.0649
20.312	65.1309
20.396	65.2695
20.48	65.4051
20.564	65.4792
20.648	65.4621
20.732	65.3664
20.816	65.2588
20.9	65.2511
20.984	65.4186
21.068	65.727
21.152	66.0419
21.236	66.2166
21.32	66.1807
21.404	65.9811
21.488	65.7327
21.572	65.5386
21.656	65.4626
21.74	65.5231
21.824	65.7243
21.908	66.0754
21.992	66.5659
22.076	67.1405
22.16	67.6859
22.244	68.0322
22.328	68.065
22.412	67.7958
22.496	67.4181
22.58	67.1935
22.664	67.3091
22.748	67.7349
22.832	68.2003
22.916	68.3188
23	67.8183
23.084	66.6874
23.168	65.2296
23.252	63.9244
23.336	63.2707
23.42	63.5718
23.504	64.8569
23.588	66.8623
23.672	69.1587
23.756	71.2822
23.84	72.9718
23.924	74.1971
24.008	75.128
24.092	76.0196
24.176	76.999
24.26	77.9546
24.344	78.5581
24.428	78.4646
24.512	77.4721
24.596	75.758
24.68	73.7781
24.764	72.0268
24.848	70.9211
24.932	70.6339
25.016	71.0157
25.1	71.825
25.184	72.5476
25.268	72.5755
25.352	71.4711
25.436	68.9956
25.52	65.1849
25.604	60.2654
25.688	55.1136
25.772	50.3902
25.856	45.9807
25.94	41.6147
26.024	37.9504
26.108	37.0849
26.192	40.3902
26.276	47.5847
26.36	54.9584
26.444	60.6699
26.528	65.8818
26.612	76.5262
26.696	96.2518
26.78	121.949
26.864	143.997
26.948	152.924
27.028	150.538