File: Bakgrunnsmateriale/MATLAB/FTIR/ftir_data/subCa/Mapping_25/BZ12041010-4_t19_cm-1.asc
PE IR       SPECTRUM    SPECTRUM    ASCII       PEDS        1.60
  -1
BZ2C70~1.ASC
17/04/10
10:27:47.00
17/04/10
10:27:47.00
tln
$BZ12041010-4_t0019$<tbV0>[-2.6,-4.6,9.0,0.0,22,1,0]
370
64

2002,4.07
MIRTGS : RIGHTBACK : INTERNAL 2
MIR : ON : INTERNAL 2
OPTKBR

0.200000
8
8.000000
FILLER
RATIO
SPECTRUM
UNLOCKED 256

DOUBLE
64
COMBINED
1
0
0

1.000000
RATIO

1
0
TRUE
51149
0
LEFT NOT FITTED RIGHT NOT FITTED 0
NONE
NONE
15600
12
4.427000
51148
TRUE
1 0 8 72 0 0 0 0

15798

#HDR
-1
-1
#GR
CM-1
%T
2.38419e-05
0.0
5000
-1.000000
4631
8
76.4997
9.356856
#DATA
5000	65.1032
4984	64.2103
4968	64.0748
4952	64.3732
4936	63.9516
4920	64.8879
4904	64.0127
4888	64.691
4872	64.576
4856	64.4959
4840	65.944
4824	64.9682
4808	61.9308
4792	63.1425
4776	63.9754
4760	64.5111
4744	64.6272
4728	64.222
4712	64.8554
4696	64.7205
4680	64.3233
4664	64.1433
4648	64.5013
4632	64.312
4616	64.1353
4600	63.683
4584	64.1154
4568	63.627
4552	63.7642
4536	63.6107
4520	64.1472
4504	64.172
4488	65.3958
4472	71.1655
4456	76.4997
4440	63.3881
4424	63.1668
4408	63.3991
4392	63.7354
4376	64.1175
4360	63.745
4344	63.9351
4328	64.2214
4312	64.0689
4296	64.2351
4280	64.2854
4264	63.9782
4248	64.3998
4232	64.5989
4216	64.4676
4200	64.8203
4184	64.4907
4168	64.9338
4152	64.7847
4136	64.9531
4120	64.7339
4104	64.9077
4088	64.6786
4072	64.6978
4056	64.2886
4040	64.6787
4024	64.2501
4008	64.3296
3992	64.2475
3976	63.9818
3960	64.3607
3944	64.5573
3928	64.5271
3912	64.3875
3896	64.4167
3880	64.6429
3864	64.5871
3848	64.4144
3832	64.353
3816	64.4315
3800	64.6396
3784	64.6543
3768	64.5861
3752	64.5628
3736	64.5212
3720	64.7711
3704	64.7264
3688	64.7437
3672	64.8493
3656	64.5452
3640	64.6092
3624	64.6126
3608	64.6797
3592	64.7277
3576	64.6638
3560	64.5886
3544	64.4278
3528	64.2465
3512	64.0195
3496	64.3574
3480	64.015
3464	64.0914
3448	64.1008
3432	64.1802
3416	64.1519
3400	64.3176
3384	64.0903
3368	64.2254
3352	64.347
3336	64.2514
3320	64.3009
3304	64.2926
3288	64.4111
3272	64.2655
3256	64.327
3240	64.238
3224	64.3124
3208	64.2597
3192	64.4603
3176	64.5581
3160	64.3826
3144	64.5209
3128	64.5145
3112	64.4668
3096	64.5534
3080	64.4756
3064	64.4595
3048	64.6568
3032	64.5197
3016	64.4845
3000	64.5807
2984	64.4816
2968	64.7483
2952	64.4228
2936	64.2337
2920	64.3056
2904	64.2596
2888	64.3838
2872	64.3211
2856	64.2781
2840	64.4862
2824	64.4819
2808	64.5886
2792	64.6409
2776	64.4826
2760	64.4788
2744	64.5869
2728	64.445
2712	64.4813
2696	64.5161
2680	64.4468
2664	64.5514
2648	64.5154
2632	64.4279
2616	64.5227
2600	64.4588
2584	64.3732
2568	64.525
2552	64.5204
2536	64.5546
2520	64.4147
2504	64.493
2488	64.4361
2472	64.4443
2456	64.542
2440	64.5561
2424	64.4638
2408	64.5089
2392	64.4056
2376	64.2819
2360	64.3937
2344	64.4126
2328	64.4856
2312	64.36
2296	64.3709
2280	64.2461
2264	64.2996
2248	64.2724
2232	64.2919
2216	64.3049
2200	64.4007
2184	64.3886
2168	64.3689
2152	64.2303
2136	64.3972
2120	64.3997
2104	64.3077
2088	64.1503
2072	64.3612
2056	64.3278
2040	64.2328
2024	64.2178
2008	64.234
1992	64.2237
1976	64.2204
1960	64.2482
1944	64.2092
1928	64.209
1912	64.1855
1896	64.1605
1880	64.1878
1864	64.1605
1848	64.1772
1832	64.115
1816	64.1092
1800	64.0547
1784	64.0297
1768	64.0431
1752	64.0837
1736	63.8544
1720	63.7415
1704	63.9093
1688	63.9551
1672	63.9212
1656	64.0283
1640	63.9648
1624	63.9508
1608	64.0381
1592	63.952
1576	64.0676
1560	64.1749
1544	63.9442
1528	64.0197
1512	64.0493
1496	64.2151
1480	63.9171
1464	64.0191
1448	64.1337
1432	63.8561
1416	63.8695
1400	63.8927
1384	63.8026
1368	63.9856
1352	63.7822
1336	63.886
1320	63.7535
1304	63.8553
1288	63.9597
1272	63.7765
1256	63.8978
1240	63.9484
1224	64.0421
1208	64.0895
1192	64.178
1176	64.0466
1160	63.8997
1144	63.8522
1128	63.9616
1112	63.8891
1096	63.7211
1080	63.7651
1064	63.7708
1048	63.4931
1032	63.6428
1016	63.4672
1000	63.5591
984	 63.4077
968	 63.4533
952	 63.5716
936	 63.4285
920	 63.7933
904	 63.7712
888	 63.7603
872	 63.8906
856	 63.9312
840	 63.8203
824	 63.9742
808	 63.9279
792	 63.8516
776	 64.0642
760	 64.1011
744	 64.01
728	 64.2781
712	 64.0601
696	 64.2914
680	 64.0804
664	 63.8621
648	 64.0453
632	 64.1409
616	 63.9416
600	 63.8511
584	 63.7367
568	 63.8057
552	 64.2596
536	 65.0478
520	 64.3337
504	 65.0156
488	 64.5804
472	 64.6881
456	 65.2111
440	 65.153
424	 65.3878
408	 73.7012
392	 67.4107
376	 9.356856
370	 15.0221