File: Bakgrunnsmateriale/MATLAB/FTIR/ftir_data/subCa/Mapping_25/BZ12041010-4_t05.asc
PE IR       SPECTRUM    SPECTRUM    ASCII       PEDS        1.60
  -1
BZ36B2~1.ASC
17/04/10
09:14:49.00
17/04/10
09:15:16.00
tln
$BZ12041010-4_t0005$<tbV0>[-5.2,-12.4,9.0,0.0,22,1,0]
27.028
64

2002,4.07
MIRTGS : RIGHTBACK : INTERNAL 2
MIR : ON : INTERNAL 2
OPTKBR

0.200000
8
8.000000
FILLER
RATIO
SPECTRUM
UNLOCKED 256

DOUBLE
64
COMBINED
1
0
0

0.002000
RATIO

1
0
TRUE
51149
0
LEFT NOT FITTED RIGHT NOT FITTED 0
NONE
NONE
15600
12
4.427000
51148
TRUE
1 0 8 72 0 0 0 0

15798

#HDR
-1
-1
#GR
µM
%T
2.38419e-05
0.0
2.000000
0.002000
12515
8
99.6782
51.5689
#DATA
2.000000	 64.9431
2.084000	 65.1985
2.168000	 65.3157
2.252000	 65.9469
2.336000	 65.0164
2.420000	 64.8408
2.504000	 65.0854
2.588000	 65.0534
2.672000	 65.4361
2.756000	 65.5245
2.840000	 65.2878
2.924000	 65.0675
3.008000	 65.3042
3.092000	 65.4375
3.176000	 65.2126
3.260000	 65.1832
3.344000	 65.1772
3.428000	 65.1341
3.512000	 65.2138
3.596000	 65.2447
3.680000	 65.285
3.764000	 65.2776
3.848000	 65.3426
3.932000	 65.3013
4.016000	 65.3842
4.100000	 65.2474
4.184000	 65.286
4.268000	 65.2535
4.352000	 65.262
4.436000	 65.2942
4.520000	 65.3833
4.604000	 65.3338
4.688000	 65.2858
4.772000	 65.2753
4.856000	 65.3765
4.940000	 65.3781
5.024000	 65.356
5.108000	 65.3167
5.192000	 65.329
5.276000	 65.3362
5.359999	 65.3718
5.444000	 65.2487
5.528000	 65.3195
5.612000	 65.3535
5.696000	 65.4099
5.780000	 65.151
5.864000	 65.3727
5.948000	 65.4624
6.032000	 65.4732
6.116000	 65.4308
6.200000	 65.2704
6.284000	 65.2041
6.368000	 65.4357
6.452000	 65.4633
6.536000	 65.4449
6.620000	 65.5953
6.704000	 65.389
6.788000	 65.3674
6.872000	 65.3752
6.956000	 65.3069
7.040000	 65.4348
7.124000	 65.27
7.208000	 65.3462
7.292000	 65.3122
7.376000	 65.205
7.460000	 65.251
7.544000	 65.2571
7.628000	 65.3174
7.712000	 65.2616
7.796000	 65.2672
7.880000	 65.1246
7.964000	 65.2095
8.048000	 65.2885
8.132000	 65.2383
8.216000	 65.2918
8.300000	 65.3432
8.384000	 65.2738
8.468000	 65.0327
8.552000	 65.0686
8.635999	 65.3093
8.719999	 65.1595
8.804000	 65.1704
8.888000	 65.2236
8.972000	 65.2664
9.056000	 65.1409
9.140000	 65.2249
9.224000	 65.3486
9.308000	 65.1147
9.391999	 65.1686
9.475999	 65.2466
9.560000	 65.2178
9.644000	 65.12
9.728000	 65.2573
9.812000	 65.3223
9.896000	 65.0686
9.980000	 65.273
10.064	65.3508
10.148	65.2605
10.232	65.2938
10.316	65.3844
10.4	65.2169
10.484	65.2865
10.568	65.2919
10.652	65.2448
10.736	65.4501
10.82	65.3492
10.904	65.1964
10.988	65.2689
11.072	65.3569
11.156	65.2697
11.24	65.2964
11.324	65.41
11.408	65.3929
11.492	65.5928
11.576	65.4643
11.66	65.4552
11.744	65.5457
11.828	65.4077
11.912	65.3486
11.996	65.5042
12.08	65.6514
12.164	65.4795
12.248	65.4764
12.332	65.5984
12.416	65.4783
12.5	65.4835
12.584	65.5484
12.668	65.5739
12.752	65.6539
12.836	65.8403
12.92	65.7393
13.004	65.6168
13.088	65.6635
13.172	65.6283
13.256	65.5503
13.34	65.4588
13.424	65.277
13.508	65.2329
13.592	65.3576
13.676	65.4599
13.76	65.4745
13.844	65.4307
13.928	65.5635
14.012	65.7751
14.096	65.7713
14.18	65.747
14.264	65.6657
14.348	65.4885
14.432	65.4726
14.516	65.5747
14.6	65.6193
14.684	65.6005
14.768	65.6029
14.852	65.741
14.936	65.8392
15.02	65.6435
15.104	65.3824
15.188	65.3784
15.272	65.5678
15.356	65.6531
15.44	65.5122
15.524	65.4226
15.608	65.597
15.692	65.7814
15.776	65.715
15.86	65.5366
15.944	65.4989
16.028	65.6238
16.112	65.7833
16.196	65.907
16.28	66.0251
16.364	66.1332
16.448	66.0655
16.532	65.753
16.616	65.4422
16.7	65.3937
16.784	65.5695
16.868	65.7534
16.952	65.7693
17.036	65.6116
17.12	65.4482
17.204	65.4262
17.288	65.5556
17.372	65.7687
17.456	65.9828
17.54	66.123
17.624	66.1616
17.708	66.133
17.792	66.0895
17.876	66.0779
17.96	66.1044
18.044	66.1296
18.128	66.1395
18.212	66.1836
18.296	66.3098
18.38	66.4928
18.464	66.6536
18.548	66.7211
18.632	66.6627
18.716	66.5054
18.8	66.3399
18.884	66.2691
18.968	66.3254
19.052	66.4511
19.136	66.5712
19.22	66.6516
19.304	66.6824
19.388	66.6743
19.472	66.6841
19.556	66.7684
19.64	66.887
19.724	66.9194
19.808	66.784
19.892	66.5248
19.976	66.2843
20.06	66.1957
20.144	66.2899
20.228	66.4851
20.312	66.6683
20.396	66.7767
20.48	66.805
20.564	66.7672
20.648	66.6581
20.732	66.4692
20.816	66.2141
20.9	65.9499
20.984	65.7591
21.068	65.6994
21.152	65.7535
21.236	65.8293
21.32	65.8162
21.404	65.6663
21.488	65.4332
21.572	65.2373
21.656	65.2059
21.74	65.4043
21.824	65.8028
21.908	66.293
21.992	66.7473
22.076	67.076
22.16	67.2541
22.244	67.3088
22.328	67.2917
22.412	67.2543
22.496	67.2353
22.58	67.2562
22.664	67.3208
22.748	67.3925
22.832	67.3947
22.916	67.2603
23	66.9563
23.084	66.5162
23.168	66.043
23.252	65.651
23.336	65.4226
23.42	65.3928
23.504	65.5664
23.588	65.9051
23.672	66.3287
23.756	66.7187
23.84	66.9256
23.924	66.8388
24.008	66.4609
24.092	65.965
24.176	65.6928
24.26	66.0327
24.344	67.273
24.428	69.3874
24.512	71.9385
24.596	74.2258
24.68	75.5261
24.764	75.4123
24.848	73.9896
24.932	71.8588
25.016	69.8627
25.1	68.7398
25.184	68.9784
25.268	70.6117
25.352	73.2519
25.436	76.3651
25.52	79.427
25.604	81.9981
25.688	83.9509
25.772	85.3839
25.856	86.4176
25.94	87.1904
26.024	87.7982
26.108	88.291
26.192	88.5718
26.276	88.5631
26.36	88.4284
26.444	88.4617
26.528	88.9787
26.612	90.2273
26.696	92.2587
26.78	94.8963
26.864	97.6058
26.948	99.4978
27.028	99.5719