File: Bakgrunnsmateriale/MATLAB/FTIR/ftir_data/subCa/Mapping_25/BZ12041010-4_t11.asc
PE IR       SPECTRUM    SPECTRUM    ASCII       PEDS        1.60
  -1
BZ2AB2~1.ASC
17/04/10
09:50:33.00
17/04/10
09:51:00.00
tln
$BZ12041010-4_t0011$<tbV0>[5.2,-7.2,9.0,0.0,22,1,0]
27.028
64

2002,4.07
MIRTGS : RIGHTBACK : INTERNAL 2
MIR : ON : INTERNAL 2
OPTKBR

0.200000
8
8.000000
FILLER
RATIO
SPECTRUM
UNLOCKED 256

DOUBLE
64
COMBINED
1
0
0

0.002000
RATIO

1
0
TRUE
51149
0
LEFT NOT FITTED RIGHT NOT FITTED 0
NONE
NONE
15600
12
4.427000
51148
TRUE
1 0 8 72 0 0 0 0

15798

#HDR
-1
-1
#GR
µM
%T
2.38419e-05
0.0
2.000000
0.002000
12515
8
98.6775
26.442
#DATA
2.000000	 64.7082
2.084000	 65.9718
2.168000	 64.5195
2.252000	 63.4412
2.336000	 64.9713
2.420000	 65.4302
2.504000	 64.8352
2.588000	 65.0681
2.672000	 65.29
2.756000	 65.3257
2.840000	 65.3125
2.924000	 65.0229
3.008000	 65.2771
3.092000	 65.2598
3.176000	 65.3386
3.260000	 65.1406
3.344000	 65.2548
3.428000	 65.211
3.512000	 65.2468
3.596000	 65.2851
3.680000	 65.371
3.764000	 65.2823
3.848000	 65.2559
3.932000	 65.3229
4.016000	 65.3815
4.100000	 65.3347
4.184000	 65.3117
4.268000	 65.3439
4.352000	 65.348
4.436000	 65.2137
4.520000	 65.2961
4.604000	 65.3291
4.688000	 65.2239
4.772000	 65.2397
4.856000	 65.3247
4.940000	 65.2266
5.024000	 65.3073
5.108000	 65.3869
5.192000	 65.3016
5.276000	 65.3295
5.359999	 65.3036
5.444000	 65.3555
5.528000	 65.1995
5.612000	 65.2098
5.696000	 65.1389
5.780000	 65.1091
5.864000	 65.1109
5.948000	 65.0487
6.032000	 65.1195
6.116000	 65.2871
6.200000	 65.1825
6.284000	 65.3094
6.368000	 65.201
6.452000	 65.2309
6.536000	 65.1286
6.620000	 65.3384
6.704000	 65.2923
6.788000	 65.2029
6.872000	 65.2062
6.956000	 65.2089
7.040000	 65.1497
7.124000	 65.0644
7.208000	 65.2029
7.292000	 65.2719
7.376000	 65.0456
7.460000	 65.0656
7.544000	 65.1697
7.628000	 65.1317
7.712000	 65.1649
7.796000	 65.1166
7.880000	 65.1198
7.964000	 65.0758
8.048000	 65.1889
8.132000	 65.2975
8.216000	 65.0791
8.300000	 65.3417
8.384000	 65.1667
8.468000	 65.2445
8.552000	 65.2101
8.635999	 65.066
8.719999	 65.1239
8.804000	 65.1213
8.888000	 65.211
8.972000	 65.0482
9.056000	 65.103
9.140000	 65.1712
9.224000	 65.1582
9.308000	 64.9978
9.391999	 65.2034
9.475999	 65.2947
9.560000	 65.0176
9.644000	 65.0992
9.728000	 65.0974
9.812000	 65.174
9.896000	 65.1585
9.980000	 65.0931
10.064	65.0294
10.148	65.1457
10.232	65.1681
10.316	64.9487
10.4	65.2034
10.484	65.1876
10.568	64.9721
10.652	65.1344
10.736	64.9749
10.82	65.0554
10.904	65.2718
10.988	65.25
11.072	65.3006
11.156	65.3345
11.24	65.3882
11.324	65.1903
11.408	65.2075
11.492	65.2382
11.576	65.2931
11.66	65.1983
11.744	65.203
11.828	65.3891
11.912	65.4044
11.996	65.4415
12.08	65.4913
12.164	65.4467
12.248	65.399
12.332	65.4772
12.416	65.5473
12.5	65.4207
12.584	65.3146
12.668	65.2205
12.752	65.1169
12.836	65.2259
12.92	65.2853
13.004	65.3455
13.088	65.3801
13.172	65.3702
13.256	65.3865
13.34	65.4766
13.424	65.3413
13.508	65.1468
13.592	65.1617
13.676	65.2661
13.76	65.4046
13.844	65.59
13.928	65.5921
14.012	65.347
14.096	65.353
14.18	65.5744
14.264	65.5936
14.348	65.5213
14.432	65.392
14.516	65.1718
14.6	65.1623
14.684	65.3377
14.768	65.4592
14.852	65.4259
14.936	65.2317
15.02	65.1437
15.104	65.2941
15.188	65.4335
15.272	65.3803
15.356	65.1974
15.44	65.0512
15.524	65.0839
15.608	65.2548
15.692	65.3524
15.776	65.3071
15.86	65.2714
15.944	65.3619
16.028	65.498
16.112	65.5328
16.196	65.4879
16.28	65.4738
16.364	65.4604
16.448	65.4379
16.532	65.5211
16.616	65.6508
16.7	65.6122
16.784	65.4374
16.868	65.368
16.952	65.4568
17.036	65.5338
17.12	65.4776
17.204	65.3412
17.288	65.2927
17.372	65.4361
17.456	65.6653
17.54	65.7718
17.624	65.6881
17.708	65.5053
17.792	65.3129
17.876	65.1531
17.96	65.0857
18.044	65.1737
18.128	65.4178
18.212	65.7225
18.296	65.9405
18.38	65.9686
18.464	65.8291
18.548	65.6631
18.632	65.6253
18.716	65.751
18.8	65.9283
18.884	66.0013
18.968	65.9085
19.052	65.7318
19.136	65.6081
19.22	65.6115
19.304	65.7014
19.388	65.7817
19.472	65.7815
19.556	65.6861
19.64	65.5257
19.724	65.3527
19.808	65.2206
19.892	65.1568
19.976	65.1597
20.06	65.2272
20.144	65.3876
20.228	65.6782
20.312	66.0585
20.396	66.3818
20.48	66.4863
20.564	66.3255
20.648	65.9947
20.732	65.6595
20.816	65.4524
20.9	65.4246
20.984	65.5333
21.068	65.6693
21.152	65.7175
21.236	65.6225
21.32	65.4295
21.404	65.2586
21.488	65.2123
21.572	65.3033
21.656	65.4703
21.74	65.6537
21.824	65.866
21.908	66.1837
21.992	66.6598
22.076	67.2461
22.16	67.7763
22.244	68.0436
22.328	67.93
22.412	67.4826
22.496	66.911
22.58	66.4586
22.664	66.2911
22.748	66.4259
22.832	66.756
22.916	67.1151
23	67.3966
23.084	67.5739
23.168	67.6724
23.252	67.7148
23.336	67.6903
23.42	67.578
23.504	67.3235
23.588	66.8806
23.672	66.2336
23.756	65.3986
23.84	64.5106
23.924	63.7892
24.008	63.4424
24.092	63.5475
24.176	63.9532
24.26	64.2772
24.344	64.0511
24.428	63.0116
24.512	61.218
24.596	59.1272
24.68	57.3624
24.764	56.3597
24.848	56.1235
24.932	56.2026
25.016	55.8925
25.1	54.5739
25.184	51.8316
25.268	47.6751
25.352	42.5456
25.436	37.0773
25.52	32.053
25.604	28.2863
25.688	26.6373
25.772	26.8819
25.856	27.5073
25.94	27.1196
26.024	26.4553
26.108	29.2163
26.192	37.1851
26.276	48.6707
26.36	56.2065
26.444	55.8127
26.528	49.2697
26.612	47.5366
26.696	58.1548
26.78	77.6961
26.864	89.7679
26.948	77.3321
27.028	44.8045