File: Bakgrunnsmateriale/MATLAB/FTIR/ftir_data/subCa/Mapping_25/BZ12041010-4_t09.asc
PE IR       SPECTRUM    SPECTRUM    ASCII       PEDS        1.60
  -1
BZ46B2~1.ASC
17/04/10
09:33:37.00
17/04/10
09:34:03.00
tln
$BZ12041010-4_t0009$<tbV0>[-2.6,-9.8,9.0,0.0,22,1,0]
27.028
64

2002,4.07
MIRTGS : RIGHTBACK : INTERNAL 2
MIR : ON : INTERNAL 2
OPTKBR

0.200000
8
8.000000
FILLER
RATIO
SPECTRUM
UNLOCKED 256

DOUBLE
64
COMBINED
1
0
0

0.002000
RATIO

1
0
TRUE
51149
0
LEFT NOT FITTED RIGHT NOT FITTED 0
NONE
NONE
15600
12
4.427000
51148
TRUE
1 0 8 72 0 0 0 0

15798

#HDR
-1
-1
#GR
µM
%T
2.38419e-05
0.0
2.000000
0.002000
12515
8
86.8975
25.92
#DATA
2.000000	 64.6502
2.084000	 65.7179
2.168000	 65.033
2.252000	 65.128
2.336000	 64.9471
2.420000	 65.234
2.504000	 65.1206
2.588000	 65.3407
2.672000	 65.4837
2.756000	 65.5336
2.840000	 65.2577
2.924000	 65.3758
3.008000	 65.223
3.092000	 65.2602
3.176000	 65.2101
3.260000	 65.1484
3.344000	 65.2104
3.428000	 65.2902
3.512000	 65.0842
3.596000	 65.2023
3.680000	 65.2795
3.764000	 65.3105
3.848000	 65.2839
3.932000	 65.3046
4.016000	 65.3254
4.100000	 65.2344
4.184000	 65.2044
4.268000	 65.2498
4.352000	 65.2281
4.436000	 65.3709
4.520000	 65.4532
4.604000	 65.1841
4.688000	 65.2983
4.772000	 65.3077
4.856000	 65.412
4.940000	 65.4211
5.024000	 65.1597
5.108000	 65.281
5.192000	 65.2856
5.276000	 65.2865
5.359999	 65.3419
5.444000	 65.2334
5.528000	 65.2991
5.612000	 65.2601
5.696000	 65.3046
5.780000	 65.2913
5.864000	 65.3386
5.948000	 65.5933
6.032000	 65.4457
6.116000	 65.2652
6.200000	 65.2901
6.284000	 65.1027
6.368000	 65.254
6.452000	 65.3331
6.536000	 65.2827
6.620000	 65.4287
6.704000	 65.3404
6.788000	 65.3824
6.872000	 65.287
6.956000	 65.2185
7.040000	 65.2396
7.124000	 65.178
7.208000	 65.066
7.292000	 65.1854
7.376000	 65.1643
7.460000	 65.2023
7.544000	 65.1828
7.628000	 65.1386
7.712000	 65.1315
7.796000	 65.139
7.880000	 65.1269
7.964000	 65.1086
8.048000	 65.1825
8.132000	 65.1191
8.216000	 65.1718
8.300000	 65.2889
8.384000	 65.1875
8.468000	 64.9984
8.552000	 65.2509
8.635999	 65.1178
8.719999	 65.101
8.804000	 65.1917
8.888000	 65.1447
8.972000	 65.1431
9.056000	 65.0491
9.140000	 65.0409
9.224000	 65.2222
9.308000	 65.0554
9.391999	 65.0521
9.475999	 65.2236
9.560000	 65.0213
9.644000	 65.1551
9.728000	 65.0847
9.812000	 64.9942
9.896000	 65.1007
9.980000	 65.1863
10.064	65.2152
10.148	65.1134
10.232	64.9996
10.316	65.2449
10.4	65.2654
10.484	65.3551
10.568	65.3158
10.652	65.1601
10.736	65.4185
10.82	65.4203
10.904	65.3102
10.988	65.3243
11.072	65.3687
11.156	65.1532
11.24	65.0507
11.324	65.3204
11.408	65.4145
11.492	65.4219
11.576	65.5752
11.66	65.4961
11.744	65.2517
11.828	65.3709
11.912	65.435
11.996	65.2472
12.08	65.1352
12.164	65.3036
12.248	65.4538
12.332	65.5878
12.416	65.4736
12.5	65.4897
12.584	65.4553
12.668	65.4075
12.752	65.3623
12.836	65.5404
12.92	65.6378
13.004	65.5165
13.088	65.503
13.172	65.5957
13.256	65.4639
13.34	65.3021
13.424	65.2855
13.508	65.3018
13.592	65.3029
13.676	65.2388
13.76	65.2435
13.844	65.394
13.928	65.4386
14.012	65.4539
14.096	65.4435
14.18	65.3341
14.264	65.267
14.348	65.325
14.432	65.4646
14.516	65.5557
14.6	65.5548
14.684	65.5471
14.768	65.4489
14.852	65.2882
14.936	65.2936
15.02	65.4348
15.104	65.5699
15.188	65.5924
15.272	65.5519
15.356	65.6399
15.44	65.7431
15.524	65.6939
15.608	65.6124
15.692	65.5391
15.776	65.4155
15.86	65.2699
15.944	65.1661
16.028	65.201
16.112	65.3681
16.196	65.5109
16.28	65.6074
16.364	65.727
16.448	65.7574
16.532	65.6414
16.616	65.537
16.7	65.5606
16.784	65.6958
16.868	65.8554
16.952	65.9138
17.036	65.8447
17.12	65.7429
17.204	65.6446
17.288	65.5806
17.372	65.6581
17.456	65.8676
17.54	66.0268
17.624	66.0378
17.708	66.0007
17.792	66.0071
17.876	66.039
17.96	66.0623
18.044	66.0734
18.128	66.0516
18.212	65.9689
18.296	65.8572
18.38	65.8138
18.464	65.9085
18.548	66.0928
18.632	66.2154
18.716	66.154
18.8	65.9525
18.884	65.8096
18.968	65.8824
19.052	66.1
19.136	66.2465
19.22	66.2008
19.304	66.0374
19.388	65.9138
19.472	65.9207
19.556	66.0326
19.64	66.169
19.724	66.287
19.808	66.3865
19.892	66.4569
19.976	66.4557
20.06	66.3694
20.144	66.263
20.228	66.2429
20.312	66.3612
20.396	66.5665
20.48	66.7642
20.564	66.8991
20.648	66.9649
20.732	66.9657
20.816	66.8896
20.9	66.7266
20.984	66.497
21.068	66.2537
21.152	66.0589
21.236	65.9577
21.32	65.9612
21.404	66.0344
21.488	66.1069
21.572	66.1087
21.656	66.0262
21.74	65.9251
21.824	65.9055
21.908	66.0097
21.992	66.1796
22.076	66.3007
22.16	66.283
22.244	66.1445
22.328	65.9951
22.412	65.9472
22.496	66.0336
22.58	66.1762
22.664	66.2424
22.748	66.1375
22.832	65.8801
22.916	65.5891
23	65.4293
23.084	65.4901
23.168	65.743
23.252	66.0489
23.336	66.1958
23.42	66.0449
23.504	65.5786
23.588	64.9565
23.672	64.4517
23.756	64.3358
23.84	64.7089
23.924	65.4738
24.008	66.3699
24.092	67.0744
24.176	67.3855
24.26	67.2569
24.344	66.7626
24.428	66.0012
24.512	65.005
24.596	63.6858
24.68	61.8977
24.764	59.571
24.848	56.7465
24.932	53.651
25.016	50.6581
25.1	48.0882
25.184	46.3315
25.268	45.7267
25.352	46.4106
25.436	48.5075
25.52	52.0251
25.604	56.7637
25.688	62.4167
25.772	68.5426
25.856	74.5819
25.94	79.9087
26.024	83.9429
26.108	86.3509
26.192	86.8031
26.276	85.1052
26.36	81.5447
26.444	76.5774
26.528	70.6445
26.612	64.166
26.696	57.3434
26.78	50.1897
26.864	42.641
26.948	34.4953
27.028	25.92