File: Bakgrunnsmateriale/MATLAB/FTIR/ftir_data/subCa/Mapping_25/BZ12041010-4_t20_cm-1.asc
PE IR       SPECTRUM    SPECTRUM    ASCII       PEDS        1.60
  -1
BZACF4~1.ASC
17/04/10
10:32:24.00
17/04/10
10:32:24.00
tln
$BZ12041010-4_t0020$<tbV0>[-5.2,-4.6,9.0,0.0,22,1,0]
370
64

2002,4.07
MIRTGS : RIGHTBACK : INTERNAL 2
MIR : ON : INTERNAL 2
OPTKBR

0.200000
8
8.000000
FILLER
RATIO
SPECTRUM
UNLOCKED 256

DOUBLE
64
COMBINED
1
0
0

1.000000
RATIO

1
0
TRUE
51149
0
LEFT NOT FITTED RIGHT NOT FITTED 0
NONE
NONE
15600
12
4.427000
51148
TRUE
1 0 8 72 0 0 0 0

15798

#HDR
-1
-1
#GR
CM-1
%T
2.38419e-05
0.0
5000
-1.000000
4631
8
99.7819
-7.064604
#DATA
5000	65.0423
4984	64.4214
4968	64.707
4952	64.883
4936	64.068
4920	64.9177
4904	65.1112
4888	65.0573
4872	66.1662
4856	66.6222
4840	64.7511
4824	66.7886
4808	65.2762
4792	64.1232
4776	65.9657
4760	66.0147
4744	65.5282
4728	65.8247
4712	65.3866
4696	65.7445
4680	65.4591
4664	64.9
4648	65.106
4632	64.357
4616	64.8809
4600	64.7744
4584	64.2745
4568	63.8157
4552	63.6366
4536	64.2466
4520	64.4801
4504	64.4167
4488	62.5822
4472	66.7811
4456	86.6941
4440	64.4613
4424	63.0746
4408	64.0611
4392	64.2186
4376	63.7819
4360	64.0584
4344	64.4128
4328	64.3746
4312	64.5279
4296	64.7895
4280	64.8232
4264	65.3571
4248	64.9775
4232	65.3415
4216	65.346
4200	65.2881
4184	65.1893
4168	65.5629
4152	65.5583
4136	65.6834
4120	65.5666
4104	65.8556
4088	65.2027
4072	65.6288
4056	65.3881
4040	65.2438
4024	65.0814
4008	65.1066
3992	65.1217
3976	65.1058
3960	65.0688
3944	64.8747
3928	65.1267
3912	65.1299
3896	65.1751
3880	65.1409
3864	65.1495
3848	65.3791
3832	65.0521
3816	65.1984
3800	65.1267
3784	65.2016
3768	65.3822
3752	65.3659
3736	65.4585
3720	65.5272
3704	65.4042
3688	65.3221
3672	65.3437
3656	65.3653
3640	65.4633
3624	65.4054
3608	65.3445
3592	65.5251
3576	65.3719
3560	65.3024
3544	65.2942
3528	65.2827
3512	65.2315
3496	65.2395
3480	65.2341
3464	65.0758
3448	65.2784
3432	65.1855
3416	65.1263
3400	65.2481
3384	65.174
3368	65.3527
3352	65.3689
3336	65.3949
3320	65.1659
3304	65.3372
3288	65.3653
3272	65.2184
3256	65.4897
3240	65.3511
3224	65.3792
3208	65.2718
3192	65.3843
3176	65.3277
3160	65.3437
3144	65.4079
3128	65.3226
3112	65.461
3096	65.3123
3080	65.1266
3064	65.1801
3048	65.1658
3032	65.2992
3016	65.2622
3000	65.2472
2984	65.3909
2968	65.3416
2952	65.1326
2936	65.2278
2920	65.1886
2904	65.3757
2888	65.2533
2872	65.3286
2856	65.2061
2840	65.3951
2824	65.4328
2808	65.3924
2792	65.4075
2776	65.3544
2760	65.2716
2744	65.2639
2728	65.3978
2712	65.2949
2696	65.2708
2680	65.3289
2664	65.3486
2648	65.2675
2632	65.2924
2616	65.3279
2600	65.3205
2584	65.32
2568	65.3589
2552	65.2445
2536	65.2778
2520	65.343
2504	65.3515
2488	65.3251
2472	65.3559
2456	65.3506
2440	65.3863
2424	65.4085
2408	65.4922
2392	65.3973
2376	65.3715
2360	65.3296
2344	65.3643
2328	65.4256
2312	65.3583
2296	65.3194
2280	65.222
2264	65.284
2248	65.2432
2232	65.2584
2216	65.3435
2200	65.2456
2184	65.196
2168	65.3163
2152	65.2674
2136	65.2269
2120	65.2889
2104	65.3176
2088	65.2809
2072	65.3243
2056	65.3288
2040	65.1956
2024	65.3561
2008	65.3079
1992	65.3116
1976	65.3829
1960	65.3595
1944	65.2591
1928	65.2599
1912	65.2927
1896	65.3773
1880	65.3539
1864	65.3251
1848	65.2663
1832	65.253
1816	65.3015
1800	65.2974
1784	65.299
1768	65.3593
1752	65.16
1736	65.1225
1720	65.1355
1704	65.1942
1688	65.1906
1672	65.2533
1656	65.12
1640	65.1809
1624	65.144
1608	65.2067
1592	65.2572
1576	65.2531
1560	65.3479
1544	65.061
1528	65.1114
1512	65.2545
1496	65.2835
1480	65.2603
1464	65.2578
1448	65.169
1432	65.2337
1416	65.0983
1400	65.2393
1384	65.1862
1368	65.2018
1352	65.121
1336	65.2035
1320	65.1371
1304	65.1337
1288	65.0913
1272	65.1933
1256	65.0479
1240	65.1429
1224	65.1282
1208	65.1085
1192	65.1152
1176	65.2839
1160	65.1845
1144	65.226
1128	65.2278
1112	65.1608
1096	65.0986
1080	64.939
1064	65.1654
1048	65.0985
1032	65.2174
1016	65.0699
1000	65.1646
984	 65.2998
968	 65.283
952	 65.4053
936	 65.302
920	 65.2276
904	 65.2771
888	 65.3952
872	 65.5248
856	 65.3216
840	 65.4365
824	 65.5268
808	 65.4533
792	 65.2019
776	 65.6847
760	 65.6756
744	 65.5624
728	 65.5423
712	 65.4793
696	 65.4948
680	 65.2822
664	 65.4268
648	 65.409
632	 65.4725
616	 65.7503
600	 66.0365
584	 65.4091
568	 65.2928
552	 65.4851
536	 65.7539
520	 65.7528
504	 66.3403
488	 65.9279
472	 65.656
456	 66.2158
440	 66.1691
424	 67.0622
408	 67.3258
392	 57.5643
376	 11.1271
370	 16.0314