File: Bakgrunnsmateriale/MATLAB/FTIR/ftir_data/subCa/Mapping_25/BZ12041010-4_t22_cm-1.asc
PE IR       SPECTRUM    SPECTRUM    ASCII       PEDS        1.60
  -1
BZACF1~1.ASC
17/04/10
10:49:10.00
17/04/10
10:49:10.00
tln
$BZ12041010-4_t0022$<tbV0>[2.6,-2.0,9.0,0.0,22,1,0]
370
64

2002,4.07
MIRTGS : RIGHTBACK : INTERNAL 2
MIR : ON : INTERNAL 2
OPTKBR

0.200000
8
8.000000
FILLER
RATIO
SPECTRUM
UNLOCKED 256

DOUBLE
64
COMBINED
1
0
0

1.000000
RATIO

1
0
TRUE
51149
0
LEFT NOT FITTED RIGHT NOT FITTED 0
NONE
NONE
15600
12
4.427000
51148
TRUE
1 0 8 72 0 0 0 0

15798

#HDR
-1
-1
#GR
CM-1
%T
2.38419e-05
0.0
5000
-1.000000
4631
8
71.926
22.5837
#DATA
5000	54.9497
4984	54.713
4968	54.9979
4952	55.3034
4936	54.9037
4920	56.0336
4904	54.8994
4888	53.7942
4872	55.8543
4856	55.7621
4840	56.295
4824	55.5945
4808	55.2053
4792	55.5997
4776	54.9607
4760	54.4959
4744	55.1317
4728	55.0755
4712	55.0154
4696	54.8281
4680	54.924
4664	54.802
4648	55.2897
4632	55.6137
4616	55.4714
4600	55.0632
4584	55.7248
4568	55.4949
4552	55.8156
4536	55.4453
4520	55.4487
4504	55.1372
4488	55.873
4472	55.5556
4456	38.0009
4440	56.438
4424	55.4522
4408	55.874
4392	55.5478
4376	55.7025
4360	55.5194
4344	55.478
4328	55.7057
4312	55.5118
4296	55.4652
4280	55.7566
4264	55.5367
4248	55.0247
4232	54.9586
4216	55.118
4200	55.0262
4184	55.0212
4168	55.1139
4152	55.0849
4136	54.7278
4120	55.1897
4104	55.0383
4088	55.0708
4072	55.448
4056	55.371
4040	55.1914
4024	55.2939
4008	55.173
3992	55.1528
3976	55.1032
3960	54.8975
3944	55.148
3928	55.2713
3912	55.0341
3896	54.98
3880	55.2241
3864	55.3552
3848	55.2715
3832	55.3394
3816	55.3695
3800	55.2092
3784	55.4287
3768	55.2853
3752	55.134
3736	55.1919
3720	55.0808
3704	55.2303
3688	55.0859
3672	55.1428
3656	55.2492
3640	55.0869
3624	55.3102
3608	55.0784
3592	55.2905
3576	55.3011
3560	55.4575
3544	55.2874
3528	55.2106
3512	55.0684
3496	55.2421
3480	55.0112
3464	55.1441
3448	55.2
3432	55.3557
3416	55.216
3400	55.3354
3384	55.2188
3368	55.246
3352	55.39
3336	55.2228
3320	55.3138
3304	55.3111
3288	55.2392
3272	55.2154
3256	55.0975
3240	55.0962
3224	55.1367
3208	55.0613
3192	55.1787
3176	55.203
3160	55.0271
3144	55.2602
3128	55.4657
3112	55.2587
3096	55.1651
3080	55.3519
3064	55.3519
3048	55.4267
3032	55.2878
3016	55.2319
3000	55.0313
2984	55.1911
2968	55.1303
2952	55.1106
2936	55.1567
2920	54.9157
2904	55.1931
2888	55.1097
2872	55.1964
2856	55.3803
2840	55.2348
2824	55.3652
2808	55.3115
2792	55.2816
2776	55.2391
2760	55.2277
2744	55.2753
2728	55.1434
2712	55.1439
2696	55.0238
2680	55.106
2664	55.0582
2648	55.2375
2632	55.1714
2616	55.2903
2600	55.2818
2584	55.3492
2568	55.3737
2552	55.2898
2536	55.3212
2520	55.1953
2504	55.3021
2488	55.157
2472	55.1506
2456	55.1773
2440	55.2307
2424	55.2114
2408	55.2675
2392	55.0752
2376	55.264
2360	55.2528
2344	55.3551
2328	55.3175
2312	55.2163
2296	55.2798
2280	55.2971
2264	55.1467
2248	55.1733
2232	55.3523
2216	55.1902
2200	55.1344
2184	55.1595
2168	55.1988
2152	55.1696
2136	55.3241
2120	55.3269
2104	55.2798
2088	55.3104
2072	55.2505
2056	55.2254
2040	55.3102
2024	55.1449
2008	55.2004
1992	55.2838
1976	55.21
1960	55.1228
1944	55.1833
1928	55.1558
1912	55.1665
1896	55.1685
1880	55.3219
1864	55.2557
1848	55.2959
1832	55.3573
1816	55.3212
1800	55.32
1784	55.1817
1768	55.0718
1752	55.0796
1736	54.8994
1720	54.9233
1704	54.8638
1688	54.9997
1672	55.0476
1656	55.1598
1640	55.2132
1624	55.2498
1608	55.2212
1592	55.1762
1576	55.2697
1560	55.3348
1544	55.2178
1528	55.1597
1512	55.0569
1496	55.2309
1480	54.9303
1464	54.9277
1448	54.986
1432	54.883
1416	54.9541
1400	55.0546
1384	54.9024
1368	54.9291
1352	55.1031
1336	55.1123
1320	54.9447
1304	55.0176
1288	55.0591
1272	55.2047
1256	55.0387
1240	55.0463
1224	55.117
1208	55.0116
1192	55.175
1176	54.9988
1160	54.7778
1144	55.0658
1128	55.0961
1112	54.9701
1096	55.0692
1080	54.9243
1064	54.8574
1048	55.0061
1032	55.1386
1016	55.0052
1000	55.1401
984	 54.953
968	 55.0282
952	 55.1135
936	 55.0542
920	 55.0025
904	 54.7885
888	 55.0499
872	 55.1361
856	 55.0894
840	 55.0844
824	 54.9614
808	 55.2413
792	 54.9443
776	 54.9049
760	 54.8281
744	 55.1067
728	 55.1264
712	 54.8726
696	 55.1679
680	 55.1062
664	 54.9009
648	 55.095
632	 54.957
616	 55.086
600	 54.9974
584	 55.6367
568	 55.1913
552	 55.1412
536	 55.7647
520	 55.7986
504	 55.3445
488	 56.1124
472	 54.4344
456	 56.4394
440	 53.87
424	 56.7123
408	 59.2864
392	 59.3996
376	 51.5084
370	 22.5837