File: Bakgrunnsmateriale/MATLAB/FTIR/ftir_data/subCa/Mapping_25/BZ12041010-4_t21.asc
PE IR       SPECTRUM    SPECTRUM    ASCII       PEDS        1.60
  -1
BZ2EB2~1.ASC
17/04/10
10:44:32.00
17/04/10
10:44:59.00
tln
$BZ12041010-4_t0021$<tbV0>[5.2,-2.0,9.0,0.0,22,1,0]
27.028
64

2002,4.07
MIRTGS : RIGHTBACK : INTERNAL 2
MIR : ON : INTERNAL 2
OPTKBR

0.200000
8
8.000000
FILLER
RATIO
SPECTRUM
UNLOCKED 256

DOUBLE
64
COMBINED
1
0
0

0.002000
RATIO

1
0
TRUE
51149
0
LEFT NOT FITTED RIGHT NOT FITTED 0
NONE
NONE
15600
12
4.427000
51148
TRUE
1 0 8 72 0 0 0 0

15798

#HDR
-1
-1
#GR
µM
%T
2.38419e-05
0.0
2.000000
0.002000
12515
8
69.9232
34.6307
#DATA
2.000000	 53.7279
2.084000	 53.0213
2.168000	 53.4158
2.252000	 53.8416
2.336000	 54.1888
2.420000	 53.6979
2.504000	 53.8097
2.588000	 53.9138
2.672000	 53.7271
2.756000	 53.7085
2.840000	 53.7855
2.924000	 53.8186
3.008000	 53.8606
3.092000	 53.7817
3.176000	 53.7695
3.260000	 53.9608
3.344000	 53.6426
3.428000	 53.4606
3.512000	 53.6623
3.596000	 53.9196
3.680000	 53.7308
3.764000	 53.7013
3.848000	 53.9106
3.932000	 53.9135
4.016000	 53.7745
4.100000	 53.7603
4.184000	 53.7058
4.268000	 53.8457
4.352000	 53.8133
4.436000	 53.8023
4.520000	 53.7464
4.604000	 53.7323
4.688000	 53.7332
4.772000	 53.8354
4.856000	 53.8271
4.940000	 53.6715
5.024000	 53.731
5.108000	 53.5214
5.192000	 53.6378
5.276000	 53.5213
5.359999	 53.6124
5.444000	 53.6888
5.528000	 53.7304
5.612000	 53.7097
5.696000	 53.5364
5.780000	 53.3232
5.864000	 53.3457
5.948000	 53.3263
6.032000	 53.5062
6.116000	 53.3703
6.200000	 53.4828
6.284000	 53.5886
6.368000	 53.5801
6.452000	 53.5591
6.536000	 53.632
6.620000	 53.3966
6.704000	 53.4203
6.788000	 53.448
6.872000	 53.3496
6.956000	 53.3354
7.040000	 53.4321
7.124000	 53.3562
7.208000	 53.3524
7.292000	 53.5158
7.376000	 53.5373
7.460000	 53.5854
7.544000	 53.4837
7.628000	 53.7086
7.712000	 53.4868
7.796000	 53.4395
7.880000	 53.5302
7.964000	 53.3174
8.048000	 53.3386
8.132000	 53.3243
8.216000	 53.2039
8.300000	 53.2545
8.384000	 53.5946
8.468000	 53.3342
8.552000	 53.3376
8.635999	 53.5183
8.719999	 53.4705
8.804000	 53.4582
8.888000	 53.5772
8.972000	 53.5756
9.056000	 53.4234
9.140000	 53.2961
9.224000	 53.3485
9.308000	 53.1736
9.391999	 53.2335
9.475999	 53.2829
9.560000	 53.3945
9.644000	 53.5869
9.728000	 53.6232
9.812000	 53.6459
9.896000	 53.5827
9.980000	 53.6912
10.064	53.6062
10.148	53.5938
10.232	53.7157
10.316	53.6346
10.4	53.7871
10.484	53.5773
10.568	53.5319
10.652	53.7681
10.736	53.6472
10.82	53.6883
10.904	53.5134
10.988	53.57
11.072	53.6042
11.156	53.7623
11.24	53.6743
11.324	53.51
11.408	53.68
11.492	53.6888
11.576	53.6875
11.66	53.5621
11.744	53.5697
11.828	53.4895
11.912	53.5248
11.996	53.4984
12.08	53.4802
12.164	53.7486
12.248	53.8389
12.332	53.824
12.416	53.6427
12.5	53.4364
12.584	53.5009
12.668	53.5803
12.752	53.5118
12.836	53.4249
12.92	53.466
13.004	53.4776
13.088	53.482
13.172	53.5241
13.256	53.5532
13.34	53.5572
13.424	53.623
13.508	53.5888
13.592	53.3809
13.676	53.3151
13.76	53.4163
13.844	53.5302
13.928	53.6106
14.012	53.6266
14.096	53.5461
14.18	53.4072
14.264	53.3917
14.348	53.4453
14.432	53.4746
14.516	53.592
14.6	53.7915
14.684	53.9532
14.768	53.8988
14.852	53.6698
14.936	53.549
15.02	53.5796
15.104	53.6193
15.188	53.6743
15.272	53.7582
15.356	53.7839
15.44	53.7451
15.524	53.6846
15.608	53.5754
15.692	53.4287
15.776	53.3274
15.86	53.3158
15.944	53.3929
16.028	53.5035
16.112	53.5331
16.196	53.491
16.28	53.5385
16.364	53.7082
16.448	53.8545
16.532	53.8821
16.616	53.8322
16.7	53.8386
16.784	54.0286
16.868	54.3329
16.952	54.5299
17.036	54.5276
17.12	54.4435
17.204	54.4035
17.288	54.4022
17.372	54.3777
17.456	54.3314
17.54	54.328
17.624	54.3915
17.708	54.4479
17.792	54.4043
17.876	54.2537
17.96	54.0849
18.044	53.9935
18.128	54.0116
18.212	54.1258
18.296	54.2945
18.38	54.4304
18.464	54.4705
18.548	54.4548
18.632	54.446
18.716	54.4334
18.8	54.3817
18.884	54.3239
18.968	54.3438
19.052	54.4705
19.136	54.6251
19.22	54.6934
19.304	54.6347
19.388	54.5033
19.472	54.3824
19.556	54.3065
19.64	54.262
19.724	54.2378
19.808	54.2361
19.892	54.2283
19.976	54.1578
20.06	54.0132
20.144	53.8551
20.228	53.7502
20.312	53.6979
20.396	53.6535
20.48	53.6119
20.564	53.647
20.648	53.8445
20.732	54.1968
20.816	54.5722
20.9	54.7998
20.984	54.7848
21.068	54.5532
21.152	54.1946
21.236	53.7909
21.32	53.4021
21.404	53.0986
21.488	52.9704
21.572	53.0817
21.656	53.4194
21.74	53.8746
21.824	54.2781
21.908	54.4868
21.992	54.465
22.076	54.2938
22.16	54.1161
22.244	54.0412
22.328	54.0824
22.412	54.1741
22.496	54.2324
22.58	54.2206
22.664	54.165
22.748	54.1092
22.832	54.0454
22.916	53.9467
23	53.78
23.084	53.5713
23.168	53.401
23.252	53.3369
23.336	53.3908
23.42	53.5042
23.504	53.5898
23.588	53.5977
23.672	53.5301
23.756	53.4128
23.84	53.3181
23.924	53.3051
24.008	53.44
24.092	53.8506
24.176	54.7033
24.26	56.1738
24.344	58.3542
24.428	61.132
24.512	64.1248
24.596	66.8469
24.68	68.8368
24.764	69.8127
24.848	69.8205
24.932	69.2012
25.016	68.3802
25.1	67.5819
25.184	66.6871
25.268	65.2773
25.352	62.8743
25.436	59.1465
25.52	54.2234
25.604	48.7184
25.688	43.4436
25.772	39.1384
25.856	36.2665
25.94	34.8693
26.024	34.6799
26.108	35.3285
26.192	36.788
26.276	39.3515
26.36	43.4312
26.444	49.0518
26.528	55.528
26.612	61.3817
26.696	64.8427
26.78	64.5299
26.864	59.9934
26.948	51.9186
27.028	42.4068