File: Bakgrunnsmateriale/MATLAB/FTIR/ftir_data/subCa/Mapping_25/BZ12041010-4_e26.asc
PE IR       SPECTRUM    SPECTRUM    ASCII       PEDS        1.60
  -1
BZ1204~2.ASC
17/04/10
08:50:16.00
17/04/10
08:50:43.00
tln
$BZ12041010-4_e0026$<ebV0>[-23.0,28.0,5.5,0.0,22,1,0]
27.028
64

2002,4.07
MIRTGS : RIGHTBACK : INTERNAL 2
MIR : ON : INTERNAL 2
OPTKBR

0.200000
8
8.000000
FILLER
SINGLE
SPECTRUM
UNLOCKED 256

DOUBLE

COMBINED
1
0
0

0.002000
BACKG

1
0
TRUE
51149
0
LEFT NOT FITTED RIGHT NOT FITTED 0
NONE
NONE
15600
12
4.427000
51148
TRUE
1 0 8 72 0 0 0 0

15798

#HDR
-1
-1
#GR
µM
EGY
2.38419e-05
0.0
2.000000
0.002000
12515
8
2.464744
0.007033
#DATA
2.000000	 0.778388
2.084000	 0.874739
2.168000	 0.937373
2.252000	 1.018410
2.336000	 1.148362
2.420000	 1.245346
2.504000	 1.404742
2.588000	 1.456856
2.672000	 1.551757
2.756000	 1.577335
2.840000	 1.636943
2.924000	 1.595103
3.008000	 1.698439
3.092000	 1.793164
3.176000	 1.822180
3.260000	 1.946558
3.344000	 2.044737
3.428000	 1.846544
3.512000	 2.023484
3.596000	 2.229003
3.680000	 2.265346
3.764000	 2.228768
3.848000	 2.236338
3.932000	 2.306011
4.016000	 2.334593
4.100000	 2.296572
4.184000	 2.258224
4.268000	 2.271888
4.352000	 2.349328
4.436000	 2.386957
4.520000	 2.374545
4.604000	 2.346100
4.688000	 2.341948
4.772000	 2.344562
4.856000	 2.390519
4.940000	 2.447986
5.024000	 2.462291
5.108000	 2.436511
5.192000	 2.406967
5.276000	 2.376402
5.359999	 2.384568
5.444000	 2.410765
5.528000	 2.433040
5.612000	 2.430910
5.696000	 2.396744
5.780000	 2.321092
5.864000	 2.277175
5.948000	 2.230006
6.032000	 2.183835
6.116000	 2.135186
6.200000	 2.005615
6.284000	 2.022515
6.368000	 1.977232
6.452000	 1.953443
6.536000	 2.093317
6.620000	 2.073241
6.704000	 1.686619
6.788000	 1.969526
6.872000	 1.786007
6.956000	 1.861072
7.040000	 1.852878
7.124000	 1.726591
7.208000	 1.787764
7.292000	 1.814793
7.376000	 1.817639
7.460000	 1.816118
7.544000	 1.851692
7.628000	 1.857037
7.712000	 1.857097
7.796000	 1.851796
7.880000	 1.775698
7.964000	 1.762052
8.048000	 1.834361
8.132000	 1.826580
8.216000	 1.786202
8.300000	 1.742988
8.384000	 1.742288
8.468000	 1.715548
8.552000	 1.672926
8.635999	 1.621489
8.719999	 1.604078
8.804000	 1.576326
8.888000	 1.524978
8.972000	 1.470082
9.056000	 1.435898
9.140000	 1.426494
9.224000	 1.428282
9.308000	 1.429518
9.391999	 1.438944
9.475999	 1.358401
9.560000	 1.326953
9.644000	 1.388027
9.728000	 1.370018
9.812000	 1.362091
9.896000	 1.382647
9.980000	 1.398654
10.064	1.399481
10.148	1.387234
10.232	1.372273
10.316	1.349389
10.4	1.322000
10.484	1.294042
10.568	1.272143
10.652	1.257967
10.736	1.239115
10.82	1.225133
10.904	1.208221
10.988	1.179623
11.072	1.159591
11.156	1.150286
11.24	1.130266
11.324	1.077923
11.408	1.032069
11.492	1.046384
11.576	1.081282
11.66	1.091989
11.744	1.086857
11.828	1.078206
11.912	1.058037
11.996	0.992696
12.08	0.882143
12.164	0.852016
12.248	0.913923
12.332	0.945384
12.416	0.947229
12.5	0.945925
12.584	0.953342
12.668	0.967190
12.752	0.976988
12.836	0.977026
12.92	0.973530
13.004	0.970145
13.088	0.966924
13.172	0.962793
13.256	0.958262
13.34	0.953006
13.424	0.945425
13.508	0.935921
13.592	0.924485
13.676	0.912413
13.76	0.900090
13.844	0.887437
13.928	0.874789
14.012	0.861928
14.096	0.848383
14.18	0.834535
14.264	0.819454
14.348	0.798602
14.432	0.768661
14.516	0.740312
14.6	0.730432
14.684	0.733673
14.768	0.733591
14.852	0.726836
14.936	0.718029
15.02	0.710008
15.104	0.701987
15.188	0.692979
15.272	0.683359
15.356	0.673244
15.44	0.663744
15.524	0.655236
15.608	0.646443
15.692	0.637034
15.776	0.628518
15.86	0.621428
15.944	0.614126
16.028	0.604788
16.112	0.593613
16.196	0.581389
16.28	0.567360
16.364	0.551187
16.448	0.536059
16.532	0.526990
16.616	0.524616
16.7	0.524579
16.784	0.522595
16.868	0.518503
16.952	0.514160
17.036	0.510780
17.12	0.508187
17.204	0.505933
17.288	0.503661
17.372	0.500830
17.456	0.496951
17.54	0.492624
17.624	0.488678
17.708	0.485181
17.792	0.481673
17.876	0.477788
17.96	0.473319
18.044	0.468575
18.128	0.463865
18.212	0.459372
18.296	0.454996
18.38	0.450662
18.464	0.446122
18.548	0.441394
18.632	0.436730
18.716	0.432123
18.8	0.427403
18.884	0.422175
18.968	0.416396
19.052	0.410440
19.136	0.404797
19.22	0.399572
19.304	0.394524
19.388	0.389570
19.472	0.384488
19.556	0.379145
19.64	0.373617
19.724	0.368013
19.808	0.362265
19.892	0.356267
19.976	0.349716
20.06	0.342486
20.144	0.334686
20.228	0.326725
20.312	0.318938
20.396	0.311470
20.48	0.304338
20.564	0.297281
20.648	0.290165
20.732	0.283189
20.816	0.276577
20.9	0.270507
20.984	0.264920
21.068	0.259607
21.152	0.254392
21.236	0.249149
21.32	0.243907
21.404	0.238541
21.488	0.232948
21.572	0.226973
21.656	0.220415
21.74	0.213404
21.824	0.205959
21.908	0.198541
21.992	0.191492
22.076	0.185161
22.16	0.179723
22.244	0.175055
22.328	0.170789
22.412	0.166678
22.496	0.162357
22.58	0.157741
22.664	0.152831
22.748	0.147819
22.832	0.142779
22.916	0.137842
23	0.133077
23.084	0.128344
23.168	0.123576
23.252	0.118694
23.336	0.113676
23.42	0.108551
23.504	0.103497
23.588	0.098650
23.672	0.094077
23.756	0.089830
23.84	0.085807
23.924	0.081966
24.008	0.078189
24.092	0.074418
24.176	0.070599
24.26	0.066712
24.344	0.062841
24.428	0.059020
24.512	0.055437
24.596	0.052137
24.68	0.049154
24.764	0.046575
24.848	0.044162
24.932	0.041921
25.016	0.039667
25.1	0.037345
25.184	0.034928
25.268	0.032473
25.352	0.030053
25.436	0.027779
25.52	0.025662
25.604	0.023822
25.688	0.022159
25.772	0.020690
25.856	0.019430
25.94	0.018216
26.024	0.017050
26.108	0.015901
26.192	0.014734
26.276	0.013588
26.36	0.012474
26.444	0.011430
26.528	0.010508
26.612	0.009672
26.696	0.008980
26.78	0.008362
26.864	0.007843
26.948	0.007397
27.028	0.007033