File: Bakgrunnsmateriale/MATLAB/FTIR/ftir_data/subCa/Mapping_25/BZ12041010-4_t16_cm-1.asc
PE IR       SPECTRUM    SPECTRUM    ASCII       PEDS        1.60
  -1
BZ2CFF~1.ASC
17/04/10
10:13:56.00
17/04/10
10:13:56.00
tln
$BZ12041010-4_t0016$<tbV0>[5.2,-4.6,9.0,0.0,22,1,0]
370
64

2002,4.07
MIRTGS : RIGHTBACK : INTERNAL 2
MIR : ON : INTERNAL 2
OPTKBR

0.200000
8
8.000000
FILLER
RATIO
SPECTRUM
UNLOCKED 256

DOUBLE
64
COMBINED
1
0
0

1.000000
RATIO

1
0
TRUE
51149
0
LEFT NOT FITTED RIGHT NOT FITTED 0
NONE
NONE
15600
12
4.427000
51148
TRUE
1 0 8 72 0 0 0 0

15798

#HDR
-1
-1
#GR
CM-1
%T
2.38419e-05
0.0
5000
-1.000000
4631
8
80.6662
3.688955
#DATA
5000	64.9091
4984	64.8169
4968	65.4427
4952	64.6737
4936	64.2779
4920	65.1986
4904	64.6121
4888	64.8559
4872	64.6634
4856	66.6527
4840	64.9386
4824	64.7376
4808	64.3227
4792	64.3973
4776	64.9661
4760	64.5405
4744	65.3851
4728	65.157
4712	65.3509
4696	64.7341
4680	64.7097
4664	65
4648	64.4698
4632	64.6329
4616	64.51
4600	64.3883
4584	64.5389
4568	64.2073
4552	64.8391
4536	63.8439
4520	64.8903
4504	64.3824
4488	64.498
4472	67.032
4456	79.9569
4440	63.3611
4424	63.4061
4408	63.5429
4392	64.5965
4376	64.3856
4360	64.111
4344	64.5098
4328	64.7568
4312	64.566
4296	64.7125
4280	65.1132
4264	64.6889
4248	65.1519
4232	65.0961
4216	65.1238
4200	65.017
4184	65.2043
4168	65.4363
4152	65.0858
4136	65.192
4120	65.1193
4104	65.0671
4088	65.2058
4072	65.5506
4056	65.1855
4040	65.1702
4024	64.8582
4008	65.2259
3992	65.2034
3976	65.0879
3960	64.9068
3944	64.9763
3928	65.1344
3912	65.0988
3896	65.1901
3880	65.2573
3864	65.0599
3848	65.0041
3832	65.0977
3816	65.0991
3800	65.0798
3784	65.2669
3768	65.1864
3752	65.2418
3736	65.1343
3720	65.2861
3704	65.1642
3688	65.317
3672	65.2565
3656	65.1183
3640	65.2875
3624	65.2083
3608	65.0801
3592	65.2957
3576	65.1493
3560	65.1534
3544	65.0436
3528	65.0799
3512	65.053
3496	65.0681
3480	65.0428
3464	64.9195
3448	65.0711
3432	65.1406
3416	65.106
3400	65.1223
3384	65.2329
3368	65.0734
3352	65.3912
3336	65.1794
3320	65.1704
3304	65.1882
3288	65.2122
3272	65.0684
3256	65.2495
3240	65.3301
3224	65.289
3208	65.1292
3192	65.2783
3176	65.1208
3160	64.9117
3144	65.0833
3128	65.1111
3112	65.13
3096	65.0788
3080	65.0779
3064	65.1313
3048	65.1965
3032	65.3321
3016	65.0744
3000	65.0127
2984	65.2045
2968	65.1568
2952	65.2046
2936	65.0277
2920	64.9562
2904	65.1872
2888	65.1832
2872	65.0664
2856	65.2126
2840	65.0448
2824	65.1165
2808	65.2722
2792	65.241
2776	65.3302
2760	65.2481
2744	65.3056
2728	65.2372
2712	65.2765
2696	65.1576
2680	65.1009
2664	65.236
2648	65.0556
2632	65.1662
2616	65.2034
2600	65.1917
2584	65.0843
2568	65.1992
2552	65.1835
2536	65.2956
2520	65.126
2504	65.2209
2488	65.3378
2472	65.1276
2456	65.3187
2440	65.293
2424	65.23
2408	65.3108
2392	65.2997
2376	65.0792
2360	65.2471
2344	65.2396
2328	65.257
2312	65.2557
2296	65.1545
2280	65.1291
2264	65.2749
2248	65.2311
2232	65.2308
2216	65.2108
2200	65.1877
2184	65.0514
2168	65.2373
2152	65.1606
2136	65.1768
2120	65.2105
2104	65.2169
2088	65.1582
2072	65.1959
2056	65.2273
2040	65.2144
2024	65.1731
2008	65.1507
1992	65.1654
1976	65.3587
1960	65.1708
1944	65.2143
1928	65.2293
1912	65.258
1896	65.1734
1880	65.2257
1864	65.2233
1848	65.2607
1832	65.2147
1816	65.2265
1800	65.2605
1784	65.2239
1768	65.3185
1752	65.202
1736	65.0913
1720	65.0779
1704	65.1945
1688	65.1464
1672	65.2137
1656	65.0694
1640	65.0648
1624	65.1697
1608	65.2114
1592	65.0972
1576	65.0367
1560	65.1159
1544	65.1101
1528	65.0799
1512	65.1214
1496	65.2501
1480	65.0532
1464	65.2319
1448	65.0837
1432	65.2017
1416	65.0467
1400	65.1729
1384	65.1056
1368	65.0213
1352	65.0539
1336	65.0991
1320	65.0561
1304	65.0574
1288	65.1345
1272	65.0884
1256	65.0196
1240	65.0535
1224	65.1165
1208	65.0963
1192	64.9872
1176	65.1008
1160	65.0658
1144	65.0285
1128	65.1235
1112	65.0534
1096	64.9392
1080	64.9261
1064	65.0715
1048	64.9336
1032	65.0569
1016	65.0111
1000	65.1279
984	 64.9568
968	 65.1407
952	 65.3443
936	 65.0977
920	 65.2024
904	 65.1303
888	 65.1429
872	 65.3591
856	 65.0995
840	 65.2469
824	 65.5494
808	 65.4688
792	 65.0931
776	 65.4794
760	 65.3185
744	 65.4763
728	 65.3802
712	 65.3276
696	 65.2904
680	 65.6101
664	 65.3529
648	 65.1997
632	 65.6428
616	 65.7343
600	 65.2425
584	 65.2345
568	 65.2735
552	 65.2189
536	 65.5877
520	 65.3167
504	 66.474
488	 65.8665
472	 66.1207
456	 66.0673
440	 65.293
424	 65.0678
408	 75.0861
392	 47.0003
376	 5.121016
370	 38.8155