File: Bakgrunnsmateriale/MATLAB/FTIR/ftir_data/subCa/Mapping_25/BZ12041010-4_t10_cm-1.asc
PE IR       SPECTRUM    SPECTRUM    ASCII       PEDS        1.60
  -1
BZ2CF4~1.ASC
17/04/10
09:38:13.00
17/04/10
09:38:13.00
tln
$BZ12041010-4_t0010$<tbV0>[-5.2,-9.8,9.0,0.0,22,1,0]
370
64

2002,4.07
MIRTGS : RIGHTBACK : INTERNAL 2
MIR : ON : INTERNAL 2
OPTKBR

0.200000
8
8.000000
FILLER
RATIO
SPECTRUM
UNLOCKED 256

DOUBLE
64
COMBINED
1
0
0

1.000000
RATIO

1
0
TRUE
51149
0
LEFT NOT FITTED RIGHT NOT FITTED 0
NONE
NONE
15600
12
4.427000
51148
TRUE
1 0 8 72 0 0 0 0

15798

#HDR
-1
-1
#GR
CM-1
%T
2.38419e-05
0.0
5000
-1.000000
4631
8
84.9677
12.7582
#DATA
5000	64.7877
4984	64.6894
4968	64.8411
4952	65.198
4936	65.0103
4920	65.0717
4904	65.263
4888	64.4757
4872	64.865
4856	64.4886
4840	65.5928
4824	64.3586
4808	64.7503
4792	64.4099
4776	64.562
4760	65.3274
4744	64.9669
4728	64.5789
4712	65.8204
4696	63.6832
4680	64.7585
4664	65.0763
4648	65.8815
4632	65.4936
4616	64.9808
4600	64.9026
4584	64.7832
4568	65.4013
4552	65.1052
4536	65.4608
4520	65.1292
4504	65.8854
4488	59.6741
4472	65.6332
4456	62.915
4440	64.9091
4424	65.1642
4408	66.0831
4392	65.4597
4376	65.356
4360	64.9621
4344	65.413
4328	65.4731
4312	65.3476
4296	65.556
4280	65.0205
4264	64.9832
4248	65.3317
4232	64.981
4216	65.1718
4200	64.7814
4184	65.2879
4168	65.1195
4152	65.0285
4136	65.0988
4120	65.073
4104	65.2122
4088	65.1576
4072	64.978
4056	65.4168
4040	65.3213
4024	65.1872
4008	65.2219
3992	65.2809
3976	65.3158
3960	65.1587
3944	65.2704
3928	65.2363
3912	65.0769
3896	65.4807
3880	65.4966
3864	65.135
3848	65.32
3832	65.4724
3816	65.3691
3800	65.4656
3784	65.4897
3768	65.2351
3752	65.4601
3736	65.6576
3720	65.2625
3704	65.1497
3688	65.4968
3672	65.4401
3656	65.3786
3640	65.2699
3624	65.4229
3608	65.4808
3592	65.2851
3576	65.3972
3560	65.4598
3544	65.3911
3528	65.3966
3512	65.1789
3496	65.2975
3480	65.1901
3464	65.2842
3448	65.3931
3432	65.2944
3416	65.2943
3400	65.4064
3384	65.3368
3368	65.3313
3352	65.2303
3336	65.3349
3320	65.3034
3304	65.1645
3288	65.285
3272	65.327
3256	65.4368
3240	65.3616
3224	65.2527
3208	65.4277
3192	65.2908
3176	65.2099
3160	65.2053
3144	65.3707
3128	65.1728
3112	65.3882
3096	65.2527
3080	65.2428
3064	65.2178
3048	65.2695
3032	65.3398
3016	65.1852
3000	65.1544
2984	65.1768
2968	65.1225
2952	65.1756
2936	65.1214
2920	65.2225
2904	65.2564
2888	65.2342
2872	65.16
2856	65.235
2840	65.2821
2824	65.1843
2808	65.376
2792	65.3574
2776	65.3637
2760	65.3502
2744	65.399
2728	65.4096
2712	65.2845
2696	65.2825
2680	65.2121
2664	65.3751
2648	65.3185
2632	65.3331
2616	65.3298
2600	65.2742
2584	65.3152
2568	65.2449
2552	65.2875
2536	65.3473
2520	65.2652
2504	65.2827
2488	65.3613
2472	65.3311
2456	65.4046
2440	65.3335
2424	65.4483
2408	65.2499
2392	65.2072
2376	65.3836
2360	65.279
2344	65.2524
2328	65.3654
2312	65.416
2296	65.4315
2280	65.4339
2264	65.4302
2248	65.3256
2232	65.3604
2216	65.5165
2200	65.4022
2184	65.3445
2168	65.3451
2152	65.3652
2136	65.3413
2120	65.3829
2104	65.3167
2088	65.4373
2072	65.4201
2056	65.3309
2040	65.3385
2024	65.404
2008	65.2854
1992	65.339
1976	65.3476
1960	65.3858
1944	65.3128
1928	65.4171
1912	65.2784
1896	65.3793
1880	65.2949
1864	65.4039
1848	65.4599
1832	65.3406
1816	65.3267
1800	65.387
1784	65.4298
1768	65.4363
1752	65.3928
1736	65.3298
1720	65.3623
1704	65.3433
1688	65.4401
1672	65.4667
1656	65.5711
1640	65.4687
1624	65.3503
1608	65.3387
1592	65.2266
1576	65.4255
1560	65.887
1544	65.5714
1528	65.5354
1512	65.5048
1496	65.512
1480	65.4179
1464	65.4684
1448	65.2206
1432	65.352
1416	65.3736
1400	65.3369
1384	65.3127
1368	65.2264
1352	65.2243
1336	65.3055
1320	65.3287
1304	65.1599
1288	65.2673
1272	65.348
1256	65.2174
1240	65.2029
1224	65.2675
1208	65.2921
1192	65.187
1176	65.2246
1160	65.1737
1144	65.2096
1128	65.2548
1112	65.2395
1096	65.1708
1080	65.414
1064	65.1375
1048	65.2561
1032	65.0336
1016	65.1817
1000	65.2725
984	 65.1127
968	 65.3096
952	 65.2515
936	 65.4551
920	 65.2999
904	 65.2723
888	 65.4702
872	 65.5273
856	 65.5993
840	 65.514
824	 65.5841
808	 65.6175
792	 65.5403
776	 65.805
760	 65.5559
744	 65.5682
728	 65.6554
712	 65.5351
696	 65.2527
680	 65.7746
664	 65.6537
648	 65.7702
632	 65.3683
616	 66.2114
600	 65.9332
584	 65.8401
568	 66.1324
552	 66.0977
536	 66.4124
520	 66.2875
504	 65.9406
488	 66.4489
472	 65.5633
456	 66.7327
440	 66.9067
424	 67.1664
408	 60.9369
392	 77.925
376	 57.5881
370	 12.7582