File: Bakgrunnsmateriale/MATLAB/FTIR/ftir_data/subCa/Mapping_25/BZ12041010-4_t25_cm-1.asc
PE IR       SPECTRUM    SPECTRUM    ASCII       PEDS        1.60
  -1
BZAC7E~1.ASC
17/04/10
11:03:01.00
17/04/10
11:03:01.00
tln
$BZ12041010-4_t0025$<tbV0>[-5.2,-2.0,9.0,0.0,22,1,0]
370
64

2002,4.07
MIRTGS : RIGHTBACK : INTERNAL 2
MIR : ON : INTERNAL 2
OPTKBR

0.200000
8
8.000000
FILLER
RATIO
SPECTRUM
UNLOCKED 256

DOUBLE
64
COMBINED
1
0
0

1.000000
RATIO

1
0
TRUE
51149
0
LEFT NOT FITTED RIGHT NOT FITTED 0
NONE
NONE
15600
12
4.427000
51148
TRUE
1 0 8 72 0 0 0 0

15798

#HDR
-1
-1
#GR
CM-1
%T
2.38419e-05
0.0
5000
-1.000000
4631
8
85.1379
28.6169
#DATA
5000	60.4513
4984	60.2384
4968	59.7153
4952	59.353
4936	60.525
4920	60.233
4904	59.591
4888	59.6936
4872	58.4151
4856	62.2183
4840	61.224
4824	60.9671
4808	60.9915
4792	61.3869
4776	60.1855
4760	60.1629
4744	60.4939
4728	60.8771
4712	60.7184
4696	60.5709
4680	60.7401
4664	60.0055
4648	60.2095
4632	59.6654
4616	60.2046
4600	60.0391
4584	60.4614
4568	59.8911
4552	59.9948
4536	58.9207
4520	59.6546
4504	60.2482
4488	59.8666
4472	59.1674
4456	65.9427
4440	61.6972
4424	59.8188
4408	59.8332
4392	60.3284
4376	60.2986
4360	60.3503
4344	60.1439
4328	60.2026
4312	60.1315
4296	60.4607
4280	60.3228
4264	60.4573
4248	60.4357
4232	60.4239
4216	60.3565
4200	60.2938
4184	60.6439
4168	60.3319
4152	60.3535
4136	60.0339
4120	60.7182
4104	60.7289
4088	60.8328
4072	60.6991
4056	60.8201
4040	60.6449
4024	60.6433
4008	60.0635
3992	60.4333
3976	60.4944
3960	60.4062
3944	60.4878
3928	60.4972
3912	60.4536
3896	60.3989
3880	60.5385
3864	60.46
3848	60.5061
3832	60.5375
3816	60.3359
3800	60.559
3784	60.7394
3768	60.7182
3752	60.4352
3736	60.6
3720	60.3405
3704	60.4215
3688	60.5826
3672	60.4113
3656	60.5723
3640	60.5768
3624	60.5859
3608	60.6414
3592	60.7614
3576	60.6292
3560	60.6431
3544	60.5621
3528	60.4729
3512	60.4919
3496	60.4738
3480	60.3427
3464	60.3711
3448	60.4538
3432	60.4318
3416	60.5117
3400	60.5335
3384	60.6453
3368	60.5892
3352	60.6061
3336	60.6126
3320	60.7093
3304	60.6606
3288	60.5427
3272	60.6926
3256	60.6038
3240	60.5471
3224	60.5234
3208	60.5336
3192	60.4247
3176	60.5048
3160	60.4647
3144	60.6519
3128	60.5459
3112	60.5465
3096	60.5208
3080	60.768
3064	60.5525
3048	60.6178
3032	60.5279
3016	60.5846
3000	60.562
2984	60.4485
2968	60.3828
2952	60.4955
2936	60.3123
2920	60.4313
2904	60.6063
2888	60.6868
2872	60.6641
2856	60.7378
2840	60.6338
2824	60.729
2808	60.6112
2792	60.6132
2776	60.5738
2760	60.5901
2744	60.601
2728	60.5957
2712	60.4341
2696	60.4837
2680	60.6614
2664	60.4177
2648	60.6295
2632	60.6276
2616	60.6209
2600	60.6474
2584	60.7168
2568	60.6107
2552	60.6552
2536	60.6928
2520	60.6088
2504	60.6308
2488	60.5651
2472	60.5848
2456	60.6093
2440	60.6182
2424	60.6339
2408	60.6896
2392	60.706
2376	60.7952
2360	60.6961
2344	60.6977
2328	60.7349
2312	60.7222
2296	60.8492
2280	60.7261
2264	60.6814
2248	60.7117
2232	60.6468
2216	60.701
2200	60.6096
2184	60.6115
2168	60.7224
2152	60.684
2136	60.7264
2120	60.838
2104	60.6869
2088	60.7342
2072	60.8507
2056	60.6532
2040	60.7258
2024	60.6687
2008	60.6185
1992	60.5567
1976	60.7091
1960	60.6614
1944	60.5696
1928	60.6277
1912	60.514
1896	60.6727
1880	60.7044
1864	60.6499
1848	60.6874
1832	60.6298
1816	60.6485
1800	60.6428
1784	60.6254
1768	60.5785
1752	60.442
1736	60.4117
1720	60.3978
1704	60.4016
1688	60.5109
1672	60.4698
1656	60.6209
1640	60.5462
1624	60.6842
1608	60.7203
1592	60.678
1576	60.8005
1560	60.7078
1544	60.5579
1528	60.6033
1512	60.5896
1496	60.8103
1480	60.6071
1464	60.6483
1448	60.5757
1432	60.655
1416	60.6468
1400	60.5419
1384	60.5626
1368	60.6225
1352	60.8521
1336	60.5676
1320	60.4785
1304	60.5101
1288	60.482
1272	60.6571
1256	60.3273
1240	60.3945
1224	60.4769
1208	60.3338
1192	60.5751
1176	60.4073
1160	60.3984
1144	60.5316
1128	60.6688
1112	60.6148
1096	60.7605
1080	60.5291
1064	60.5008
1048	60.4152
1032	60.6337
1016	60.6099
1000	60.8959
984	 60.665
968	 60.7044
952	 60.8255
936	 60.6763
920	 60.8304
904	 60.5486
888	 60.5969
872	 60.8354
856	 60.5601
840	 60.5716
824	 60.8011
808	 60.9592
792	 60.6708
776	 60.8784
760	 60.8024
744	 60.7182
728	 60.8277
712	 60.8709
696	 60.8109
680	 60.8432
664	 60.775
648	 61.1258
632	 60.5742
616	 60.7779
600	 61.0398
584	 60.7897
568	 61.2047
552	 60.5228
536	 60.8358
520	 61.4039
504	 59.9902
488	 60.5717
472	 60.6529
456	 61.5445
440	 58.1745
424	 57.4652
408	 52.8021
392	 73.2977
376	 31.1458
370	 28.6169