File: Bakgrunnsmateriale/MATLAB/FTIR/ftir_data/subCa/Mapping_25/BZ12041010-4_e28_cm-1.asc
PE IR       SPECTRUM    SPECTRUM    ASCII       PEDS        1.60
  -1
BZACB1~1.ASC
17/04/10
10:38:40.00
17/04/10
10:38:40.00
tln
$BZ12041010-4_e0028$<ebV0>[-23.0,28.0,5.5,0.0,22,1,0]
370
64

2002,4.07
MIRTGS : RIGHTBACK : INTERNAL 2
MIR : ON : INTERNAL 2
OPTKBR

0.200000
8
8.000000
FILLER
SINGLE
SPECTRUM
UNLOCKED 256

DOUBLE

COMBINED
1
0
0

1.000000
BACKG

1
0
TRUE
51149
0
LEFT NOT FITTED RIGHT NOT FITTED 0
NONE
NONE
15600
12
4.427000
51148
TRUE
1 0 8 72 0 0 0 0

15798

#HDR
-1
-1
#GR
CM-1
EGY
2.38419e-05
0.0
5000
-1.000000
4631
8
2.462601
0.013208
#DATA
5000	0.778555
4984	0.788116
4968	0.791931
4952	0.800657
4936	0.802397
4920	0.805830
4904	0.820374
4888	0.826096
4872	0.838923
4856	0.833201
4840	0.848460
4824	0.856733
4808	0.868868
4792	0.878143
4776	0.897622
4760	0.907182
4744	0.906777
4728	0.911855
4712	0.914692
4696	0.918197
4680	0.918197
4664	0.921940
4648	0.921893
4632	0.930380
4616	0.932455
4600	0.945425
4584	0.950074
4568	0.966024
4552	0.974059
4536	0.987267
4520	0.989389
4504	0.995469
4488	1.001381
4472	1.005768
4456	1.123738
4440	1.019525
4424	1.023483
4408	1.021814
4392	1.026010
4376	1.035976
4360	1.052904
4344	1.067185
4328	1.084661
4312	1.107978
4296	1.128125
4280	1.145219
4264	1.158905
4248	1.175475
4232	1.190328
4216	1.196980
4200	1.208114
4184	1.213216
4168	1.223587
4152	1.233077
4136	1.246380
4120	1.257133
4104	1.271820
4088	1.291370
4072	1.312422
4056	1.335716
4040	1.354622
4024	1.375770
4008	1.392745
3992	1.405286
3976	1.413655
3960	1.423239
3944	1.428127
3928	1.429891
3912	1.436543
3896	1.441836
3880	1.448082
3864	1.458621
3848	1.471281
3832	1.491236
3816	1.505875
3800	1.527214
3784	1.549935
3768	1.564455
3752	1.556539
3736	1.570773
3720	1.586675
3704	1.591372
3688	1.581764
3672	1.573014
3656	1.583957
3640	1.592278
3624	1.586937
3608	1.594638
3592	1.604819
3576	1.618266
3560	1.626801
3544	1.632666
3528	1.632881
3512	1.639556
3496	1.632881
3480	1.624679
3464	1.616096
3448	1.603960
3432	1.594281
3416	1.594686
3400	1.604461
3384	1.615810
3368	1.632213
3352	1.653909
3336	1.680469
3320	1.704621
3304	1.727247
3288	1.749348
3272	1.768183
3256	1.779890
3240	1.790976
3224	1.794838
3208	1.799988
3192	1.803135
3176	1.805591
3160	1.815366
3144	1.826405
3128	1.843285
3112	1.866769
3096	1.896190
3080	1.923823
3064	1.945924
3048	1.973867
3032	1.988768
3016	1.973581
3000	2.035546
2984	2.035355
2968	1.971220
2952	1.928758
2936	1.821780
2920	1.811671
2904	1.955032
2888	2.005290
2872	1.994681
2856	1.934599
2840	2.080368
2824	2.137851
2808	2.178740
2792	2.205610
2776	2.234482
2760	2.254748
2744	2.263021
2728	2.266502
2712	2.260875
2696	2.251267
2680	2.243375
2664	2.234268
2648	2.225661
2632	2.225446
2616	2.228975
2600	2.234148
2584	2.247333
2568	2.273654
2552	2.293777
2536	2.312636
2520	2.325177
2504	2.332568
2488	2.334141
2472	2.327084
2456	2.312445
2440	2.296113
2424	2.279877
2408	2.263951
2392	2.258563
2376	2.249145
2360	2.243375
2344	2.270388
2328	2.292919
2312	2.324771
2296	2.350878
2280	2.369880
2264	2.383041
2248	2.385473
2232	2.383565
2216	2.376699
2200	2.364706
2184	2.352738
2168	2.342104
2152	2.337861
2136	2.338123
2120	2.341437
2104	2.345633
2088	2.345275
2072	2.362895
2056	2.397274
2040	2.429103
2024	2.448368
2008	2.460050
1992	2.459907
1976	2.450537
1960	2.436304
1944	2.423906
1928	2.408957
1912	2.391886
1896	2.376651
1880	2.378249
1864	2.388644
1848	2.396583
1832	2.410197
1816	2.426910
1800	2.432417
1784	2.432560
1768	2.416801
1752	2.389717
1736	2.330493
1720	2.311253
1704	2.276539
1688	2.251052
1672	2.229666
1656	2.178955
1640	2.156186
1624	2.107000
1608	1.974534
1592	2.019405
1576	1.986789
1560	1.932477
1544	1.957583
1528	2.106356
1512	2.091169
1496	1.701688
1480	1.959657
1464	1.936316
1448	1.784420
1432	1.868820
1416	1.843762
1400	1.732730
1384	1.786351
1368	1.815891
1352	1.813578
1336	1.826524
1320	1.855182
1304	1.855349
1288	1.854705
1272	1.803851
1256	1.759290
1240	1.834535
1224	1.813435
1208	1.750063
1192	1.737451
1176	1.698303
1160	1.629662
1144	1.597881
1128	1.540017
1112	1.458764
1096	1.423335
1080	1.427197
1064	1.439070
1048	1.307010
1032	1.376438
1016	1.366376
1000	1.397466
984	 1.382541
968	 1.341366
952	 1.285719
936	 1.250672
920	 1.216578
904	 1.160526
888	 1.119184
872	 1.035022
856	 1.092529
840	 1.061105
824	 0.846362
808	 0.947237
792	 0.959849
776	 0.978255
760	 0.963163
744	 0.941443
728	 0.901150
712	 0.855422
696	 0.790143
680	 0.732946
664	 0.706028
648	 0.664973
632	 0.622916
616	 0.576448
600	 0.522971
584	 0.505828
568	 0.490474
552	 0.465011
536	 0.435948
520	 0.395894
504	 0.361156
488	 0.304126
472	 0.251531
456	 0.195574
440	 0.149321
424	 0.097489
408	 0.058293
392	 0.023555
376	 0.016617
370	 0.013208