File: Bakgrunnsmateriale/MATLAB/FTIR/ftir_data/subCa/Mapping_25/BZ12041010-4_t20.asc
PE IR       SPECTRUM    SPECTRUM    ASCII       PEDS        1.60
  -1
BZ2EBE~1.ASC
17/04/10
10:32:24.00
17/04/10
10:32:50.00
tln
$BZ12041010-4_t0020$<tbV0>[-5.2,-4.6,9.0,0.0,22,1,0]
27.028
64

2002,4.07
MIRTGS : RIGHTBACK : INTERNAL 2
MIR : ON : INTERNAL 2
OPTKBR

0.200000
8
8.000000
FILLER
RATIO
SPECTRUM
UNLOCKED 256

DOUBLE
64
COMBINED
1
0
0

0.002000
RATIO

1
0
TRUE
51149
0
LEFT NOT FITTED RIGHT NOT FITTED 0
NONE
NONE
15600
12
4.427000
51148
TRUE
1 0 8 72 0 0 0 0

15798

#HDR
-1
-1
#GR
µM
%T
2.38419e-05
0.0
2.000000
0.002000
12515
8
98.8485
-7.298028
#DATA
2.000000	 65.0423
2.084000	 64.0861
2.168000	 64.7842
2.252000	 64.4094
2.336000	 64.7844
2.420000	 65.6432
2.504000	 65.119
2.588000	 65.1492
2.672000	 65.5125
2.756000	 65.4652
2.840000	 65.2216
2.924000	 65.1051
3.008000	 65.1982
3.092000	 65.373
3.176000	 65.2765
3.260000	 65.1777
3.344000	 65.3631
3.428000	 65.2794
3.512000	 65.3504
3.596000	 65.4644
3.680000	 65.4023
3.764000	 65.2656
3.848000	 65.3205
3.932000	 65.3068
4.016000	 65.3348
4.100000	 65.391
4.184000	 65.3857
4.268000	 65.368
4.352000	 65.3459
4.436000	 65.2157
4.520000	 65.3148
4.604000	 65.273
4.688000	 65.2208
4.772000	 65.2187
4.856000	 65.3235
4.940000	 65.35
5.024000	 65.3361
5.108000	 65.3564
5.192000	 65.2395
5.276000	 65.3814
5.359999	 65.3541
5.444000	 65.2316
5.528000	 65.2773
5.612000	 65.284
5.696000	 65.1724
5.780000	 65.1284
5.864000	 65.1768
5.948000	 65.1885
6.032000	 65.0946
6.116000	 65.2613
6.200000	 65.248
6.284000	 65.2567
6.368000	 65.2636
6.452000	 65.2339
6.536000	 65.116
6.620000	 65.2283
6.704000	 65.2754
6.788000	 65.3129
6.872000	 65.219
6.956000	 65.2419
7.040000	 65.1638
7.124000	 65.1554
7.208000	 65.1637
7.292000	 65.188
7.376000	 65.1215
7.460000	 65.1932
7.544000	 65.204
7.628000	 65.1509
7.712000	 65.1801
7.796000	 65.0775
7.880000	 65.2281
7.964000	 65.0446
8.048000	 65.1458
8.132000	 65.1121
8.216000	 65.1333
8.300000	 65.1394
8.384000	 65.0955
8.468000	 65.3177
8.552000	 65.2007
8.635999	 65.2015
8.719999	 65.2114
8.804000	 65.075
8.888000	 65.2437
8.972000	 65.1197
9.056000	 65.1662
9.140000	 65.1373
9.224000	 65.1138
9.308000	 64.8672
9.391999	 65.1515
9.475999	 65.2161
9.560000	 65.113
9.644000	 65.2569
9.728000	 65.1597
9.812000	 65.0691
9.896000	 65.1662
9.980000	 65.1525
10.064	65.2318
10.148	65.2425
10.232	65.4772
10.316	65.303
10.4	65.2121
10.484	65.3475
10.568	65.4691
10.652	65.3759
10.736	65.1726
10.82	65.2175
10.904	65.2192
10.988	65.219
11.072	65.2975
11.156	65.401
11.24	65.4345
11.324	65.32
11.408	65.4831
11.492	65.5266
11.576	65.5167
11.66	65.3548
11.744	65.3224
11.828	65.4873
11.912	65.4273
11.996	65.528
12.08	65.6407
12.164	65.4761
12.248	65.4247
12.332	65.443
12.416	65.4652
12.5	65.4754
12.584	65.259
12.668	65.2611
12.752	65.4724
12.836	65.6244
12.92	65.686
13.004	65.6691
13.088	65.7343
13.172	65.6524
13.256	65.5496
13.34	65.5715
13.424	65.5714
13.508	65.5426
13.592	65.5599
13.676	65.5473
13.76	65.5418
13.844	65.5329
13.928	65.535
14.012	65.5103
14.096	65.4182
14.18	65.3462
14.264	65.385
14.348	65.4834
14.432	65.4811
14.516	65.4454
14.6	65.4367
14.684	65.3192
14.768	65.2196
14.852	65.2175
14.936	65.2408
15.02	65.3582
15.104	65.4772
15.188	65.5079
15.272	65.5222
15.356	65.4933
15.44	65.3983
15.524	65.2891
15.608	65.2707
15.692	65.3871
15.776	65.4768
15.86	65.4587
15.944	65.4876
16.028	65.6229
16.112	65.7311
16.196	65.7512
16.28	65.7549
16.364	65.7847
16.448	65.8407
16.532	65.9462
16.616	66.0438
16.7	65.9955
16.784	65.8273
16.868	65.7305
16.952	65.7364
17.036	65.6591
17.12	65.4197
17.204	65.1898
17.288	65.1453
17.372	65.251
17.456	65.3428
17.54	65.3301
17.624	65.2888
17.708	65.3467
17.792	65.5097
17.876	65.6409
17.96	65.6238
18.044	65.5116
18.128	65.4949
18.212	65.6769
18.296	65.9453
18.38	66.0991
18.464	66.0522
18.548	65.8885
18.632	65.7661
18.716	65.769
18.8	65.8451
18.884	65.8902
18.968	65.8526
19.052	65.7624
19.136	65.6982
19.22	65.7382
19.304	65.9031
19.388	66.1366
19.472	66.3464
19.556	66.4778
19.64	66.5358
19.724	66.5239
19.808	66.4145
19.892	66.2015
19.976	65.944
20.06	65.7229
20.144	65.5991
20.228	65.6059
20.312	65.7243
20.396	65.8694
20.48	65.9305
20.564	65.8471
20.648	65.6435
20.732	65.4028
20.816	65.2151
20.9	65.148
20.984	65.2229
21.068	65.4025
21.152	65.5974
21.236	65.6999
21.32	65.6532
21.404	65.5057
21.488	65.3829
21.572	65.3909
21.656	65.5457
21.74	65.7703
21.824	65.9762
21.908	66.1614
21.992	66.4116
22.076	66.8123
22.16	67.343
22.244	67.8137
22.328	67.9986
22.412	67.7667
22.496	67.2202
22.58	66.6289
22.664	66.2515
22.748	66.175
22.832	66.272
22.916	66.2812
23	66.0082
23.084	65.4383
23.168	64.7759
23.252	64.3172
23.336	64.3072
23.42	64.8328
23.504	65.8204
23.588	67.1133
23.672	68.5823
23.756	70.1687
23.84	71.8767
23.924	73.6376
24.008	75.2333
24.092	76.2976
24.176	76.4126
24.26	75.3566
24.344	73.1987
24.428	70.2925
24.512	67.2502
24.596	64.5997
24.68	62.6197
24.764	61.2888
24.848	60.3757
24.932	59.6386
25.016	58.9935
25.1	58.5171
25.184	58.3172
25.268	58.3799
25.352	58.5126
25.436	58.3227
25.52	57.4131
25.604	55.6066
25.688	52.837
25.772	49.4036
25.856	45.8896
25.94	42.7974
26.024	39.7023
26.108	35.0028
26.192	27.6535
26.276	18.3104
26.36	10.9444
26.444	8.215234
26.528	9.997323
26.612	10.9136
26.696	6.720008
26.78	-1.895033
26.864	-7.284329
26.948	-0.750850
27.028	16.0314