File: Bakgrunnsmateriale/MATLAB/FTIR/ftir_data/subCa/Mapping_25/BZ12041010-4_t11_cm-1.asc
PE IR       SPECTRUM    SPECTRUM    ASCII       PEDS        1.60
  -1
BZ2C74~1.ASC
17/04/10
09:50:33.00
17/04/10
09:50:33.00
tln
$BZ12041010-4_t0011$<tbV0>[5.2,-7.2,9.0,0.0,22,1,0]
370
64

2002,4.07
MIRTGS : RIGHTBACK : INTERNAL 2
MIR : ON : INTERNAL 2
OPTKBR

0.200000
8
8.000000
FILLER
RATIO
SPECTRUM
UNLOCKED 256

DOUBLE
64
COMBINED
1
0
0

1.000000
RATIO

1
0
TRUE
51149
0
LEFT NOT FITTED RIGHT NOT FITTED 0
NONE
NONE
15600
12
4.427000
51148
TRUE
1 0 8 72 0 0 0 0

15798

#HDR
-1
-1
#GR
CM-1
%T
2.38419e-05
0.0
5000
-1.000000
4631
8
102.072
26.5586
#DATA
5000	64.7082
4984	64.7984
4968	64.6223
4952	64.7992
4936	63.9341
4920	64.6692
4904	65.5653
4888	65.4779
4872	67.4134
4856	66.1279
4840	68.3042
4824	65.005
4808	64.2329
4792	65.6127
4776	65.7332
4760	64.8063
4744	65.2497
4728	65.4473
4712	65.4558
4696	65.1086
4680	65.1355
4664	65.1521
4648	64.7264
4632	64.2238
4616	64.699
4600	64.6935
4584	64.2684
4568	64.2817
4552	63.5042
4536	63.9055
4520	64.1179
4504	64.3837
4488	64.2898
4472	65.4978
4456	97.4283
4440	63.4773
4424	62.3645
4408	63.6832
4392	64.3764
4376	63.577
4360	64.0995
4344	64.4896
4328	64.8758
4312	64.6523
4296	64.7433
4280	64.9929
4264	64.8831
4248	64.8567
4232	65.4159
4216	65.0757
4200	65.2242
4184	65.4439
4168	65.636
4152	65.3232
4136	65.2679
4120	64.9593
4104	65.4011
4088	65.5665
4072	65.3924
4056	64.9378
4040	65.1186
4024	65.1527
4008	64.9029
3992	64.9033
3976	64.9613
3960	64.9848
3944	65.0574
3928	65.0606
3912	64.9048
3896	64.9664
3880	65.2442
3864	65.0682
3848	65.1113
3832	65.0436
3816	65.2117
3800	65.2859
3784	65.3329
3768	65.1824
3752	65.0937
3736	65.3647
3720	65.434
3704	65.4538
3688	65.5154
3672	65.2535
3656	65.3783
3640	65.5663
3624	65.2815
3608	65.3087
3592	65.5116
3576	65.2848
3560	65.2044
3544	65.1691
3528	65.2851
3512	65.2775
3496	65.1139
3480	65.008
3464	65.0875
3448	65.111
3432	65.1313
3416	64.986
3400	65.1749
3384	65.2759
3368	65.2548
3352	65.2264
3336	65.3798
3320	65.2331
3304	65.3472
3288	65.2458
3272	65.0768
3256	65.3825
3240	65.263
3224	65.4878
3208	65.2232
3192	65.2841
3176	65.2624
3160	65.2157
3144	65.3403
3128	65.2581
3112	65.4017
3096	65.3387
3080	65.0726
3064	65.0794
3048	65.2748
3032	65.2144
3016	65.2348
3000	65.1882
2984	65.1839
2968	65.242
2952	65.3462
2936	65.055
2920	65.189
2904	65.2315
2888	65.2256
2872	65.244
2856	65.1583
2840	65.2435
2824	65.2591
2808	65.2831
2792	65.2939
2776	65.2109
2760	65.3003
2744	65.201
2728	65.3221
2712	65.2718
2696	65.2315
2680	65.2171
2664	65.2604
2648	65.2545
2632	65.1845
2616	65.305
2600	65.237
2584	65.257
2568	65.3467
2552	65.2482
2536	65.2622
2520	65.3088
2504	65.3034
2488	65.3608
2472	65.3408
2456	65.3582
2440	65.3317
2424	65.3583
2408	65.3802
2392	65.3046
2376	65.339
2360	65.3497
2344	65.339
2328	65.3253
2312	65.3268
2296	65.3321
2280	65.164
2264	65.331
2248	65.1964
2232	65.2858
2216	65.2687
2200	65.2273
2184	65.2337
2168	65.3687
2152	65.2254
2136	65.2454
2120	65.3029
2104	65.3638
2088	65.2817
2072	65.2775
2056	65.3436
2040	65.3027
2024	65.2267
2008	65.3529
1992	65.2981
1976	65.3593
1960	65.398
1944	65.3518
1928	65.3059
1912	65.3391
1896	65.3389
1880	65.2468
1864	65.2927
1848	65.3014
1832	65.3095
1816	65.2643
1800	65.2318
1784	65.2028
1768	65.1635
1752	65.1499
1736	65.1402
1720	65.0404
1704	65.0996
1688	65.1445
1672	65.1218
1656	65.1476
1640	65.1395
1624	65.1597
1608	65.2655
1592	65.3081
1576	65.1994
1560	65.2512
1544	65.1124
1528	65.1159
1512	65.345
1496	65.3135
1480	65.1151
1464	65.2269
1448	65.2016
1432	65.1562
1416	65.1391
1400	65.1591
1384	65.2268
1368	65.2776
1352	65.0509
1336	65.1007
1320	65.1604
1304	65.1331
1288	65.1275
1272	65.0942
1256	65.0713
1240	65.1614
1224	65.2331
1208	65.2639
1192	65.177
1176	65.2395
1160	65.0539
1144	65.1182
1128	65.2198
1112	65.0495
1096	65.1385
1080	65.0644
1064	65.2078
1048	65.0518
1032	65.0799
1016	65.167
1000	65.0454
984	 65.1896
968	 64.9791
952	 65.1119
936	 65.0656
920	 65.1775
904	 65.2807
888	 65.3495
872	 65.2227
856	 65.1741
840	 65.4065
824	 65.468
808	 65.5374
792	 65.2812
776	 65.2724
760	 65.3733
744	 65.2908
728	 65.3595
712	 65.2985
696	 65.5028
680	 65.3796
664	 65.1966
648	 65.0587
632	 65.2744
616	 65.4761
600	 65.6541
584	 65.473
568	 65.719
552	 65.3759
536	 65.648
520	 65.6199
504	 65.1869
488	 66.4791
472	 65.6956
456	 66.2915
440	 66.3684
424	 66.9004
408	 61.2702
392	 32.5848
376	 46.875
370	 44.8045