File: Bakgrunnsmateriale/MATLAB/FTIR/ftir_data/subCa/Mapping_25/BZ12041010-4_t19.asc
PE IR       SPECTRUM    SPECTRUM    ASCII       PEDS        1.60
  -1
BZ4AB2~1.ASC
17/04/10
10:27:47.00
17/04/10
10:28:13.00
tln
$BZ12041010-4_t0019$<tbV0>[-2.6,-4.6,9.0,0.0,22,1,0]
27.028
64

2002,4.07
MIRTGS : RIGHTBACK : INTERNAL 2
MIR : ON : INTERNAL 2
OPTKBR

0.200000
8
8.000000
FILLER
RATIO
SPECTRUM
UNLOCKED 256

DOUBLE
64
COMBINED
1
0
0

0.002000
RATIO

1
0
TRUE
51149
0
LEFT NOT FITTED RIGHT NOT FITTED 0
NONE
NONE
15600
12
4.427000
51148
TRUE
1 0 8 72 0 0 0 0

15798

#HDR
-1
-1
#GR
µM
%T
2.38419e-05
0.0
2.000000
0.002000
12515
8
76.4426
9.308828
#DATA
2.000000	 65.1032
2.084000	 64.4196
2.168000	 64.0359
2.252000	 63.2401
2.336000	 64.2545
2.420000	 65.0926
2.504000	 64.2183
2.588000	 64.5867
2.672000	 64.7643
2.756000	 64.615
2.840000	 64.3678
2.924000	 64.1629
3.008000	 64.1913
3.092000	 64.2395
3.176000	 64.53
3.260000	 64.4499
3.344000	 64.5397
3.428000	 64.348
3.512000	 64.3708
3.596000	 64.5723
3.680000	 64.5706
3.764000	 64.456
3.848000	 64.4518
3.932000	 64.6034
4.016000	 64.4483
4.100000	 64.5578
4.184000	 64.3953
4.268000	 64.4294
4.352000	 64.3752
4.436000	 64.1909
4.520000	 64.341
4.604000	 64.3681
4.688000	 64.3817
4.772000	 64.241
4.856000	 64.3141
4.940000	 64.2178
5.024000	 64.2459
5.108000	 64.2987
5.192000	 64.1962
5.276000	 64.1581
5.359999	 64.1644
5.444000	 64.1446
5.528000	 64.0718
5.612000	 64.0379
5.696000	 64.0373
5.780000	 63.8716
5.864000	 63.9182
5.948000	 63.9436
6.032000	 63.9675
6.116000	 64.0366
6.200000	 64.006
6.284000	 63.9533
6.368000	 64.1207
6.452000	 64.0084
6.536000	 64.0137
6.620000	 64.0501
6.704000	 64.1158
6.788000	 63.9249
6.872000	 64.0763
6.956000	 63.9358
7.040000	 63.869
7.124000	 63.841
7.208000	 63.8385
7.292000	 63.9994
7.376000	 63.8355
7.460000	 63.8693
7.544000	 63.8512
7.628000	 63.7055
7.712000	 63.9145
7.796000	 63.9226
7.880000	 63.775
7.964000	 63.9015
8.048000	 63.8943
8.132000	 63.9447
8.216000	 64.028
8.300000	 64.0881
8.384000	 64.1649
8.468000	 64.1731
8.552000	 63.919
8.635999	 63.899
8.719999	 63.8314
8.804000	 63.9737
8.888000	 63.9585
8.972000	 63.897
9.056000	 63.8859
9.140000	 63.7395
9.224000	 63.8212
9.308000	 63.579
9.391999	 63.772
9.475999	 63.6242
9.560000	 63.5786
9.644000	 63.753
9.728000	 63.5814
9.812000	 63.4979
9.896000	 63.5191
9.980000	 63.5603
10.064	63.4855
10.148	63.4002
10.232	63.4761
10.316	63.4345
10.4	63.528
10.484	63.5533
10.568	63.6479
10.652	63.4795
10.736	63.4282
10.82	63.6495
10.904	63.8515
10.988	63.7974
11.072	63.767
11.156	63.7052
11.24	63.7241
11.324	63.8563
11.408	63.8453
11.492	63.8746
11.576	63.8062
11.66	63.9077
11.744	63.8613
11.828	63.751
11.912	63.8234
11.996	63.9217
12.08	64.0385
12.164	63.9124
12.248	63.7637
12.332	63.8463
12.416	63.9726
12.5	63.9345
12.584	63.8194
12.668	63.9395
12.752	63.9919
12.836	63.9773
12.92	64.1262
13.004	64.223
13.088	64.2079
13.172	64.0792
13.256	63.9921
13.34	63.9806
13.424	64.0002
13.508	64.1055
13.592	64.3047
13.676	64.3459
13.76	64.2641
13.844	64.3448
13.928	64.3816
14.012	64.1586
14.096	63.9742
14.18	64.0667
14.264	64.2637
14.348	64.3016
14.432	64.2621
14.516	64.2366
14.6	64.1488
14.684	64.0755
14.768	64.1531
14.852	64.2306
14.936	64.0726
15.02	63.8795
15.104	63.9045
15.188	64.0921
15.272	64.2105
15.356	64.1112
15.44	64.0491
15.524	64.1665
15.608	64.2105
15.692	64.1449
15.776	64.1317
15.86	64.1417
15.944	64.1302
16.028	64.158
16.112	64.162
16.196	64.0277
16.28	63.8527
16.364	63.8148
16.448	63.911
16.532	63.983
16.616	63.9267
16.7	63.8024
16.784	63.7369
16.868	63.7769
16.952	63.8566
17.036	63.8615
17.12	63.7427
17.204	63.6139
17.288	63.6568
17.372	63.8593
17.456	63.9955
17.54	63.9288
17.624	63.7753
17.708	63.7159
17.792	63.8073
17.876	63.9937
17.96	64.1748
18.044	64.2586
18.128	64.2586
18.212	64.2876
18.296	64.418
18.38	64.6042
18.464	64.7696
18.548	64.9018
18.632	65.0192
18.716	65.0858
18.8	65.0183
18.884	64.797
18.968	64.5185
19.052	64.325
19.136	64.2783
19.22	64.3257
19.304	64.3817
19.388	64.4353
19.472	64.5569
19.556	64.7952
19.64	65.0766
19.724	65.229
19.808	65.1258
19.892	64.8011
19.976	64.433
20.06	64.2063
20.144	64.1911
20.228	64.3317
20.312	64.5074
20.396	64.6107
20.48	64.5923
20.564	64.4707
20.648	64.3164
20.732	64.2191
20.816	64.2463
20.9	64.4077
20.984	64.6294
21.068	64.7804
21.152	64.7553
21.236	64.5466
21.32	64.2571
21.404	64.0489
21.488	64.0501
21.572	64.2747
21.656	64.6228
21.74	64.9384
21.824	65.1179
21.908	65.1933
21.992	65.2931
22.076	65.5281
22.16	65.8895
22.244	66.2091
22.328	66.2954
22.412	66.0642
22.496	65.6397
22.58	65.257
22.664	65.1053
22.748	65.1866
22.832	65.3059
22.916	65.2021
23	64.7338
23.084	63.9664
23.168	63.1721
23.252	62.6687
23.336	62.6871
23.42	63.2636
23.504	64.2573
23.588	65.4312
23.672	66.5762
23.756	67.5828
23.84	68.477
23.924	69.3434
24.008	70.2743
24.092	71.3212
24.176	72.4036
24.26	73.3651
24.344	73.9915
24.428	74.1091
24.512	73.6843
24.596	72.8434
24.68	71.8065
24.764	70.7942
24.848	69.9358
24.932	69.3034
25.016	68.9259
25.1	68.8004
25.184	68.8851
25.268	69.0674
25.352	69.1648
25.436	68.677
25.52	67.1808
25.604	64.6696
25.688	61.5983
25.772	57.7697
25.856	51.9815
25.94	43.4828
26.024	33.9343
26.108	28.0956
26.192	28.2056
26.276	32.5029
26.36	32.909
26.444	25.6698
26.528	13.7047
26.612	9.998457
26.696	23.0192
26.78	47.9599
26.864	64.7855
26.948	52.5878
27.028	15.0221