File: Bakgrunnsmateriale/MATLAB/FTIR/ftir_data/subCa/Mapping_25/BZ12041010-4_t17.asc
PE IR       SPECTRUM    SPECTRUM    ASCII       PEDS        1.60
  -1
BZ4ABA~1.ASC
17/04/10
10:18:33.00
17/04/10
10:18:59.00
tln
$BZ12041010-4_t0017$<tbV0>[2.6,-4.6,9.0,0.0,22,1,0]
27.028
64

2002,4.07
MIRTGS : RIGHTBACK : INTERNAL 2
MIR : ON : INTERNAL 2
OPTKBR

0.200000
8
8.000000
FILLER
RATIO
SPECTRUM
UNLOCKED 256

DOUBLE
64
COMBINED
1
0
0

0.002000
RATIO

1
0
TRUE
51149
0
LEFT NOT FITTED RIGHT NOT FITTED 0
NONE
NONE
15600
12
4.427000
51148
TRUE
1 0 8 72 0 0 0 0

15798

#HDR
-1
-1
#GR
µM
%T
2.38419e-05
0.0
2.000000
0.002000
12515
8
109.022
32.4323
#DATA
2.000000	 64.9986
2.084000	 66.289
2.168000	 64.2539
2.252000	 63.7346
2.336000	 64.7831
2.420000	 65.4724
2.504000	 65.0247
2.588000	 65.2455
2.672000	 65.392
2.756000	 65.4631
2.840000	 65.3192
2.924000	 65.2027
3.008000	 65.269
3.092000	 65.3007
3.176000	 65.2765
3.260000	 65.2735
3.344000	 65.4001
3.428000	 65.2385
3.512000	 65.3356
3.596000	 65.4901
3.680000	 65.4468
3.764000	 65.2906
3.848000	 65.3263
3.932000	 65.2298
4.016000	 65.384
4.100000	 65.4023
4.184000	 65.3081
4.268000	 65.3126
4.352000	 65.3193
4.436000	 65.2472
4.520000	 65.253
4.604000	 65.3417
4.688000	 65.2533
4.772000	 65.205
4.856000	 65.2939
4.940000	 65.3768
5.024000	 65.3555
5.108000	 65.3849
5.192000	 65.4567
5.276000	 65.3608
5.359999	 65.3144
5.444000	 65.3986
5.528000	 65.2903
5.612000	 65.2102
5.696000	 65.1894
5.780000	 65.158
5.864000	 65.0248
5.948000	 65.1412
6.032000	 65.3167
6.116000	 65.282
6.200000	 65.247
6.284000	 65.2493
6.368000	 65.2954
6.452000	 65.3904
6.536000	 65.2494
6.620000	 65.3497
6.704000	 65.4883
6.788000	 65.2987
6.872000	 65.4213
6.956000	 65.2726
7.040000	 65.2057
7.124000	 65.2239
7.208000	 65.2601
7.292000	 65.2691
7.376000	 65.1242
7.460000	 65.259
7.544000	 65.1161
7.628000	 65.1304
7.712000	 65.1923
7.796000	 65.2406
7.880000	 65.0866
7.964000	 65.0483
8.048000	 65.1026
8.132000	 65.1898
8.216000	 65.2192
8.300000	 65.2471
8.384000	 65.0025
8.468000	 65.2638
8.552000	 65.1444
8.635999	 65.3168
8.719999	 65.1908
8.804000	 65.1434
8.888000	 65.2641
8.972000	 65.1935
9.056000	 65.1592
9.140000	 65.1614
9.224000	 65.0413
9.308000	 65.2234
9.391999	 65.2932
9.475999	 65.1839
9.560000	 65.1023
9.644000	 65.1284
9.728000	 65.089
9.812000	 65.1587
9.896000	 65.1645
9.980000	 65.0214
10.064	65.1735
10.148	65.2462
10.232	65.2604
10.316	65.2599
10.4	65.3035
10.484	65.3801
10.568	65.4053
10.652	65.1763
10.736	65.1142
10.82	65.2555
10.904	65.186
10.988	65.1661
11.072	65.2712
11.156	65.345
11.24	65.3706
11.324	65.1708
11.408	65.1556
11.492	65.2111
11.576	65.2982
11.66	65.2191
11.744	65.2086
11.828	65.3318
11.912	65.3336
11.996	65.3081
12.08	65.4568
12.164	65.5172
12.248	65.5192
12.332	65.4169
12.416	65.44
12.5	65.4187
12.584	65.1774
12.668	65.3043
12.752	65.4186
12.836	65.4376
12.92	65.5205
13.004	65.5748
13.088	65.5764
13.172	65.4589
13.256	65.3911
13.34	65.4703
13.424	65.517
13.508	65.4777
13.592	65.4811
13.676	65.4971
13.76	65.5257
13.844	65.5556
13.928	65.5018
14.012	65.3629
14.096	65.2828
14.18	65.2949
14.264	65.3179
14.348	65.3698
14.432	65.4201
14.516	65.3848
14.6	65.3851
14.684	65.477
14.768	65.5053
14.852	65.488
14.936	65.5093
15.02	65.5368
15.104	65.5554
15.188	65.6394
15.272	65.6925
15.356	65.5305
15.44	65.328
15.524	65.318
15.608	65.4199
15.692	65.4893
15.776	65.4802
15.86	65.4094
15.944	65.3562
16.028	65.3893
16.112	65.4718
16.196	65.5143
16.28	65.4889
16.364	65.4646
16.448	65.5577
16.532	65.7439
16.616	65.8157
16.7	65.6603
16.784	65.4656
16.868	65.507
16.952	65.7535
17.036	65.8903
17.12	65.753
17.204	65.5284
17.288	65.4622
17.372	65.5719
17.456	65.7068
17.54	65.756
17.624	65.7513
17.708	65.757
17.792	65.7468
17.876	65.6618
17.96	65.5387
18.044	65.4843
18.128	65.5671
18.212	65.7488
18.296	65.9154
18.38	65.9593
18.464	65.8609
18.548	65.7151
18.632	65.6562
18.716	65.7273
18.8	65.8314
18.884	65.841
18.968	65.7213
19.052	65.5512
19.136	65.4466
19.22	65.4848
19.304	65.6603
19.388	65.9076
19.472	66.1613
19.556	66.3911
19.64	66.5825
19.724	66.6813
19.808	66.6081
19.892	66.3414
19.976	65.9717
20.06	65.6528
20.144	65.5178
20.228	65.6116
20.312	65.8531
20.396	66.0685
20.48	66.1145
20.564	65.9872
20.648	65.8044
20.732	65.6928
20.816	65.6872
20.9	65.7357
20.984	65.7628
21.068	65.7297
21.152	65.6404
21.236	65.5073
21.32	65.3258
21.404	65.096
21.488	64.8488
21.572	64.644
21.656	64.5488
21.74	64.5975
21.824	64.7896
21.908	65.1129
21.992	65.5521
22.076	66.0789
22.16	66.623
22.244	67.0499
22.328	67.2374
22.412	67.1407
22.496	66.8676
22.58	66.6068
22.664	66.5232
22.748	66.646
22.832	66.8281
22.916	66.8498
23	66.5288
23.084	65.8397
23.168	64.9497
23.252	64.1297
23.336	63.6571
23.42	63.7031
23.504	64.2681
23.588	65.2328
23.672	66.4426
23.756	67.7351
23.84	69.0513
23.924	70.382
24.008	71.7615
24.092	73.2588
24.176	74.8965
24.26	76.6499
24.344	78.4416
24.428	80.1576
24.512	81.6492
24.596	82.8255
24.68	83.6086
24.764	83.8903
24.848	83.5755
24.932	82.5398
25.016	80.6784
25.1	78.0026
25.184	74.5214
25.268	70.3201
25.352	65.6831
25.436	60.8549
25.52	56.0211
25.604	51.3252
25.688	47.3004
25.772	44.0622
25.856	40.9509
25.94	37.1748
26.024	33.419
26.108	32.6262
26.192	36.4328
26.276	43.861
26.36	49.2924
26.444	49.6164
26.528	46.0407
26.612	46.924
26.696	58.0146
26.78	76.6229
26.864	89.6499
26.948	83.7349
27.028	63.1111