File: Bakgrunnsmateriale/MATLAB/FTIR/ftir_data/subCa/Mapping_25/BZ12041010-4_e28.asc
PE IR       SPECTRUM    SPECTRUM    ASCII       PEDS        1.60
  -1
BZ2EBC~1.ASC
17/04/10
10:38:40.00
17/04/10
10:39:07.00
tln
$BZ12041010-4_e0028$<ebV0>[-23.0,28.0,5.5,0.0,22,1,0]
27.028
64

2002,4.07
MIRTGS : RIGHTBACK : INTERNAL 2
MIR : ON : INTERNAL 2
OPTKBR

0.200000
8
8.000000
FILLER
SINGLE
SPECTRUM
UNLOCKED 256

DOUBLE

COMBINED
1
0
0

0.002000
BACKG

1
0
TRUE
51149
0
LEFT NOT FITTED RIGHT NOT FITTED 0
NONE
NONE
15600
12
4.427000
51148
TRUE
1 0 8 72 0 0 0 0

15798

#HDR
-1
-1
#GR
µM
EGY
2.38419e-05
0.0
2.000000
0.002000
12515
8
2.462606
0.013208
#DATA
2.000000	 0.778555
2.084000	 0.879762
2.168000	 0.935828
2.252000	 1.019144
2.336000	 1.144166
2.420000	 1.247552
2.504000	 1.404083
2.588000	 1.458636
2.672000	 1.561084
2.756000	 1.583460
2.840000	 1.637852
2.924000	 1.593858
3.008000	 1.698175
3.092000	 1.792771
3.176000	 1.820684
3.260000	 1.940145
3.344000	 2.040348
3.428000	 1.847807
3.512000	 2.025029
3.596000	 2.225072
3.680000	 2.264163
3.764000	 2.230725
3.848000	 2.234944
3.932000	 2.300803
4.016000	 2.334696
4.100000	 2.295068
4.184000	 2.257725
4.268000	 2.270621
4.352000	 2.347885
4.436000	 2.386115
4.520000	 2.373639
4.604000	 2.344145
4.688000	 2.337871
4.772000	 2.343555
4.856000	 2.389141
4.940000	 2.448158
5.024000	 2.459170
5.108000	 2.435005
5.192000	 2.406439
5.276000	 2.376434
5.359999	 2.386090
5.444000	 2.409230
5.528000	 2.431739
5.612000	 2.431854
5.696000	 2.401248
5.780000	 2.326809
5.864000	 2.283791
5.948000	 2.240683
6.032000	 2.190692
6.116000	 2.140148
6.200000	 2.008022
6.284000	 2.019622
6.368000	 1.983249
6.452000	 1.959182
6.536000	 2.097348
6.620000	 2.083192
6.704000	 1.689294
6.788000	 1.974298
6.872000	 1.791074
6.956000	 1.863241
7.040000	 1.857806
7.124000	 1.728243
7.208000	 1.789118
7.292000	 1.814330
7.376000	 1.815290
7.460000	 1.815232
7.544000	 1.851545
7.628000	 1.854581
7.712000	 1.856873
7.796000	 1.850566
7.880000	 1.772783
7.964000	 1.763244
8.048000	 1.833986
8.132000	 1.826484
8.216000	 1.786937
8.300000	 1.745397
8.384000	 1.738339
8.468000	 1.712231
8.552000	 1.672591
8.635999	 1.622355
8.719999	 1.603500
8.804000	 1.575124
8.888000	 1.524739
8.972000	 1.470700
9.056000	 1.431575
9.140000	 1.422883
9.224000	 1.427957
9.308000	 1.429842
9.391999	 1.439925
9.475999	 1.358327
9.560000	 1.326794
9.644000	 1.384688
9.728000	 1.367318
9.812000	 1.360905
9.896000	 1.381271
9.980000	 1.396032
10.064	1.396890
10.148	1.384963
10.232	1.369780
10.316	1.346133
10.4	1.318576
10.484	1.291852
10.568	1.270002
10.652	1.255620
10.736	1.241305
10.82	1.225290
10.904	1.207836
10.988	1.177807
11.072	1.158932
11.156	1.147275
11.24	1.128544
11.324	1.078630
11.408	1.029659
11.492	1.045585
11.576	1.082563
11.66	1.093089
11.744	1.087791
11.828	1.078801
11.912	1.058118
11.996	0.992144
12.08	0.882099
12.164	0.851733
12.248	0.912828
12.332	0.945428
12.416	0.945952
12.5	0.945281
12.584	0.953267
12.668	0.966992
12.752	0.978151
12.836	0.980208
12.92	0.976533
13.004	0.972241
13.088	0.967491
13.172	0.962269
13.256	0.956757
13.34	0.950515
13.424	0.943094
13.508	0.934275
13.592	0.923883
13.676	0.911137
13.76	0.897368
13.844	0.885130
13.928	0.872690
14.012	0.860103
14.096	0.848298
14.18	0.835169
14.264	0.818151
14.348	0.796340
14.432	0.767098
14.516	0.738750
14.6	0.728572
14.684	0.732122
14.768	0.732792
14.852	0.727151
14.936	0.718827
15.02	0.710167
15.104	0.701446
15.188	0.692193
15.272	0.682943
15.356	0.673657
15.44	0.664059
15.524	0.654250
15.608	0.644831
15.692	0.636034
15.776	0.627633
15.86	0.619079
15.944	0.610130
16.028	0.600889
16.112	0.591692
16.196	0.581725
16.28	0.569010
16.364	0.552785
16.448	0.536332
16.532	0.525459
16.616	0.522483
16.7	0.523379
16.784	0.522593
16.868	0.518602
16.952	0.513483
17.036	0.509204
17.12	0.505943
17.204	0.503180
17.288	0.500776
17.372	0.498762
17.456	0.496656
17.54	0.493668
17.624	0.489456
17.708	0.484531
17.792	0.479874
17.876	0.476065
17.96	0.472679
18.044	0.468915
18.128	0.464309
18.212	0.459275
18.296	0.454340
18.38	0.449917
18.464	0.445872
18.548	0.441865
18.632	0.437364
18.716	0.432283
18.8	0.426480
18.884	0.420161
18.968	0.413648
19.052	0.407352
19.136	0.401602
19.22	0.396498
19.304	0.392036
19.388	0.387837
19.472	0.383649
19.556	0.379314
19.64	0.374727
19.724	0.369611
19.808	0.363710
19.892	0.357058
19.976	0.349959
20.06	0.342818
20.144	0.335599
20.228	0.328106
20.312	0.320394
20.396	0.312644
20.48	0.305150
20.564	0.298026
20.648	0.291156
20.732	0.284291
20.816	0.277376
20.9	0.270638
20.984	0.264375
21.068	0.258720
21.152	0.253560
21.236	0.248640
21.32	0.243638
21.404	0.238508
21.488	0.232982
21.572	0.226988
21.656	0.220337
21.74	0.212996
21.824	0.205260
21.908	0.197540
21.992	0.190262
22.076	0.183631
22.16	0.177734
22.244	0.172524
22.328	0.167878
22.412	0.163654
22.496	0.159689
22.58	0.155938
22.664	0.152184
22.748	0.148377
22.832	0.144338
22.916	0.139923
23	0.135177
23.084	0.130018
23.168	0.124645
23.252	0.119104
23.336	0.113556
23.42	0.108046
23.504	0.102569
23.588	0.097298
23.672	0.092312
23.756	0.087900
23.84	0.084193
23.924	0.081211
24.008	0.078739
24.092	0.076419
24.176	0.073841
24.26	0.070773
24.344	0.067043
24.428	0.062782
24.512	0.058171
24.596	0.053488
24.68	0.048964
24.764	0.044736
24.848	0.040828
24.932	0.037276
25.016	0.034081
25.1	0.031234
25.184	0.028788
25.268	0.026775
25.352	0.025257
25.436	0.024197
25.52	0.023490
25.604	0.023064
25.688	0.022758
25.772	0.022463
25.856	0.022162
25.94	0.021867
26.024	0.021536
26.108	0.021131
26.192	0.020739
26.276	0.020193
26.36	0.019432
26.444	0.018512
26.528	0.017464
26.612	0.016419
26.696	0.015483
26.78	0.014728
26.864	0.014128
26.948	0.013647
27.028	0.013208