File: Bakgrunnsmateriale/MATLAB/FTIR/ftir_data/subCa/Mapping_25/BZ12041010-4_t13.asc
PE IR       SPECTRUM    SPECTRUM    ASCII       PEDS        1.60
  -1
BZ3ABA~1.ASC
17/04/10
09:59:47.00
17/04/10
10:00:13.00
tln
$BZ12041010-4_t0013$<tbV0>[0.0,-7.2,9.0,0.0,22,1,0]
27.028
64

2002,4.07
MIRTGS : RIGHTBACK : INTERNAL 2
MIR : ON : INTERNAL 2
OPTKBR

0.200000
8
8.000000
FILLER
RATIO
SPECTRUM
UNLOCKED 256

DOUBLE
64
COMBINED
1
0
0

0.002000
RATIO

1
0
TRUE
51149
0
LEFT NOT FITTED RIGHT NOT FITTED 0
NONE
NONE
15600
12
4.427000
51148
TRUE
1 0 8 72 0 0 0 0

15798

#HDR
-1
-1
#GR
µM
%T
2.38419e-05
0.0
2.000000
0.002000
12515
8
91.5641
13.1424
#DATA
2.000000	 64.9
2.084000	 64.232
2.168000	 64.3455
2.252000	 62.5042
2.336000	 65.0083
2.420000	 65.2712
2.504000	 64.9239
2.588000	 65.2793
2.672000	 65.3521
2.756000	 65.3321
2.840000	 65.3184
2.924000	 65.0051
3.008000	 65.2399
3.092000	 65.1997
3.176000	 65.2344
3.260000	 65.1285
3.344000	 65.2871
3.428000	 65.1409
3.512000	 65.335
3.596000	 65.4244
3.680000	 65.3704
3.764000	 65.2603
3.848000	 65.2245
3.932000	 65.2131
4.016000	 65.3598
4.100000	 65.4063
4.184000	 65.3291
4.268000	 65.2853
4.352000	 65.2863
4.436000	 65.2791
4.520000	 65.2814
4.604000	 65.3703
4.688000	 65.1559
4.772000	 65.2447
4.856000	 65.25
4.940000	 65.2443
5.024000	 65.3477
5.108000	 65.3515
5.192000	 65.287
5.276000	 65.2341
5.359999	 65.2741
5.444000	 65.3737
5.528000	 65.3059
5.612000	 65.2444
5.696000	 65.2108
5.780000	 65.1203
5.864000	 65.2783
5.948000	 65.204
6.032000	 65.1878
6.116000	 65.2489
6.200000	 65.1954
6.284000	 65.1907
6.368000	 65.1756
6.452000	 65.1814
6.536000	 65.2446
6.620000	 65.1429
6.704000	 65.151
6.788000	 65.2361
6.872000	 65.1172
6.956000	 65.3326
7.040000	 65.1279
7.124000	 65.1702
7.208000	 65.2923
7.292000	 65.2239
7.376000	 65.1567
7.460000	 65.1007
7.544000	 65.1691
7.628000	 65.1729
7.712000	 65.0628
7.796000	 65.1584
7.880000	 65.1053
7.964000	 65.0614
8.048000	 65.0701
8.132000	 65.269
8.216000	 65.0464
8.300000	 65.1067
8.384000	 65.0536
8.468000	 65.0895
8.552000	 65.1445
8.635999	 65.1825
8.719999	 65.2676
8.804000	 65.0255
8.888000	 65.1043
8.972000	 64.9519
9.056000	 65.089
9.140000	 65.1967
9.224000	 65.0624
9.308000	 64.9917
9.391999	 65.2172
9.475999	 65.1346
9.560000	 65.2772
9.644000	 65.3335
9.728000	 65.0649
9.812000	 65.1205
9.896000	 65.1572
9.980000	 65.0707
10.064	65.1572
10.148	65.1002
10.232	65.2783
10.316	65.2472
10.4	65.189
10.484	65.1976
10.568	65.3544
10.652	65.3361
10.736	65.2635
10.82	65.3175
10.904	65.3437
10.988	65.3031
11.072	65.3184
11.156	65.4086
11.24	65.2241
11.324	65.1561
11.408	65.1908
11.492	65.2865
11.576	65.2908
11.66	65.2804
11.744	65.3165
11.828	65.4359
11.912	65.3433
11.996	65.3647
12.08	65.4512
12.164	65.3176
12.248	65.2605
12.332	65.2143
12.416	65.2726
12.5	65.3269
12.584	65.3661
12.668	65.5565
12.752	65.5842
12.836	65.4218
12.92	65.4736
13.004	65.4508
13.088	65.3227
13.172	65.3848
13.256	65.551
13.34	65.5951
13.424	65.4532
13.508	65.335
13.592	65.3072
13.676	65.2836
13.76	65.1961
13.844	65.3498
13.928	65.527
14.012	65.4434
14.096	65.3061
14.18	65.2173
14.264	65.1052
14.348	65.0672
14.432	65.2112
14.516	65.3151
14.6	65.3527
14.684	65.5051
14.768	65.6051
14.852	65.5101
14.936	65.4556
15.02	65.5146
15.104	65.5528
15.188	65.6122
15.272	65.6473
15.356	65.5356
15.44	65.3492
15.524	65.206
15.608	65.159
15.692	65.1757
15.776	65.22
15.86	65.3128
15.944	65.415
16.028	65.4718
16.112	65.5011
16.196	65.514
16.28	65.5324
16.364	65.6374
16.448	65.8664
16.532	66.1038
16.616	66.1769
16.7	66.0252
16.784	65.7405
16.868	65.5
16.952	65.4306
17.036	65.5032
17.12	65.544
17.204	65.3956
17.288	65.1336
17.372	65.0194
17.456	65.1552
17.54	65.3478
17.624	65.4304
17.708	65.4894
17.792	65.6367
17.876	65.8008
17.96	65.8756
18.044	65.9022
18.128	65.9846
18.212	66.1102
18.296	66.18
18.38	66.1586
18.464	66.0835
18.548	65.9852
18.632	65.8943
18.716	65.844
18.8	65.8224
18.884	65.7876
18.968	65.7174
19.052	65.6243
19.136	65.5588
19.22	65.5986
19.304	65.79
19.388	66.079
19.472	66.3337
19.556	66.4575
19.64	66.46
19.724	66.3866
19.808	66.2431
19.892	66.0333
19.976	65.8068
20.06	65.6199
20.144	65.4854
20.228	65.3905
20.312	65.3417
20.396	65.37
20.48	65.4941
20.564	65.6825
20.648	65.8458
20.732	65.8896
20.816	65.774
20.9	65.5408
20.984	65.2674
21.068	65.022
21.152	64.8425
21.236	64.7387
21.32	64.6971
21.404	64.6837
21.488	64.6731
21.572	64.6695
21.656	64.7151
21.74	64.8725
21.824	65.1787
21.908	65.6243
21.992	66.1635
22.076	66.7291
22.16	67.2535
22.244	67.6594
22.328	67.872
22.412	67.8532
22.496	67.629
22.58	67.2602
22.664	66.7972
22.748	66.2773
22.832	65.7485
22.916	65.2668
23	64.9741
23.084	65.027
23.168	65.5537
23.252	66.5808
23.336	67.998
23.42	69.5605
23.504	70.9474
23.588	71.8315
23.672	71.9952
23.756	71.4516
23.84	70.4669
23.924	69.4728
24.008	68.8327
24.092	68.6083
24.176	68.4482
24.26	67.7307
24.344	65.8201
24.428	62.4903
24.512	58.14
24.596	53.6305
24.68	50.0082
24.764	48.1043
24.848	48.1422
24.932	49.7977
25.016	52.4084
25.1	55.3543
25.184	58.0793
25.268	60.278
25.352	61.9698
25.436	63.0705
25.52	63.3236
25.604	62.4162
25.688	60.6044
25.772	58.1383
25.856	54.8342
25.94	50.2989
26.024	45.2288
26.108	42.1027
26.192	42.0484
26.276	43.7904
26.36	42.0239
26.444	34.0797
26.528	21.7041
26.612	13.5304
26.696	16.1016
26.78	28.2455
26.864	38.8125
26.948	35.9288
27.028	23.1533