File: Bakgrunnsmateriale/MATLAB/FTIR/ftir_data/subCa/Mapping_25/BZ12041010-4_t18_cm-1.asc
PE IR       SPECTRUM    SPECTRUM    ASCII       PEDS        1.60
  -1
BZ2CF0~1.ASC
17/04/10
10:23:10.00
17/04/10
10:23:10.00
tln
$BZ12041010-4_t0018$<tbV0>[0.0,-4.6,9.0,0.0,22,1,0]
370
64

2002,4.07
MIRTGS : RIGHTBACK : INTERNAL 2
MIR : ON : INTERNAL 2
OPTKBR

0.200000
8
8.000000
FILLER
RATIO
SPECTRUM
UNLOCKED 256

DOUBLE
64
COMBINED
1
0
0

1.000000
RATIO

1
0
TRUE
51149
0
LEFT NOT FITTED RIGHT NOT FITTED 0
NONE
NONE
15600
12
4.427000
51148
TRUE
1 0 8 72 0 0 0 0

15798

#HDR
-1
-1
#GR
CM-1
%T
2.38419e-05
0.0
5000
-1.000000
4631
8
78.748
3.834056
#DATA
5000	64.9023
4984	65.2642
4968	65.5082
4952	65.041
4936	64.2867
4920	65.23
4904	65.9041
4888	64.7287
4872	65.1762
4856	65.2115
4840	66.5622
4824	65.7973
4808	66.9572
4792	64.8015
4776	64.7963
4760	64.8878
4744	65.5048
4728	65.1611
4712	65.0067
4696	65.2604
4680	65.2595
4664	65.3705
4648	65.2657
4632	65.0474
4616	65.4186
4600	65.2291
4584	65.1507
4568	65.3623
4552	64.9447
4536	65.1178
4520	65.5651
4504	65.7557
4488	66.4639
4472	60.5102
4456	78.748
4440	64.7112
4424	64.697
4408	65.0814
4392	65.6933
4376	65.3891
4360	65.4093
4344	65.2469
4328	65.3888
4312	65.5691
4296	64.9989
4280	65.3589
4264	65.192
4248	65.0156
4232	65.1874
4216	65.1669
4200	65.0228
4184	65.0158
4168	65.3749
4152	65.1471
4136	64.9412
4120	65.0492
4104	65.3233
4088	65.1989
4072	65.2985
4056	65.1272
4040	65.3517
4024	65.0881
4008	65.3104
3992	65.0594
3976	64.9462
3960	65.1214
3944	65.2528
3928	65.5145
3912	65.3741
3896	65.169
3880	65.3354
3864	65.2579
3848	65.2642
3832	65.2865
3816	65.2709
3800	65.3752
3784	65.3298
3768	65.1513
3752	65.1894
3736	65.3378
3720	65.2948
3704	65.417
3688	65.326
3672	65.3809
3656	65.3791
3640	65.3927
3624	65.3384
3608	65.4775
3592	65.3844
3576	65.4275
3560	65.3342
3544	65.3127
3528	65.5933
3512	65.3036
3496	65.3375
3480	65.1947
3464	65.0746
3448	65.3808
3432	65.3085
3416	65.2422
3400	65.2625
3384	65.2943
3368	65.2828
3352	65.412
3336	65.5394
3320	65.3278
3304	65.1381
3288	65.3397
3272	65.2249
3256	65.3774
3240	65.3203
3224	65.4617
3208	65.3815
3192	65.2608
3176	65.276
3160	65.3738
3144	65.3051
3128	65.0707
3112	65.3258
3096	65.3229
3080	65.2308
3064	65.3549
3048	65.2689
3032	65.2755
3016	65.3689
3000	65.3261
2984	65.3488
2968	65.3446
2952	65.1597
2936	65.1788
2920	65.1347
2904	65.26
2888	65.2902
2872	65.2693
2856	65.1811
2840	65.3202
2824	65.422
2808	65.2909
2792	65.2812
2776	65.2914
2760	65.4501
2744	65.3923
2728	65.3864
2712	65.3468
2696	65.2201
2680	65.2459
2664	65.3337
2648	65.3883
2632	65.2638
2616	65.3319
2600	65.3294
2584	65.3621
2568	65.2532
2552	65.3117
2536	65.2979
2520	65.3278
2504	65.3099
2488	65.3209
2472	65.2332
2456	65.4062
2440	65.3812
2424	65.3378
2408	65.4435
2392	65.3384
2376	65.2146
2360	65.2827
2344	65.2644
2328	65.3074
2312	65.3286
2296	65.3587
2280	65.264
2264	65.3677
2248	65.297
2232	65.3159
2216	65.3041
2200	65.4305
2184	65.4264
2168	65.3332
2152	65.1409
2136	65.3457
2120	65.4009
2104	65.3849
2088	65.2903
2072	65.3987
2056	65.4275
2040	65.2819
2024	65.3614
2008	65.3337
1992	65.2732
1976	65.3923
1960	65.3184
1944	65.3016
1928	65.3473
1912	65.3439
1896	65.2136
1880	65.3285
1864	65.2646
1848	65.2685
1832	65.2441
1816	65.3532
1800	65.1996
1784	65.321
1768	65.2368
1752	65.338
1736	65.114
1720	65.107
1704	65.2757
1688	65.1826
1672	65.1594
1656	65.3028
1640	65.1988
1624	65.2613
1608	65.2793
1592	65.339
1576	65.3036
1560	65.5309
1544	65.1519
1528	65.2399
1512	65.3513
1496	65.3127
1480	65.2188
1464	65.2804
1448	65.1953
1432	65.2059
1416	65.1682
1400	65.3573
1384	65.194
1368	65.2345
1352	65.1618
1336	65.2007
1320	65.1649
1304	65.1814
1288	65.21
1272	65.039
1256	65.1732
1240	65.217
1224	65.2167
1208	65.2853
1192	65.0999
1176	65.1377
1160	65.1737
1144	65.1323
1128	65.0662
1112	64.9312
1096	65.0814
1080	64.9723
1064	65.1131
1048	65.0553
1032	65.0577
1016	65.0641
1000	65.14
984	 65.2866
968	 65.238
952	 65.0094
936	 65.1147
920	 65.1946
904	 65.2749
888	 65.3191
872	 65.272
856	 65.3054
840	 65.4856
824	 65.5743
808	 65.337
792	 65.3349
776	 65.5585
760	 65.5328
744	 65.3271
728	 65.425
712	 65.4697
696	 65.3005
680	 65.5845
664	 65.4117
648	 65.4351
632	 65.3603
616	 65.7369
600	 65.4984
584	 65.2864
568	 65.4095
552	 65.6529
536	 65.2807
520	 65.9745
504	 66.2426
488	 65.9241
472	 65.6067
456	 65.274
440	 66.1662
424	 70.0019
408	 68.1729
392	 70.7062
376	 3.834056
370	 5.106735