File: Bakgrunnsmateriale/MATLAB/FTIR/ftir_data/subCa/Mapping_25/BZ12041010-4_t03_cm-1.asc
PE IR       SPECTRUM    SPECTRUM    ASCII       PEDS        1.60
  -1
BZAB7F~1.ASC
17/04/10
09:05:35.00
17/04/10
09:05:35.00
tln
$BZ12041010-4_t0003$<tbV0>[0.0,-12.4,9.0,0.0,22,1,0]
370
64

2002,4.07
MIRTGS : RIGHTBACK : INTERNAL 2
MIR : ON : INTERNAL 2
OPTKBR

0.200000
8
8.000000
FILLER
RATIO
SPECTRUM
UNLOCKED 256

DOUBLE
64
COMBINED
1
0
0

1.000000
RATIO

1
0
TRUE
51149
0
LEFT NOT FITTED RIGHT NOT FITTED 0
NONE
NONE
15600
12
4.427000
51148
TRUE
1 0 8 72 0 0 0 0

15798

#HDR
-1
-1
#GR
CM-1
%T
2.38419e-05
0.0
5000
-1.000000
4631
8
68.9312
43.1155
#DATA
5000	65.318
4984	64.697
4968	64.9531
4952	64.9903
4936	64.8008
4920	64.9916
4904	64.7266
4888	64.367
4872	64.4928
4856	64.8328
4840	64.1671
4824	64.7499
4808	64.7085
4792	64.2444
4776	63.5085
4760	66.581
4744	64.5044
4728	64.7908
4712	65.3286
4696	63.5434
4680	64.1119
4664	64.8446
4648	66.361
4632	65.6453
4616	65.7381
4600	65.2647
4584	66.1265
4568	66.3229
4552	66.3717
4536	66.0028
4520	66.5711
4504	67.3853
4488	59.7359
4472	43.1155
4456	66.2901
4440	66.0877
4424	66.99
4408	66.4958
4392	66.4029
4376	66.3343
4360	65.8829
4344	65.7588
4328	65.5269
4312	65.4778
4296	65.2571
4280	65.426
4264	65.0043
4248	65.2628
4232	64.9189
4216	65.0434
4200	64.7532
4184	64.2834
4168	64.9727
4152	64.8397
4136	64.7493
4120	64.8643
4104	64.9565
4088	65.1239
4072	65.0198
4056	65.0127
4040	65.1646
4024	65.204
4008	64.9777
3992	65.204
3976	65.4411
3960	65.2573
3944	65.3564
3928	65.4107
3912	65.1993
3896	65.3948
3880	65.3583
3864	65.2265
3848	65.3428
3832	65.3505
3816	65.2769
3800	65.2619
3784	65.3932
3768	65.0226
3752	65.2563
3736	65.4104
3720	65.1253
3704	65.1269
3688	65.2232
3672	65.335
3656	65.3248
3640	65.3246
3624	65.3569
3608	65.3083
3592	65.3436
3576	65.229
3560	65.3406
3544	65.1056
3528	65.3657
3512	65.325
3496	65.2088
3480	65.1232
3464	65.2237
3448	65.3338
3432	65.2251
3416	65.2615
3400	65.3701
3384	65.2741
3368	65.2519
3352	65.0577
3336	65.2457
3320	65.127
3304	65.0839
3288	65.0981
3272	65.196
3256	65.3295
3240	65.17
3224	65.0282
3208	65.2643
3192	65.2141
3176	65.1328
3160	65.2622
3144	65.4155
3128	65.2107
3112	65.1631
3096	65.1711
3080	65.073
3064	65.0396
3048	65.3154
3032	65.2099
3016	65.1185
3000	65.1695
2984	65.098
2968	65.201
2952	65.1988
2936	65.0862
2920	65.2844
2904	65.2232
2888	65.1778
2872	65.0088
2856	65.1937
2840	65.0889
2824	65.2354
2808	65.2657
2792	65.1894
2776	65.2115
2760	65.2802
2744	65.3105
2728	65.2367
2712	65.2768
2696	65.3669
2680	65.2001
2664	65.2215
2648	65.2601
2632	65.3496
2616	65.337
2600	65.3044
2584	65.2882
2568	65.2644
2552	65.3455
2536	65.3058
2520	65.2986
2504	65.2979
2488	65.2524
2472	65.3544
2456	65.3359
2440	65.2395
2424	65.3378
2408	65.2281
2392	65.2814
2376	65.3591
2360	65.264
2344	65.3335
2328	65.3568
2312	65.3127
2296	65.4088
2280	65.4153
2264	65.2596
2248	65.2379
2232	65.2601
2216	65.3916
2200	65.2546
2184	65.3241
2168	65.3074
2152	65.4594
2136	65.2996
2120	65.2582
2104	65.3286
2088	65.4287
2072	65.3535
2056	65.3047
2040	65.3819
2024	65.3661
2008	65.4105
1992	65.2923
1976	65.3446
1960	65.2962
1944	65.407
1928	65.2691
1912	65.3099
1896	65.2663
1880	65.2926
1864	65.394
1848	65.4404
1832	65.422
1816	65.3787
1800	65.4681
1784	65.3431
1768	65.5184
1752	65.3871
1736	65.4531
1720	65.381
1704	65.4579
1688	65.5038
1672	65.4166
1656	65.4823
1640	65.3138
1624	65.2611
1608	65.1404
1592	65.1098
1576	65.2507
1560	65.5497
1544	65.4396
1528	65.3199
1512	65.4527
1496	65.447
1480	65.3128
1464	65.4767
1448	65.2346
1432	65.4561
1416	65.371
1400	65.306
1384	65.2054
1368	65.3196
1352	65.3422
1336	65.3118
1320	65.305
1304	65.2376
1288	65.3433
1272	65.2044
1256	65.1633
1240	65.2624
1224	65.2542
1208	65.2788
1192	65.2301
1176	65.2097
1160	65.2233
1144	65.0848
1128	65.1197
1112	65.2895
1096	64.8823
1080	65.2146
1064	65.1334
1048	65.1666
1032	65.0435
1016	64.9894
1000	65.3247
984	 65.1068
968	 65.2155
952	 65.1954
936	 65.3842
920	 65.2763
904	 65.4426
888	 65.4449
872	 65.4851
856	 65.5799
840	 65.3863
824	 65.4952
808	 65.4641
792	 65.2543
776	 65.659
760	 65.443
744	 65.1955
728	 65.5137
712	 65.2786
696	 65.3093
680	 65.4522
664	 65.6443
648	 65.6545
632	 65.2956
616	 65.8249
600	 65.7788
584	 65.6608
568	 66.2087
552	 65.9787
536	 65.9862
520	 66.0849
504	 66.3319
488	 65.783
472	 65.5334
456	 66.1132
440	 66.5697
424	 66.0116
408	 67.1607
392	 67.4848
376	 65.039
370	 67.9436