File: Bakgrunnsmateriale/MATLAB/FTIR/ftir_data/subCa/Mapping_25/BZ12041010-4_t23_cm-1.asc
PE IR       SPECTRUM    SPECTRUM    ASCII       PEDS        1.60
  -1
BZAC7F~1.ASC
17/04/10
10:53:47.00
17/04/10
10:53:47.00
tln
$BZ12041010-4_t0023$<tbV0>[0.0,-2.0,9.0,0.0,22,1,0]
370
64

2002,4.07
MIRTGS : RIGHTBACK : INTERNAL 2
MIR : ON : INTERNAL 2
OPTKBR

0.200000
8
8.000000
FILLER
RATIO
SPECTRUM
UNLOCKED 256

DOUBLE
64
COMBINED
1
0
0

1.000000
RATIO

1
0
TRUE
51149
0
LEFT NOT FITTED RIGHT NOT FITTED 0
NONE
NONE
15600
12
4.427000
51148
TRUE
1 0 8 72 0 0 0 0

15798

#HDR
-1
-1
#GR
CM-1
%T
2.38419e-05
0.0
5000
-1.000000
4631
8
72.8381
31.8898
#DATA
5000	56.2025
4984	56.3647
4968	56.3985
4952	55.5952
4936	56.087
4920	56.3025
4904	55.3689
4888	53.9048
4872	57.4169
4856	57.6563
4840	56.6111
4824	56.7541
4808	56.8238
4792	57.5704
4776	56.0125
4760	56.3879
4744	56.4061
4728	56.5728
4712	56.5342
4696	56.6368
4680	56.6365
4664	56.6836
4648	56.6786
4632	56.4509
4616	56.9435
4600	56.4513
4584	56.8374
4568	56.1372
4552	56.6092
4536	56.5353
4520	56.6483
4504	56.7594
4488	56.5881
4472	54.4241
4456	56.327
4440	56.538
4424	56.9597
4408	56.3815
4392	57.1838
4376	56.9158
4360	56.8281
4344	56.7884
4328	56.9269
4312	56.9111
4296	56.4666
4280	56.8501
4264	56.9748
4248	56.6548
4232	56.5886
4216	56.6149
4200	56.4245
4184	56.5724
4168	56.3034
4152	56.4845
4136	56.394
4120	56.6993
4104	56.9245
4088	56.6465
4072	57.1368
4056	56.8125
4040	57.0844
4024	56.6698
4008	56.5873
3992	56.6653
3976	56.7293
3960	56.6266
3944	56.5265
3928	56.4464
3912	56.6998
3896	56.6416
3880	56.6779
3864	56.645
3848	56.8733
3832	56.7674
3816	56.8079
3800	56.9107
3784	56.9824
3768	56.7735
3752	56.7665
3736	56.829
3720	56.8335
3704	56.5103
3688	56.8008
3672	56.7133
3656	56.7128
3640	56.606
3624	57.03
3608	56.8639
3592	56.7328
3576	56.8016
3560	56.8802
3544	56.7221
3528	56.6812
3512	56.3783
3496	56.4994
3480	56.4047
3464	56.5021
3448	56.5081
3432	56.3597
3416	56.4982
3400	56.5009
3384	56.5461
3368	56.4813
3352	56.7244
3336	56.6099
3320	56.5649
3304	56.7229
3288	56.4572
3272	56.6562
3256	56.6605
3240	56.5466
3224	56.6571
3208	56.4508
3192	56.5484
3176	56.6561
3160	56.4982
3144	56.6264
3128	56.7403
3112	56.7261
3096	56.6779
3080	56.7984
3064	56.8754
3048	56.7199
3032	56.6419
3016	56.7422
3000	56.6715
2984	56.7309
2968	56.5552
2952	56.5358
2936	56.3924
2920	56.5747
2904	56.5106
2888	56.4987
2872	56.4736
2856	56.636
2840	56.7225
2824	56.9041
2808	56.8367
2792	56.897
2776	56.8551
2760	56.8143
2744	56.8063
2728	56.6307
2712	56.643
2696	56.7134
2680	56.7226
2664	56.6134
2648	56.7681
2632	56.773
2616	56.824
2600	56.8957
2584	56.9051
2568	56.8149
2552	56.8762
2536	56.9554
2520	56.8291
2504	56.7231
2488	56.7493
2472	56.8652
2456	56.7654
2440	56.8314
2424	56.8552
2408	56.8152
2392	56.7949
2376	56.7918
2360	56.8498
2344	56.8972
2328	56.7525
2312	56.873
2296	56.8662
2280	56.7721
2264	56.7908
2248	56.8068
2232	56.8043
2216	56.6655
2200	56.6574
2184	56.6448
2168	56.6706
2152	56.7463
2136	56.7321
2120	56.7968
2104	56.8265
2088	56.839
2072	56.7542
2056	56.765
2040	56.8051
2024	56.7344
2008	56.6916
1992	56.6799
1976	56.5706
1960	56.5859
1944	56.6402
1928	56.5703
1912	56.5734
1896	56.5856
1880	56.6933
1864	56.5788
1848	56.5716
1832	56.6739
1816	56.7827
1800	56.716
1784	56.6426
1768	56.5196
1752	56.4173
1736	56.3658
1720	56.3555
1704	56.3472
1688	56.4077
1672	56.2694
1656	56.4488
1640	56.4822
1624	56.5631
1608	56.5685
1592	56.4912
1576	56.5251
1560	56.5893
1544	56.6378
1528	56.609
1512	56.5243
1496	56.3534
1480	56.5277
1464	56.4826
1448	56.4124
1432	56.4188
1416	56.3812
1400	56.3981
1384	56.4108
1368	56.3341
1352	56.4409
1336	56.3273
1320	56.2159
1304	56.2766
1288	56.2771
1272	56.3591
1256	56.1813
1240	56.3925
1224	56.4413
1208	56.414
1192	56.4836
1176	56.4091
1160	56.1633
1144	56.1973
1128	56.6848
1112	56.281
1096	56.3907
1080	56.3427
1064	55.9653
1048	55.999
1032	56.0847
1016	55.8404
1000	56.094
984	 55.9225
968	 56.0889
952	 55.9521
936	 56.3438
920	 56.2183
904	 56.1919
888	 56.2406
872	 56.497
856	 56.3638
840	 56.3349
824	 56.3498
808	 56.5329
792	 56.5537
776	 56.2922
760	 56.3515
744	 56.443
728	 56.6078
712	 56.8158
696	 56.5001
680	 56.7293
664	 56.4228
648	 56.3669
632	 56.1721
616	 56.618
600	 56.2182
584	 56.635
568	 56.6515
552	 56.4136
536	 56.7296
520	 57.1454
504	 56.0704
488	 56.2213
472	 57.5575
456	 56.0554
440	 56.6628
424	 48.2119
408	 59.7108
392	 61.7734
376	 31.9218
370	 43.3511