File: Bakgrunnsmateriale/MATLAB/FTIR/ftir_data/subCa/Mapping_25/BZ12041010-4_t24_cm-1.asc
PE IR       SPECTRUM    SPECTRUM    ASCII       PEDS        1.60
  -1
BZACFE~1.ASC
17/04/10
10:58:24.00
17/04/10
10:58:24.00
tln
$BZ12041010-4_t0024$<tbV0>[-2.6,-2.0,9.0,0.0,22,1,0]
370
64

2002,4.07
MIRTGS : RIGHTBACK : INTERNAL 2
MIR : ON : INTERNAL 2
OPTKBR

0.200000
8
8.000000
FILLER
RATIO
SPECTRUM
UNLOCKED 256

DOUBLE
64
COMBINED
1
0
0

1.000000
RATIO

1
0
TRUE
51149
0
LEFT NOT FITTED RIGHT NOT FITTED 0
NONE
NONE
15600
12
4.427000
51148
TRUE
1 0 8 72 0 0 0 0

15798

#HDR
-1
-1
#GR
CM-1
%T
2.38419e-05
0.0
5000
-1.000000
4631
8
82.1369
26.5305
#DATA
5000	57.5375
4984	57.9526
4968	58.3122
4952	57.4432
4936	57.9066
4920	58.3347
4904	57.5735
4888	59.3135
4872	56.0866
4856	58.5115
4840	58.3397
4824	58.9881
4808	58.2349
4792	58.6217
4776	58.02
4760	57.9833
4744	58.4651
4728	58.7876
4712	58.2055
4696	58.3096
4680	58.6402
4664	58.0719
4648	58.2157
4632	58.003
4616	58.2226
4600	58.1228
4584	58.2098
4568	57.8402
4552	58.2871
4536	57.6312
4520	58.41
4504	58.3972
4488	56.9729
4472	56.2405
4456	60.5212
4440	57.4803
4424	58.286
4408	58.0478
4392	57.9602
4376	57.9909
4360	57.9893
4344	58.3264
4328	58.4541
4312	58.541
4296	58.3715
4280	58.2489
4264	58.4693
4248	58.3709
4232	58.1485
4216	58.3887
4200	58.1302
4184	58.4377
4168	58.4096
4152	58.0453
4136	58.3169
4120	58.4785
4104	58.3565
4088	58.6883
4072	58.5899
4056	58.4938
4040	58.5518
4024	58.4986
4008	58.4352
3992	58.3464
3976	58.3366
3960	58.2226
3944	58.3217
3928	58.2042
3912	58.3013
3896	58.3632
3880	58.337
3864	58.4234
3848	58.5757
3832	58.4858
3816	58.5186
3800	58.4052
3784	58.5958
3768	58.3638
3752	58.4325
3736	58.413
3720	58.2086
3704	58.2272
3688	58.3993
3672	58.5129
3656	58.3841
3640	58.2587
3624	58.6191
3608	58.5587
3592	58.5934
3576	58.5597
3560	58.3938
3544	58.3051
3528	58.5124
3512	58.3702
3496	58.3709
3480	58.2662
3464	58.2964
3448	58.2742
3432	58.4338
3416	58.5361
3400	58.4432
3384	58.5144
3368	58.5674
3352	58.5319
3336	58.5372
3320	58.6475
3304	58.3679
3288	58.5097
3272	58.4362
3256	58.5192
3240	58.3007
3224	58.4388
3208	58.2337
3192	58.2645
3176	58.3544
3160	58.3356
3144	58.3783
3128	58.5874
3112	58.5257
3096	58.4253
3080	58.6468
3064	58.5081
3048	58.5357
3032	58.5527
3016	58.41
3000	58.4764
2984	58.27
2968	58.1219
2952	58.3405
2936	58.2876
2920	58.2628
2904	58.1953
2888	58.4601
2872	58.4041
2856	58.5438
2840	58.4557
2824	58.6237
2808	58.4756
2792	58.4468
2776	58.5718
2760	58.382
2744	58.444
2728	58.3893
2712	58.3854
2696	58.4428
2680	58.5232
2664	58.3732
2648	58.5375
2632	58.6535
2616	58.5893
2600	58.5956
2584	58.6426
2568	58.6346
2552	58.4994
2536	58.5929
2520	58.5274
2504	58.5135
2488	58.4795
2472	58.5138
2456	58.4238
2440	58.4763
2424	58.3408
2408	58.5684
2392	58.5807
2376	58.585
2360	58.6265
2344	58.6315
2328	58.5448
2312	58.6407
2296	58.6095
2280	58.6179
2264	58.5503
2248	58.6112
2232	58.5601
2216	58.6225
2200	58.4811
2184	58.5003
2168	58.4862
2152	58.626
2136	58.5429
2120	58.6423
2104	58.5846
2088	58.522
2072	58.4689
2056	58.6467
2040	58.6045
2024	58.5493
2008	58.5806
1992	58.4859
1976	58.4966
1960	58.4784
1944	58.3841
1928	58.5015
1912	58.489
1896	58.4972
1880	58.6005
1864	58.4996
1848	58.5207
1832	58.4917
1816	58.5763
1800	58.5217
1784	58.5322
1768	58.4983
1752	58.241
1736	58.1668
1720	58.2297
1704	58.2321
1688	58.3762
1672	58.3316
1656	58.41
1640	58.3968
1624	58.3857
1608	58.3938
1592	58.4189
1576	58.3897
1560	58.4045
1544	58.5085
1528	58.5017
1512	58.3568
1496	58.3615
1480	58.3262
1464	58.204
1448	58.3305
1432	58.4209
1416	58.3498
1400	58.3439
1384	58.2448
1368	58.4225
1352	58.4179
1336	58.4451
1320	58.1965
1304	58.2664
1288	58.2954
1272	58.2901
1256	58.1094
1240	58.3977
1224	58.2388
1208	58.2275
1192	58.2178
1176	58.2669
1160	58.2776
1144	58.3488
1128	58.5369
1112	58.483
1096	58.3548
1080	58.4658
1064	58.2575
1048	58.401
1032	58.502
1016	58.4184
1000	58.3688
984	 58.4798
968	 58.4747
952	 58.5285
936	 58.6358
920	 58.3279
904	 58.4354
888	 58.5068
872	 58.5048
856	 58.488
840	 58.4011
824	 58.419
808	 58.6123
792	 58.8337
776	 58.365
760	 58.3361
744	 58.3492
728	 58.47
712	 58.2571
696	 58.0328
680	 58.3213
664	 58.669
648	 58.6498
632	 58.5273
616	 58.4902
600	 58.3463
584	 58.9554
568	 59.2575
552	 58.5678
536	 59.3867
520	 59.3643
504	 57.4858
488	 58.514
472	 58.8304
456	 60.9012
440	 59.3772
424	 61.8522
408	 61.5477
392	 43.58
376	 26.8833
370	 41.494