File: Bakgrunnsmateriale/MATLAB/FTIR/ftir_data/subCa/Mapping_25/BZ12041010-4_t24.asc
PE IR       SPECTRUM    SPECTRUM    ASCII       PEDS        1.60
  -1
BZ3EBE~1.ASC
17/04/10
10:58:24.00
17/04/10
10:58:50.00
tln
$BZ12041010-4_t0024$<tbV0>[-2.6,-2.0,9.0,0.0,22,1,0]
27.028
64

2002,4.07
MIRTGS : RIGHTBACK : INTERNAL 2
MIR : ON : INTERNAL 2
OPTKBR

0.200000
8
8.000000
FILLER
RATIO
SPECTRUM
UNLOCKED 256

DOUBLE
64
COMBINED
1
0
0

0.002000
RATIO

1
0
TRUE
51149
0
LEFT NOT FITTED RIGHT NOT FITTED 0
NONE
NONE
15600
12
4.427000
51148
TRUE
1 0 8 72 0 0 0 0

15798

#HDR
-1
-1
#GR
µM
%T
2.38419e-05
0.0
2.000000
0.002000
12515
8
79.9245
26.5306
#DATA
2.000000	 57.5375
2.084000	 58.0837
2.168000	 58.132
2.252000	 57.5558
2.336000	 58.2801
2.420000	 58.4834
2.504000	 58.4211
2.588000	 58.4234
2.672000	 58.4658
2.756000	 58.5744
2.840000	 58.465
2.924000	 58.4769
3.008000	 58.6679
3.092000	 58.3823
3.176000	 58.4308
3.260000	 58.6009
3.344000	 58.3375
3.428000	 58.2198
3.512000	 58.4676
3.596000	 58.5387
3.680000	 58.4023
3.764000	 58.3891
3.848000	 58.5841
3.932000	 58.609
4.016000	 58.5015
4.100000	 58.4699
4.184000	 58.5702
4.268000	 58.6467
4.352000	 58.6543
4.436000	 58.6167
4.520000	 58.6009
4.604000	 58.4868
4.688000	 58.568
4.772000	 58.5882
4.856000	 58.7147
4.940000	 58.55
5.024000	 58.5227
5.108000	 58.474
5.192000	 58.4847
5.276000	 58.4996
5.359999	 58.5194
5.444000	 58.4853
5.528000	 58.5915
5.612000	 58.5176
5.696000	 58.2957
5.780000	 58.1828
5.864000	 58.2396
5.948000	 58.3465
6.032000	 58.4123
6.116000	 58.4756
6.200000	 58.4199
6.284000	 58.4273
6.368000	 58.385
6.452000	 58.4039
6.536000	 58.5214
6.620000	 58.3446
6.704000	 58.3665
6.788000	 58.2582
6.872000	 58.2717
6.956000	 58.3392
7.040000	 58.381
7.124000	 58.3591
7.208000	 58.199
7.292000	 58.3944
7.376000	 58.4649
7.460000	 58.5015
7.544000	 58.208
7.628000	 58.4252
7.712000	 58.0704
7.796000	 58.2681
7.880000	 58.2659
7.964000	 58.1102
8.048000	 58.3269
8.132000	 58.197
8.216000	 58.1831
8.300000	 58.2649
8.384000	 58.2177
8.468000	 58.2625
8.552000	 58.2611
8.635999	 58.3006
8.719999	 58.3276
8.804000	 58.4797
8.888000	 58.5758
8.972000	 58.5059
9.056000	 58.4841
9.140000	 58.3269
9.224000	 58.4998
9.308000	 58.4259
9.391999	 58.2344
9.475999	 58.4138
9.560000	 58.4056
9.644000	 58.4874
9.728000	 58.4524
9.812000	 58.4368
9.896000	 58.4048
9.980000	 58.3993
10.064	58.3138
10.148	58.4435
10.232	58.5957
10.316	58.4778
10.4	58.4889
10.484	58.5096
10.568	58.6228
10.652	58.6882
10.736	58.5456
10.82	58.4096
10.904	58.333
10.988	58.5455
11.072	58.4162
11.156	58.4946
11.24	58.5228
11.324	58.4279
11.408	58.4592
11.492	58.5138
11.576	58.5349
11.66	58.4832
11.744	58.4338
11.828	58.2859
11.912	58.4145
11.996	58.4152
12.08	58.4248
12.164	58.3859
12.248	58.3182
12.332	58.4587
12.416	58.6828
12.5	58.5335
12.584	58.6607
12.668	58.8795
12.752	58.4664
12.836	58.2544
12.92	58.4135
13.004	58.3339
13.088	58.3
13.172	58.3404
13.256	58.3464
13.34	58.3786
13.424	58.367
13.508	58.2581
13.592	58.1948
13.676	58.3041
13.76	58.5235
13.844	58.5716
13.928	58.5021
14.012	58.3456
14.096	58.1375
14.18	58.0622
14.264	58.02
14.348	58.0067
14.432	58.2029
14.516	58.4357
14.6	58.4745
14.684	58.3598
14.768	58.2513
14.852	58.366
14.936	58.6478
15.02	58.7439
15.104	58.5377
15.188	58.3548
15.272	58.4287
15.356	58.6006
15.44	58.6472
15.524	58.5722
15.608	58.5096
15.692	58.5012
15.776	58.5144
15.86	58.5396
15.944	58.5657
16.028	58.5932
16.112	58.614
16.196	58.5508
16.28	58.4163
16.364	58.3941
16.448	58.5242
16.532	58.566
16.616	58.4255
16.7	58.3298
16.784	58.4311
16.868	58.6435
16.952	58.8328
17.036	58.9335
17.12	58.9552
17.204	58.9679
17.288	59.0131
17.372	59.0615
17.456	59.1013
17.54	59.1739
17.624	59.2794
17.708	59.3134
17.792	59.1753
17.876	58.9168
17.96	58.6865
18.044	58.5708
18.128	58.5759
18.212	58.7034
18.296	58.9447
18.38	59.2229
18.464	59.4233
18.548	59.4827
18.632	59.4188
18.716	59.3105
18.8	59.2574
18.884	59.2918
18.968	59.3579
19.052	59.3937
19.136	59.3911
19.22	59.3684
19.304	59.3239
19.388	59.2195
19.472	58.9974
19.556	58.6237
19.64	58.1474
19.724	57.7152
19.808	57.4949
19.892	57.5488
19.976	57.7812
20.06	58.027
20.144	58.1837
20.228	58.2617
20.312	58.3208
20.396	58.3999
20.48	58.4981
20.564	58.6313
20.648	58.8441
20.732	59.1598
20.816	59.52
20.9	59.7875
20.984	59.8101
21.068	59.5393
21.152	59.0562
21.236	58.5086
21.32	58.0346
21.404	57.7159
21.488	57.6241
21.572	57.8493
21.656	58.4528
21.74	59.3631
21.824	60.2936
21.908	60.85
21.992	60.8273
22.076	60.3958
22.16	60.0335
22.244	60.1766
22.328	60.8531
22.412	61.6619
22.496	62.0165
22.58	61.5783
22.664	60.4307
22.748	59.043
22.832	57.9331
22.916	57.451
23	57.6549
23.084	58.4079
23.168	59.486
23.252	60.6708
23.336	61.7213
23.42	62.3936
23.504	62.4562
23.588	61.8173
23.672	60.5902
23.756	59.0835
23.84	57.7145
23.924	56.8511
24.008	56.6733
24.092	57.1358
24.176	58.0174
24.26	59.0795
24.344	60.1149
24.428	60.9812
24.512	61.558
24.596	61.746
24.68	61.5018
24.764	60.882
24.848	60.0614
24.932	59.203
25.016	58.3284
25.1	57.2971
25.184	55.8007
25.268	53.5571
25.352	50.5118
25.436	46.8859
25.52	43.1635
25.604	39.9142
25.688	37.5562
25.772	36.1709
25.856	35.5136
25.94	35.1346
26.024	34.5555
26.108	33.487
26.192	31.9026
26.276	30.0358
26.36	28.2615
26.444	26.9861
26.528	26.5312
26.612	27.07
26.696	28.6334
26.78	31.0985
26.864	34.2483
26.948	37.8545
27.028	41.494