File: Bakgrunnsmateriale/MATLAB/FTIR/ftir_data/subAa/Mapping_121/BZ1503107-1_t95.asc
PE IR       SPECTRUM    SPECTRUM    ASCII       PEDS        1.60
  -1
BZ3D5B~1.ASC
17/04/07
21:04:28.00
17/04/07
21:04:55.00
tln
$BZ1503107-1_t0095$<tbV0>[-2.6,7.8,8.0,0.0,27,1,0]
27.028
64

2002,4.07
MIRTGS : RIGHTBACK : INTERNAL 2
MIR : ON : INTERNAL 2
OPTKBR

0.200000
8
8.000000
FILLER
RATIO
SPECTRUM
UNLOCKED 256

DOUBLE
64
COMBINED
1
0
0

0.002000
RATIO

1
0
TRUE
51149
0
LEFT NOT FITTED RIGHT NOT FITTED 0
NONE
NONE
15600
12
4.427000
51148
TRUE
1 0 8 72 0 0 0 0

15798

#HDR
-1
-1
#GR
µM
%T
2.38419e-05
0.0
2.000000
0.002000
12515
8
73.8738
50.1984
#DATA
2.000000	 63.7491
2.084000	 64.8915
2.168000	 64.8606
2.252000	 64.3944
2.336000	 64.9577
2.420000	 65.0276
2.504000	 64.9038
2.588000	 65.1441
2.672000	 65.0087
2.756000	 65.1265
2.840000	 65.0269
2.924000	 65.0916
3.008000	 64.8796
3.092000	 64.9762
3.176000	 64.8107
3.260000	 64.9762
3.344000	 64.7363
3.428000	 64.6118
3.512000	 64.6782
3.596000	 64.8298
3.680000	 64.7575
3.764000	 64.6069
3.848000	 64.6992
3.932000	 64.5586
4.016000	 64.6945
4.100000	 64.4863
4.184000	 64.557
4.268000	 64.518
4.352000	 64.5295
4.436000	 64.4817
4.520000	 64.4077
4.604000	 64.3934
4.688000	 64.3474
4.772000	 64.2096
4.856000	 64.3875
4.940000	 64.2452
5.024000	 64.3356
5.108000	 64.2359
5.192000	 63.9955
5.276000	 64.087
5.359999	 63.9998
5.444000	 64.1106
5.528000	 64.0898
5.612000	 63.9437
5.696000	 63.8465
5.780000	 63.4402
5.864000	 63.7303
5.948000	 63.7723
6.032000	 63.8338
6.116000	 63.727
6.200000	 63.8529
6.284000	 63.8306
6.368000	 63.6885
6.452000	 63.6722
6.536000	 63.7126
6.620000	 63.647
6.704000	 63.6896
6.788000	 63.5702
6.872000	 63.393
6.956000	 63.5943
7.040000	 63.4411
7.124000	 63.5509
7.208000	 63.4489
7.292000	 63.3799
7.376000	 63.4195
7.460000	 63.3397
7.544000	 63.5298
7.628000	 63.4436
7.712000	 63.407
7.796000	 63.0838
7.880000	 63.0829
7.964000	 63.1125
8.048000	 63.266
8.132000	 63.214
8.216000	 63.2067
8.300000	 63.0592
8.384000	 63.1527
8.468000	 63.0565
8.552000	 62.8284
8.635999	 63.0081
8.719999	 63.1411
8.804000	 63.1216
8.888000	 63.0495
8.972000	 63.0275
9.056000	 63.0373
9.140000	 63.0434
9.224000	 62.9057
9.308000	 62.9721
9.391999	 63.0437
9.475999	 63.0062
9.560000	 62.9355
9.644000	 62.9726
9.728000	 63.0626
9.812000	 63.0929
9.896000	 62.9444
9.980000	 62.9282
10.064	62.9244
10.148	63.0317
10.232	62.8971
10.316	62.9333
10.4	63.098
10.484	63.1605
10.568	63.0203
10.652	63.0223
10.736	62.9928
10.82	63.0851
10.904	63.1282
10.988	62.9884
11.072	62.7293
11.156	62.8583
11.24	62.7808
11.324	62.7865
11.408	62.8863
11.492	62.9172
11.576	62.9098
11.66	62.7963
11.744	62.6567
11.828	62.6978
11.912	62.7044
11.996	62.7335
12.08	62.7115
12.164	62.8535
12.248	62.9169
12.332	62.9734
12.416	62.9763
12.5	62.769
12.584	62.7492
12.668	62.7853
12.752	62.8136
12.836	62.6765
12.92	62.5244
13.004	62.5935
13.088	62.6798
13.172	62.6079
13.256	62.4912
13.34	62.5344
13.424	62.6436
13.508	62.6634
13.592	62.7356
13.676	62.8378
13.76	62.5953
13.844	62.294
13.928	62.3384
14.012	62.4832
14.096	62.5314
14.18	62.5148
14.264	62.5303
14.348	62.4725
14.432	62.4135
14.516	62.4848
14.6	62.5271
14.684	62.3878
14.768	62.2517
14.852	62.3603
14.936	62.4409
15.02	62.2876
15.104	62.1945
15.188	62.2313
15.272	62.1994
15.356	62.106
15.44	62.1064
15.524	62.2368
15.608	62.3298
15.692	62.3343
15.776	62.3664
15.86	62.3756
15.944	62.3129
16.028	62.2796
16.112	62.2314
16.196	62.0729
16.28	62.023
16.364	62.3076
16.448	62.6251
16.532	62.5457
16.616	62.2586
16.7	62.2151
16.784	62.3371
16.868	62.292
16.952	62.0848
17.036	61.9432
17.12	61.9505
17.204	62.0386
17.288	62.1643
17.372	62.3537
17.456	62.5358
17.54	62.4953
17.624	62.1996
17.708	61.935
17.792	61.9191
17.876	62.0456
17.96	62.1437
18.044	62.2039
18.128	62.2203
18.212	62.1159
18.296	61.885
18.38	61.6074
18.464	61.4108
18.548	61.4327
18.632	61.6659
18.716	61.8468
18.8	61.6635
18.884	61.1588
18.968	60.7591
19.052	60.8644
19.136	61.494
19.22	62.3534
19.304	63.1059
19.388	63.5628
19.472	63.6899
19.556	63.538
19.64	63.1616
19.724	62.5521
19.808	61.7155
19.892	60.8024
19.976	60.086
20.06	59.7576
20.144	59.8108
20.228	60.1333
20.312	60.6271
20.396	61.195
20.48	61.6732
20.564	61.874
20.648	61.7677
20.732	61.5583
20.816	61.5199
20.9	61.7559
20.984	62.1415
21.068	62.4669
21.152	62.5935
21.236	62.524
21.32	62.3537
21.404	62.1955
21.488	62.1149
21.572	62.124
21.656	62.2064
21.74	62.3304
21.824	62.4596
21.908	62.5441
21.992	62.5131
22.076	62.3043
22.16	61.9132
22.244	61.4413
22.328	61.0712
22.412	60.9705
22.496	61.1832
22.58	61.6181
22.664	62.1149
22.748	62.5298
22.832	62.8107
22.916	62.9623
23	62.9956
23.084	62.8936
23.168	62.6086
23.252	62.1268
23.336	61.5371
23.42	61.0336
23.504	60.8488
23.588	61.1267
23.672	61.8382
23.756	62.7611
23.84	63.5578
23.924	63.9107
24.008	63.642
24.092	62.7553
24.176	61.4153
24.26	59.8664
24.344	58.3667
24.428	57.1274
24.512	56.3847
24.596	56.3106
24.68	56.9681
24.764	58.26
24.848	59.9331
24.932	61.6106
25.016	62.9433
25.1	63.7757
25.184	64.1552
25.268	64.3151
25.352	64.5819
25.436	65.2499
25.52	66.4463
25.604	68.1033
25.688	70.0118
25.772	71.855
25.856	73.2628
25.94	73.8693
26.024	73.3331
26.108	71.4295
26.192	68.1793
26.276	63.8998
26.36	59.1703
26.444	54.7867
26.528	51.5995
26.612	50.2212
26.696	51.0292
26.78	54.079
26.864	59.1243
26.948	65.651
27.028	72.5197