File: Bakgrunnsmateriale/MATLAB/FTIR/ftir_data/subAa/Mapping_121/BZ1503107-1_t36_cm-1.asc
PE IR       SPECTRUM    SPECTRUM    ASCII       PEDS        1.60
  -1
BZ6EA0~1.ASC
17/04/07
16:10:31.00
17/04/07
16:10:31.00
tln
$BZ1503107-1_t0036$<tbV0>[7.8,-5.2,8.0,0.0,27,1,0]
370
64

2002,4.07
MIRTGS : RIGHTBACK : INTERNAL 2
MIR : ON : INTERNAL 2
OPTKBR

0.200000
8
8.000000
FILLER
RATIO
SPECTRUM
UNLOCKED 256

DOUBLE
64
COMBINED
1
0
0

1.000000
RATIO

1
0
TRUE
51149
0
LEFT NOT FITTED RIGHT NOT FITTED 0
NONE
NONE
15600
12
4.427000
51148
TRUE
1 0 8 72 0 0 0 0

15798

#HDR
-1
-1
#GR
CM-1
%T
2.38419e-05
0.0
5000
-1.000000
4631
8
77.5582
40.4587
#DATA
5000	65.3729
4984	64.9178
4968	64.3305
4952	64.0314
4936	64.4152
4920	64.9096
4904	64.8811
4888	64.5951
4872	65.0236
4856	65.1455
4840	65.4505
4824	65.1594
4808	64.9435
4792	64.7316
4776	64.9566
4760	65.4022
4744	65.257
4728	65.3147
4712	65.5486
4696	65.0286
4680	64.5975
4664	65.0161
4648	65.2735
4632	64.7764
4616	64.8795
4600	65.0239
4584	64.8971
4568	64.9243
4552	64.6792
4536	64.7326
4520	64.7637
4504	65.3092
4488	64.6077
4472	64.5239
4456	64.9445
4440	66.1119
4424	60.4926
4408	68.363
4392	66.1108
4376	64.8603
4360	64.8186
4344	64.8721
4328	64.3605
4312	64.7343
4296	65.3321
4280	64.8036
4264	64.8818
4248	64.7744
4232	65.1263
4216	64.977
4200	65.3416
4184	65.2856
4168	64.8455
4152	65.0739
4136	65.3209
4120	65.1567
4104	64.9735
4088	65.2466
4072	65.286
4056	65.0519
4040	64.9487
4024	65.1633
4008	65.3305
3992	65.432
3976	65.0588
3960	65.1951
3944	65.2096
3928	65.1657
3912	65.136
3896	65.351
3880	65.1716
3864	64.9945
3848	65.1458
3832	65.0712
3816	65.1829
3800	65.2961
3784	64.8416
3768	65.116
3752	65.1559
3736	65.1778
3720	64.9993
3704	65.3376
3688	64.9475
3672	65.3774
3656	65.2097
3640	65.2272
3624	65.265
3608	65.3507
3592	65.4304
3576	65.1457
3560	65.2721
3544	65.0349
3528	64.9189
3512	65.2567
3496	65.0968
3480	65.1387
3464	65.0322
3448	65.1518
3432	65.3324
3416	65.2103
3400	65.3073
3384	65.2617
3368	65.1801
3352	65.2701
3336	65.1615
3320	65.1759
3304	64.9951
3288	65.1983
3272	65.2497
3256	65.1328
3240	65.1479
3224	65.073
3208	64.9878
3192	64.9958
3176	65.0185
3160	64.9673
3144	64.9471
3128	65.0245
3112	65.0817
3096	65.1803
3080	65.2109
3064	65.2112
3048	65.0934
3032	65.1066
3016	65.1054
3000	65.1244
2984	65.1899
2968	64.95
2952	64.9456
2936	65.1153
2920	65.0443
2904	64.9922
2888	65.0511
2872	65.0592
2856	65.1383
2840	64.9815
2824	65.0869
2808	64.9641
2792	65.1284
2776	65.0633
2760	65.2546
2744	65.1615
2728	64.9928
2712	64.9578
2696	65.1388
2680	65.0658
2664	65.0996
2648	65.0457
2632	65.0721
2616	65.014
2600	65.0645
2584	65.0983
2568	65.011
2552	64.928
2536	65.0172
2520	64.9806
2504	65.0695
2488	64.8652
2472	64.921
2456	64.8846
2440	65.0404
2424	64.8837
2408	64.9065
2392	65.0602
2376	64.8096
2360	64.8571
2344	64.8979
2328	64.8445
2312	64.9228
2296	64.8854
2280	64.8209
2264	64.673
2248	64.8052
2232	64.9196
2216	64.8242
2200	64.975
2184	64.8992
2168	64.8538
2152	64.836
2136	64.7757
2120	64.8387
2104	64.847
2088	64.8128
2072	64.8756
2056	64.8544
2040	64.7499
2024	64.8499
2008	64.8474
1992	64.7845
1976	64.7228
1960	64.8175
1944	64.7315
1928	64.6401
1912	64.6749
1896	64.686
1880	64.5756
1864	64.6203
1848	64.6127
1832	64.6055
1816	64.7049
1800	64.6356
1784	64.5824
1768	64.5413
1752	64.5328
1736	64.3246
1720	64.4542
1704	64.5649
1688	64.6946
1672	64.5824
1656	64.4592
1640	64.4078
1624	64.4457
1608	64.472
1592	64.5222
1576	64.3673
1560	64.5976
1544	64.4005
1528	64.346
1512	64.3904
1496	64.5001
1480	64.473
1464	64.307
1448	64.3311
1432	64.3
1416	64.326
1400	64.1993
1384	64.1922
1368	64.2804
1352	64.0817
1336	64.3137
1320	64.1477
1304	64.3433
1288	64.2293
1272	64.0568
1256	64.1962
1240	64.1224
1224	64.0993
1208	64.1517
1192	64.0808
1176	64.1787
1160	64.1222
1144	64.0135
1128	63.9488
1112	64.0212
1096	63.8927
1080	64.0125
1064	64.0106
1048	63.9453
1032	64.0904
1016	64.1934
1000	64.1145
984	 64.1367
968	 64.0076
952	 63.8994
936	 64.0022
920	 64.012
904	 64.0076
888	 63.9753
872	 63.9832
856	 64.1182
840	 64.0336
824	 63.6851
808	 63.8724
792	 64.1875
776	 63.8025
760	 63.6683
744	 63.5064
728	 63.6459
712	 63.3855
696	 63.8284
680	 62.9718
664	 63.3638
648	 63.9167
632	 65.3177
616	 62.6126
600	 64.1896
584	 63.3576
568	 63.928
552	 63.9675
536	 63.9462
520	 64.0458
504	 63.3582
488	 63.306
472	 63.7743
456	 61.9268
440	 62.2493
424	 62.2116
408	 66.2384
392	 75.0047
376	 44.9481
370	 43.2255