File: Bakgrunnsmateriale/MATLAB/FTIR/ftir_data/subAa/Mapping_121/BZ1503107-1_t100.asc
PE IR       SPECTRUM    SPECTRUM    ASCII       PEDS        1.60
  -1
BZC6B2~1.ASC
17/04/07
21:28:12.00
17/04/07
21:28:38.00
tln
$BZ1503107-1_t0100$<tbV0>[13.0,10.4,8.0,0.0,27,1,0]
27.028
64

2002,4.07
MIRTGS : RIGHTBACK : INTERNAL 2
MIR : ON : INTERNAL 2
OPTKBR

0.200000
8
8.000000
FILLER
RATIO
SPECTRUM
UNLOCKED 256

DOUBLE
64
COMBINED
1
0
0

0.002000
RATIO

1
0
TRUE
51149
0
LEFT NOT FITTED RIGHT NOT FITTED 0
NONE
NONE
15600
12
4.427000
51148
TRUE
1 0 8 72 0 0 0 0

15798

#HDR
-1
-1
#GR
µM
%T
2.38419e-05
0.0
2.000000
0.002000
12515
8
77.7101
50.8469
#DATA
2.000000	 65.0362
2.084000	 65.0922
2.168000	 65.1161
2.252000	 67.4284
2.336000	 64.65
2.420000	 64.9128
2.504000	 65.0499
2.588000	 64.9352
2.672000	 64.9676
2.756000	 65.004
2.840000	 64.961
2.924000	 65.0467
3.008000	 64.9399
3.092000	 65.1069
3.176000	 64.7303
3.260000	 64.7887
3.344000	 64.8725
3.428000	 64.6848
3.512000	 64.6718
3.596000	 64.8117
3.680000	 64.8203
3.764000	 64.6836
3.848000	 64.5762
3.932000	 64.5865
4.016000	 64.5967
4.100000	 64.5201
4.184000	 64.544
4.268000	 64.5972
4.352000	 64.3581
4.436000	 64.6073
4.520000	 64.346
4.604000	 64.403
4.688000	 64.2994
4.772000	 64.2961
4.856000	 64.5389
4.940000	 64.1878
5.024000	 64.2201
5.108000	 64.2566
5.192000	 64.1615
5.276000	 64.1095
5.359999	 64.1815
5.444000	 64.2166
5.528000	 64.1607
5.612000	 64.0307
5.696000	 63.9706
5.780000	 63.8647
5.864000	 63.9279
5.948000	 63.8055
6.032000	 63.8835
6.116000	 63.9103
6.200000	 63.8806
6.284000	 63.9259
6.368000	 63.8649
6.452000	 63.663
6.536000	 63.829
6.620000	 63.6244
6.704000	 63.7368
6.788000	 63.7301
6.872000	 63.503
6.956000	 63.5055
7.040000	 63.5177
7.124000	 63.5645
7.208000	 63.6207
7.292000	 63.534
7.376000	 63.5518
7.460000	 63.472
7.544000	 63.5409
7.628000	 63.5133
7.712000	 63.3726
7.796000	 63.2613
7.880000	 63.2985
7.964000	 63.3287
8.048000	 63.2832
8.132000	 63.3566
8.216000	 63.335
8.300000	 63.3349
8.384000	 63.3096
8.468000	 63.2764
8.552000	 63.2122
8.635999	 63.1404
8.719999	 63.2527
8.804000	 63.3404
8.888000	 63.1878
8.972000	 63.1393
9.056000	 63.1105
9.140000	 63.129
9.224000	 63.1621
9.308000	 63.0989
9.391999	 63.0481
9.475999	 63.0818
9.560000	 63.2591
9.644000	 63.3148
9.728000	 63.2162
9.812000	 63.1004
9.896000	 63.1257
9.980000	 63.1159
10.064	63.2294
10.148	63.1804
10.232	63.3093
10.316	63.2687
10.4	63.1198
10.484	63.1367
10.568	63.0555
10.652	63.2116
10.736	63.1746
10.82	63.2598
10.904	63.1792
10.988	63.1831
11.072	63.0935
11.156	62.9871
11.24	63.0177
11.324	63.0876
11.408	62.9072
11.492	62.9661
11.576	63.2076
11.66	63.1823
11.744	63.0183
11.828	62.8743
11.912	62.9251
11.996	62.8363
12.08	62.7814
12.164	62.9805
12.248	63.1089
12.332	63.1874
12.416	63.0018
12.5	62.7867
12.584	62.8343
12.668	62.8655
12.752	62.9084
12.836	62.9266
12.92	62.9008
13.004	62.8036
13.088	62.7441
13.172	62.8715
13.256	63.0308
13.34	62.9841
13.424	62.7297
13.508	62.6447
13.592	62.7629
13.676	62.7417
13.76	62.6293
13.844	62.6469
13.928	62.655
14.012	62.5102
14.096	62.3518
14.18	62.3396
14.264	62.3869
14.348	62.4943
14.432	62.6271
14.516	62.7362
14.6	62.7723
14.684	62.5703
14.768	62.2931
14.852	62.2911
14.936	62.5345
15.02	62.6663
15.104	62.5406
15.188	62.3915
15.272	62.3942
15.356	62.464
15.44	62.5605
15.524	62.7034
15.608	62.7243
15.692	62.5573
15.776	62.4082
15.86	62.3401
15.944	62.2261
16.028	62.1265
16.112	62.1751
16.196	62.2533
16.28	62.265
16.364	62.3641
16.448	62.5155
16.532	62.4913
16.616	62.388
16.7	62.4682
16.784	62.6826
16.868	62.8313
16.952	62.822
17.036	62.6551
17.12	62.4147
17.204	62.1903
17.288	62.0095
17.372	61.9417
17.456	62.0826
17.54	62.3237
17.624	62.3852
17.708	62.2228
17.792	62.1611
17.876	62.515
17.96	63.1928
18.044	63.7979
18.128	63.9921
18.212	63.6693
18.296	62.9166
18.38	62.004
18.464	61.374
18.548	61.4018
18.632	62.0584
18.716	62.8802
18.8	63.3229
18.884	63.1905
18.968	62.7364
19.052	62.4147
19.136	62.4561
19.22	62.6968
19.304	62.8111
19.388	62.7027
19.472	62.5514
19.556	62.4797
19.64	62.3005
19.724	61.7231
19.808	60.7742
19.892	59.8867
19.976	59.5403
20.06	59.8737
20.144	60.6526
20.228	61.5497
20.312	62.3524
20.396	62.9371
20.48	63.1748
20.564	62.9751
20.648	62.4208
20.732	61.7958
20.816	61.4027
20.9	61.354
20.984	61.5347
21.068	61.7379
21.152	61.8235
21.236	61.7787
21.32	61.6577
21.404	61.509
21.488	61.3547
21.572	61.2059
21.656	61.0889
21.74	61.0372
21.824	61.0841
21.908	61.2378
21.992	61.4384
22.076	61.5611
22.16	61.4809
22.244	61.1821
22.328	60.8055
22.412	60.5638
22.496	60.6032
22.58	60.9054
22.664	61.3142
22.748	61.6261
22.832	61.7264
22.916	61.614
23	61.3635
23.084	61.0475
23.168	60.7022
23.252	60.338
23.336	59.9879
23.42	59.7406
23.504	59.705
23.588	59.957
23.672	60.4858
23.756	61.157
23.84	61.7624
23.924	62.0904
24.008	61.9993
24.092	61.4674
24.176	60.6284
24.26	59.6893
24.344	58.8947
24.428	58.4351
24.512	58.4036
24.596	58.7499
24.68	59.3015
24.764	59.823
24.848	60.0871
24.932	59.9282
25.016	59.3035
25.1	58.2625
25.184	56.9596
25.268	55.6178
25.352	54.4803
25.436	53.7512
25.52	53.5841
25.604	54.1138
25.688	55.4809
25.772	57.7918
25.856	61.0448
25.94	65.0282
26.024	69.2818
26.108	73.1726
26.192	76.0889
26.276	77.5703
26.36	77.4139
26.444	75.7526
26.528	72.9572
26.612	69.4496
26.696	65.5764
26.78	61.5613
26.864	57.5534
26.948	53.7829
27.028	50.8469