File: Bakgrunnsmateriale/MATLAB/FTIR/ftir_data/subAa/Mapping_121/BZ1503107-1_t119.asc
PE IR       SPECTRUM    SPECTRUM    ASCII       PEDS        1.60
  -1
BZEAB6~1.ASC
17/04/07
23:02:13.00
17/04/07
23:02:39.00
tln
$BZ1503107-1_t0119$<tbV0>[-7.8,13.0,8.0,0.0,27,1,0]
27.028
64

2002,4.07
MIRTGS : RIGHTBACK : INTERNAL 2
MIR : ON : INTERNAL 2
OPTKBR

0.200000
8
8.000000
FILLER
RATIO
SPECTRUM
UNLOCKED 256

DOUBLE
64
COMBINED
1
0
0

0.002000
RATIO

1
0
TRUE
51149
0
LEFT NOT FITTED RIGHT NOT FITTED 0
NONE
NONE
15600
12
4.427000
51148
TRUE
1 0 8 72 0 0 0 0

15798

#HDR
-1
-1
#GR
µM
%T
2.38419e-05
0.0
2.000000
0.002000
12515
8
74.5786
58.8138
#DATA
2.000000	 64.4112
2.084000	 64.7823
2.168000	 64.8739
2.252000	 63.6594
2.336000	 64.926
2.420000	 64.9281
2.504000	 64.8192
2.588000	 64.9441
2.672000	 64.9933
2.756000	 65.2695
2.840000	 64.7774
2.924000	 64.7994
3.008000	 65.0159
3.092000	 64.8793
3.176000	 64.7914
3.260000	 64.6996
3.344000	 64.6937
3.428000	 64.5174
3.512000	 64.6157
3.596000	 64.6014
3.680000	 64.5688
3.764000	 64.4152
3.848000	 64.5229
3.932000	 64.4867
4.016000	 64.3148
4.100000	 64.4548
4.184000	 64.3711
4.268000	 64.2405
4.352000	 64.3349
4.436000	 64.2289
4.520000	 64.2826
4.604000	 64.1582
4.688000	 64.0426
4.772000	 64.0084
4.856000	 63.898
4.940000	 63.8599
5.024000	 63.8294
5.108000	 63.8251
5.192000	 63.878
5.276000	 63.7905
5.359999	 63.7314
5.444000	 63.7918
5.528000	 63.6803
5.612000	 63.6698
5.696000	 63.4641
5.780000	 63.3522
5.864000	 63.5763
5.948000	 63.5858
6.032000	 63.5106
6.116000	 63.4112
6.200000	 63.3349
6.284000	 63.3247
6.368000	 63.3944
6.452000	 63.2448
6.536000	 63.3012
6.620000	 63.2954
6.704000	 63.2477
6.788000	 63.0896
6.872000	 63.0655
6.956000	 63.0154
7.040000	 63.0777
7.124000	 63.0869
7.208000	 63.0285
7.292000	 62.9293
7.376000	 62.9658
7.460000	 63.0676
7.544000	 63.051
7.628000	 62.9932
7.712000	 63.017
7.796000	 62.9715
7.880000	 62.8258
7.964000	 62.7182
8.048000	 62.756
8.132000	 62.817
8.216000	 62.787
8.300000	 62.7044
8.384000	 62.7846
8.468000	 62.7664
8.552000	 62.5865
8.635999	 62.6442
8.719999	 62.5421
8.804000	 62.5696
8.888000	 62.5251
8.972000	 62.6679
9.056000	 62.6681
9.140000	 62.3815
9.224000	 62.505
9.308000	 62.6049
9.391999	 62.6481
9.475999	 62.5287
9.560000	 62.4096
9.644000	 62.5207
9.728000	 62.5781
9.812000	 62.4758
9.896000	 62.4299
9.980000	 62.4287
10.064	62.3893
10.148	62.3571
10.232	62.4002
10.316	62.3799
10.4	62.2962
10.484	62.2995
10.568	62.3692
10.652	62.5012
10.736	62.4919
10.82	62.3851
10.904	62.4828
10.988	62.4625
11.072	62.3784
11.156	62.3936
11.24	62.2738
11.324	62.291
11.408	62.3091
11.492	62.3113
11.576	62.2169
11.66	62.3258
11.744	62.3479
11.828	62.2392
11.912	62.1334
11.996	62.0359
12.08	62.2574
12.164	62.3757
12.248	62.3839
12.332	62.2471
12.416	62.1749
12.5	62.2982
12.584	62.2928
12.668	62.237
12.752	62.2406
12.836	62.0016
12.92	61.9019
13.004	62.0591
13.088	62.0867
13.172	62.0105
13.256	61.9479
13.34	61.9809
13.424	62.0232
13.508	61.96
13.592	61.8824
13.676	61.8993
13.76	61.8899
13.844	61.8435
13.928	61.9958
14.012	61.9714
14.096	61.6301
14.18	61.4666
14.264	61.539
14.348	61.7635
14.432	62.0147
14.516	61.9089
14.6	61.6168
14.684	61.5866
14.768	61.6535
14.852	61.5992
14.936	61.5191
15.02	61.5967
15.104	61.8704
15.188	62.0316
15.272	61.8631
15.356	61.5724
15.44	61.3013
15.524	60.945
15.608	60.7553
15.692	61.1752
15.776	61.8677
15.86	62.0457
15.944	61.5912
16.028	61.0047
16.112	60.6576
16.196	60.5602
16.28	60.6018
16.364	60.7601
16.448	61.0254
16.532	61.3285
16.616	61.5563
16.7	61.4858
16.784	60.9994
16.868	60.422
16.952	60.1492
17.036	60.19
17.12	60.3632
17.204	60.4995
17.288	60.4035
17.372	60.0495
17.456	59.775
17.54	59.9364
17.624	60.4272
17.708	60.8686
17.792	61.1361
17.876	61.4132
17.96	61.7817
18.044	62.0391
18.128	61.9539
18.212	61.6181
18.296	61.414
18.38	61.6116
18.464	62.0627
18.548	62.3452
18.632	62.1742
18.716	61.676
18.8	61.2276
18.884	61.0573
18.968	61.0837
19.052	61.102
19.136	61.0039
19.22	60.8174
19.304	60.6686
19.388	60.6899
19.472	60.9005
19.556	61.1525
19.64	61.2259
19.724	61.0257
19.808	60.6729
19.892	60.4033
19.976	60.3755
20.06	60.5651
20.144	60.8245
20.228	61.0083
20.312	61.0672
20.396	61.041
20.48	60.9915
20.564	60.9422
20.648	60.8789
20.732	60.7884
20.816	60.6901
20.9	60.631
20.984	60.6479
21.068	60.7368
21.152	60.8564
21.236	60.9588
21.32	61.0188
21.404	61.0342
21.488	61.0047
21.572	60.9059
21.656	60.7024
21.74	60.3877
21.824	60.0194
21.908	59.7213
21.992	59.6224
22.076	59.7799
22.16	60.1343
22.244	60.5237
22.328	60.7764
22.412	60.7918
22.496	60.5856
22.58	60.2547
22.664	59.9064
22.748	59.5985
22.832	59.3292
22.916	59.0859
23	58.8921
23.084	58.814
23.168	58.9271
23.252	59.2526
23.336	59.7327
23.42	60.2367
23.504	60.6305
23.588	60.8341
23.672	60.839
23.756	60.6936
23.84	60.4585
23.924	60.1853
24.008	59.9099
24.092	59.6736
24.176	59.5508
24.26	59.6125
24.344	59.8886
24.428	60.3412
24.512	60.8726
24.596	61.3605
24.68	61.7283
24.764	61.9967
24.848	62.2832
24.932	62.7317
25.016	63.406
25.1	64.2381
25.184	65.0374
25.268	65.5743
25.352	65.6758
25.436	65.3357
25.52	64.7579
25.604	64.2711
25.688	64.2576
25.772	65.0027
25.856	66.5643
25.94	68.6612
26.024	70.7116
26.108	72.0529
26.192	72.1835
26.276	70.9713
26.36	68.7606
26.444	66.2219
26.528	64.0926
26.612	62.8772
26.696	62.7903
26.78	63.762
26.864	65.4206
26.948	67.1828
27.028	68.3148