File: Bakgrunnsmateriale/MATLAB/FTIR/ftir_data/subAa/Mapping_121/BZ1503107-1_t40.asc
PE IR       SPECTRUM    SPECTRUM    ASCII       PEDS        1.60
  -1
BZ294D~1.ASC
17/04/07
16:29:00.00
17/04/07
16:29:26.00
tln
$BZ1503107-1_t0040$<tbV0>[-2.6,-5.2,8.0,0.0,27,1,0]
27.028
64

2002,4.07
MIRTGS : RIGHTBACK : INTERNAL 2
MIR : ON : INTERNAL 2
OPTKBR

0.200000
8
8.000000
FILLER
RATIO
SPECTRUM
UNLOCKED 256

DOUBLE
64
COMBINED
1
0
0

0.002000
RATIO

1
0
TRUE
51149
0
LEFT NOT FITTED RIGHT NOT FITTED 0
NONE
NONE
15600
12
4.427000
51148
TRUE
1 0 8 72 0 0 0 0

15798

#HDR
-1
-1
#GR
µM
%T
2.38419e-05
0.0
2.000000
0.002000
12515
8
76.0443
46.1894
#DATA
2.000000	 65.4353
2.084000	 64.5807
2.168000	 64.6446
2.252000	 64.9662
2.336000	 64.7259
2.420000	 65.3425
2.504000	 65.4187
2.588000	 65.175
2.672000	 65.0718
2.756000	 65.1624
2.840000	 64.9707
2.924000	 65.1013
3.008000	 65.1695
3.092000	 64.9352
3.176000	 64.9613
3.260000	 65.0892
3.344000	 65.1902
3.428000	 65.1125
3.512000	 64.8617
3.596000	 65.009
3.680000	 65.1826
3.764000	 65.1248
3.848000	 64.9509
3.932000	 64.9705
4.016000	 64.8786
4.100000	 65.0247
4.184000	 64.9524
4.268000	 64.9667
4.352000	 64.8725
4.436000	 64.9543
4.520000	 64.8453
4.604000	 64.7058
4.688000	 64.7049
4.772000	 64.7103
4.856000	 64.7918
4.940000	 64.815
5.024000	 64.6044
5.108000	 64.7662
5.192000	 64.721
5.276000	 64.6999
5.359999	 64.6123
5.444000	 64.6721
5.528000	 64.6348
5.612000	 64.5865
5.696000	 64.4319
5.780000	 64.1644
5.864000	 64.4714
5.948000	 64.524
6.032000	 64.5359
6.116000	 64.4977
6.200000	 64.236
6.284000	 64.3638
6.368000	 64.2806
6.452000	 64.2639
6.536000	 64.4292
6.620000	 64.3816
6.704000	 64.4246
6.788000	 64.194
6.872000	 64.3485
6.956000	 64.3193
7.040000	 64.4653
7.124000	 64.2626
7.208000	 64.131
7.292000	 64.3293
7.376000	 64.215
7.460000	 64.1704
7.544000	 64.2716
7.628000	 64.114
7.712000	 64.1163
7.796000	 64.0334
7.880000	 64.0312
7.964000	 64.1098
8.048000	 64.0093
8.132000	 64.1202
8.216000	 64.1656
8.300000	 64.0505
8.384000	 64.0281
8.468000	 64.1251
8.552000	 63.9636
8.635999	 64.0919
8.719999	 64.0515
8.804000	 63.9996
8.888000	 63.8001
8.972000	 64.0954
9.056000	 63.9352
9.140000	 63.9344
9.224000	 63.9448
9.308000	 63.9244
9.391999	 63.89
9.475999	 63.9404
9.560000	 63.8149
9.644000	 63.7974
9.728000	 63.9479
9.812000	 63.8783
9.896000	 63.8064
9.980000	 63.9435
10.064	64.0524
10.148	63.9818
10.232	63.9311
10.316	63.8954
10.4	63.9243
10.484	63.9528
10.568	63.7252
10.652	63.9256
10.736	63.9866
10.82	64.1395
10.904	64.1287
10.988	63.8748
11.072	63.8212
11.156	63.8995
11.24	63.8705
11.324	63.8772
11.408	64.1312
11.492	64.1413
11.576	63.9886
11.66	63.9715
11.744	63.9698
11.828	63.7507
11.912	63.8735
11.996	63.8876
12.08	63.8543
12.164	63.909
12.248	63.7445
12.332	63.6857
12.416	63.8547
12.5	64.0902
12.584	64.0106
12.668	63.9378
12.752	64.1465
12.836	64.1377
12.92	63.8908
13.004	63.6808
13.088	63.6435
13.172	63.6247
13.256	63.6247
13.34	63.6224
13.424	63.8024
13.508	64.0674
13.592	63.9051
13.676	63.7284
13.76	63.888
13.844	63.9545
13.928	63.8363
14.012	63.5895
14.096	63.4909
14.18	63.933
14.264	64.1275
14.348	63.6959
14.432	63.4257
14.516	63.5705
14.6	63.6483
14.684	63.5464
14.768	63.6339
14.852	63.7257
14.936	63.5845
15.02	63.3118
15.104	63.0734
15.188	63.2189
15.272	63.5187
15.356	63.5437
15.44	63.4921
15.524	63.529
15.608	63.5251
15.692	63.3762
15.776	63.0948
15.86	62.8885
15.944	63.0935
16.028	63.5957
16.112	63.7448
16.196	63.2871
16.28	62.7592
16.364	62.6123
16.448	62.7258
16.532	62.9433
16.616	63.3323
16.7	63.8228
16.784	64.1369
16.868	64.1278
16.952	63.9003
17.036	63.633
17.12	63.4802
17.204	63.5643
17.288	63.8511
17.372	64.0799
17.456	63.966
17.54	63.5031
17.624	62.9934
17.708	62.7586
17.792	62.8679
17.876	63.1443
17.96	63.4247
18.044	63.6893
18.128	63.9056
18.212	63.9743
18.296	63.8733
18.38	63.704
18.464	63.578
18.548	63.525
18.632	63.503
18.716	63.472
18.8	63.4464
18.884	63.4771
18.968	63.5913
19.052	63.7462
19.136	63.8435
19.22	63.8052
19.304	63.651
19.388	63.477
19.472	63.3707
19.556	63.3741
19.64	63.4988
19.724	63.7232
19.808	63.9744
19.892	64.1621
19.976	64.2293
20.06	64.1741
20.144	64.0377
20.228	63.8763
20.312	63.7348
20.396	63.6351
20.48	63.5792
20.564	63.5509
20.648	63.5178
20.732	63.4359
20.816	63.2783
20.9	63.0644
20.984	62.8691
21.068	62.7808
21.152	62.8402
21.236	63.0102
21.32	63.2107
21.404	63.3816
21.488	63.5179
21.572	63.6427
21.656	63.7481
21.74	63.7757
21.824	63.6475
21.908	63.3306
21.992	62.8789
22.076	62.4121
22.16	62.0592
22.244	61.8932
22.328	61.9164
22.412	62.0789
22.496	62.3102
22.58	62.5416
22.664	62.7122
22.748	62.7887
22.832	62.7854
22.916	62.7528
23	62.7665
23.084	62.8625
23.168	63.0164
23.252	63.1581
23.336	63.2039
23.42	63.1412
23.504	63.0284
23.588	62.9772
23.672	63.0853
23.756	63.3764
23.84	63.8109
23.924	64.3049
24.008	64.7529
24.092	65.0503
24.176	65.139
24.26	64.96
24.344	64.4676
24.428	63.6539
24.512	62.5388
24.596	61.151
24.68	59.5473
24.764	57.8353
24.848	56.129
24.932	54.551
25.016	53.1928
25.1	52.0826
25.184	51.1472
25.268	50.2568
25.352	49.3203
25.436	48.2938
25.52	47.2898
25.604	46.6217
25.688	46.8111
25.772	48.4309
25.856	51.8418
25.94	56.9592
26.024	63.1002
26.108	69.075
26.192	73.6599
26.276	75.9053
26.36	75.3683
26.444	72.2305
26.528	67.2059
26.612	61.1911
26.696	55.2017
26.78	50.1987
26.864	47.014
26.948	46.2428
27.028	47.9493