File: Bakgrunnsmateriale/MATLAB/FTIR/ftir_data/subAa/Mapping_121/BZ1503107-1_t31_cm-1.asc
PE IR       SPECTRUM    SPECTRUM    ASCII       PEDS        1.60
  -1
BZ69A0~1.ASC
17/04/07
15:46:48.00
17/04/07
15:46:48.00
tln
$BZ1503107-1_t0031$<tbV0>[-7.8,-7.8,8.0,0.0,27,1,0]
370
64

2002,4.07
MIRTGS : RIGHTBACK : INTERNAL 2
MIR : ON : INTERNAL 2
OPTKBR

0.200000
8
8.000000
FILLER
RATIO
SPECTRUM
UNLOCKED 256

DOUBLE
64
COMBINED
1
0
0

1.000000
RATIO

1
0
TRUE
51149
0
LEFT NOT FITTED RIGHT NOT FITTED 0
NONE
NONE
15600
12
4.427000
51148
TRUE
1 0 8 72 0 0 0 0

15798

#HDR
-1
-1
#GR
CM-1
%T
2.38419e-05
0.0
5000
-1.000000
4631
8
87.6863
44.2566
#DATA
5000	64.7804
4984	64.6409
4968	64.8889
4952	64.7161
4936	64.8211
4920	64.6639
4904	64.5659
4888	64.7859
4872	64.5193
4856	65.4219
4840	65.0762
4824	65.1036
4808	64.7123
4792	64.7807
4776	65.0954
4760	64.8714
4744	64.6986
4728	65.0173
4712	65.6342
4696	64.7798
4680	64.9907
4664	64.8114
4648	64.9064
4632	64.7755
4616	65.0188
4600	64.8863
4584	64.6965
4568	64.7352
4552	64.4318
4536	64.8241
4520	64.7899
4504	64.7646
4488	64.4892
4472	64.3297
4456	64.9257
4440	65.5432
4424	78.0068
4408	65.1429
4392	65.8026
4376	65.0783
4360	65.002
4344	65.0918
4328	64.9009
4312	64.6804
4296	64.8745
4280	65.0125
4264	65.0652
4248	64.7488
4232	64.8412
4216	64.8545
4200	65.1038
4184	64.8117
4168	64.8932
4152	64.8783
4136	65.2313
4120	65.0777
4104	65.0932
4088	64.9522
4072	65.1637
4056	64.9827
4040	64.9285
4024	64.9427
4008	64.9717
3992	65.1616
3976	65.1469
3960	64.8854
3944	64.9372
3928	65.1566
3912	64.8236
3896	64.9821
3880	65.1242
3864	65.0914
3848	65.0351
3832	65.0102
3816	65.193
3800	65.3311
3784	64.8465
3768	65.3013
3752	65.1934
3736	65.1056
3720	65.1801
3704	65.1864
3688	65.2112
3672	65.2299
3656	65.2919
3640	65.1255
3624	65.1182
3608	65.3517
3592	65.2048
3576	65.0663
3560	65.0806
3544	65.058
3528	64.9045
3512	65.0166
3496	64.964
3480	65.087
3464	65.0427
3448	65.1505
3432	64.971
3416	64.9679
3400	65.193
3384	65.3897
3368	65.0868
3352	65.0532
3336	65.1441
3320	65.1563
3304	64.9169
3288	65.1225
3272	65.0993
3256	64.8771
3240	65.1701
3224	65.1784
3208	65.0707
3192	64.9604
3176	65.1116
3160	65.1114
3144	64.9304
3128	65.2915
3112	65.0582
3096	65.0838
3080	65.1014
3064	65.1066
3048	65.1446
3032	64.9936
3016	64.9791
3000	65.1268
2984	65.1272
2968	64.9096
2952	64.9623
2936	64.9277
2920	65.0734
2904	65.0486
2888	65.0594
2872	65.0875
2856	65.0629
2840	65.0031
2824	65.1271
2808	65.041
2792	65.1748
2776	65.0579
2760	65.1477
2744	65.2147
2728	65.0339
2712	64.8962
2696	65.0445
2680	65.022
2664	64.977
2648	64.9265
2632	65.0266
2616	64.9147
2600	65.0967
2584	64.9896
2568	65.0148
2552	65.0004
2536	64.9848
2520	64.8684
2504	64.9923
2488	64.9003
2472	64.983
2456	64.835
2440	65.0283
2424	64.9458
2408	65.0367
2392	65.02
2376	64.8896
2360	64.9529
2344	64.9459
2328	65.0017
2312	64.9401
2296	64.8536
2280	64.9382
2264	64.814
2248	64.9211
2232	64.9239
2216	64.9088
2200	65.024
2184	64.9176
2168	64.8175
2152	64.7481
2136	64.7977
2120	64.7663
2104	64.7997
2088	64.875
2072	64.8649
2056	64.7932
2040	64.7577
2024	64.8662
2008	64.7718
1992	64.7142
1976	64.7816
1960	64.6399
1944	64.7548
1928	64.702
1912	64.687
1896	64.658
1880	64.6619
1864	64.6195
1848	64.7462
1832	64.6691
1816	64.615
1800	64.6482
1784	64.6499
1768	64.5528
1752	64.5132
1736	64.3538
1720	64.4064
1704	64.4896
1688	64.6326
1672	64.6789
1656	64.4308
1640	64.497
1624	64.3323
1608	64.5064
1592	64.418
1576	64.4366
1560	64.5518
1544	64.4278
1528	64.2703
1512	64.4456
1496	64.3394
1480	64.4907
1464	64.2985
1448	64.3014
1432	64.3839
1416	64.3227
1400	64.2666
1384	64.1997
1368	64.4063
1352	64.14
1336	64.4348
1320	64.2093
1304	64.2093
1288	64.1363
1272	64.2005
1256	64.1668
1240	64.2176
1224	64.1014
1208	64.086
1192	64.173
1176	64.0814
1160	64.1348
1144	64.071
1128	64.0782
1112	64.1603
1096	64.0776
1080	64.0995
1064	64.0906
1048	64.2379
1032	64.0227
1016	64.0171
1000	64.0114
984	 63.9385
968	 64.0292
952	 64.1787
936	 64.0176
920	 64.2897
904	 63.8616
888	 63.9241
872	 64.0776
856	 64.1098
840	 63.9368
824	 63.9223
808	 64.1386
792	 64.2208
776	 64.3174
760	 63.7743
744	 63.9755
728	 64.1238
712	 63.2683
696	 63.7914
680	 64.0199
664	 63.783
648	 63.1311
632	 64.0805
616	 63.879
600	 63.9442
584	 63.5969
568	 64.0569
552	 64.0881
536	 63.9282
520	 63.9462
504	 64.2998
488	 63.633
472	 63.7612
456	 62.5427
440	 63.0331
424	 62.5236
408	 64.7049
392	 64.3142
376	 46.6086
370	 87.6863