File: Bakgrunnsmateriale/MATLAB/FTIR/ftir_data/subAa/Mapping_121/BZ1503107-1_t82.asc
PE IR       SPECTRUM    SPECTRUM    ASCII       PEDS        1.60
  -1
BZ2155~1.ASC
17/04/07
19:57:57.00
17/04/07
19:58:23.00
tln
$BZ1503107-1_t0082$<tbV0>[2.6,5.2,8.0,0.0,27,1,0]
27.028
64

2002,4.07
MIRTGS : RIGHTBACK : INTERNAL 2
MIR : ON : INTERNAL 2
OPTKBR

0.200000
8
8.000000
FILLER
RATIO
SPECTRUM
UNLOCKED 256

DOUBLE
64
COMBINED
1
0
0

0.002000
RATIO

1
0
TRUE
51149
0
LEFT NOT FITTED RIGHT NOT FITTED 0
NONE
NONE
15600
12
4.427000
51148
TRUE
1 0 8 72 0 0 0 0

15798

#HDR
-1
-1
#GR
µM
%T
2.38419e-05
0.0
2.000000
0.002000
12515
8
81.3865
51.2503
#DATA
2.000000	 66.2346
2.084000	 64.4986
2.168000	 64.6456
2.252000	 71.7499
2.336000	 64.8745
2.420000	 65.1368
2.504000	 64.81
2.588000	 64.7508
2.672000	 65.132
2.756000	 65.046
2.840000	 65.0939
2.924000	 65.0521
3.008000	 64.946
3.092000	 65.0784
3.176000	 64.9505
3.260000	 64.9676
3.344000	 64.953
3.428000	 64.6652
3.512000	 64.7075
3.596000	 64.7893
3.680000	 64.8119
3.764000	 64.7087
3.848000	 64.6709
3.932000	 64.6454
4.016000	 64.675
4.100000	 64.6213
4.184000	 64.5852
4.268000	 64.4879
4.352000	 64.4635
4.436000	 64.564
4.520000	 64.406
4.604000	 64.3753
4.688000	 64.409
4.772000	 64.3564
4.856000	 64.4116
4.940000	 64.3154
5.024000	 64.1596
5.108000	 64.3148
5.192000	 64.2912
5.276000	 64.1175
5.359999	 64.2237
5.444000	 64.0764
5.528000	 64.1845
5.612000	 64.0645
5.696000	 63.989
5.780000	 63.8658
5.864000	 63.8644
5.948000	 63.7333
6.032000	 63.8299
6.116000	 63.7507
6.200000	 63.9244
6.284000	 63.7744
6.368000	 63.9413
6.452000	 63.8051
6.536000	 63.825
6.620000	 63.8912
6.704000	 63.7729
6.788000	 63.6773
6.872000	 63.8871
6.956000	 63.7258
7.040000	 63.6696
7.124000	 63.576
7.208000	 63.5876
7.292000	 63.4853
7.376000	 63.4864
7.460000	 63.5968
7.544000	 63.6125
7.628000	 63.5723
7.712000	 63.5048
7.796000	 63.5201
7.880000	 63.4565
7.964000	 63.4008
8.048000	 63.4169
8.132000	 63.4675
8.216000	 63.3829
8.300000	 63.5053
8.384000	 63.4636
8.468000	 63.4285
8.552000	 63.202
8.635999	 63.2079
8.719999	 63.2779
8.804000	 63.4094
8.888000	 63.2925
8.972000	 63.3113
9.056000	 63.2501
9.140000	 63.2291
9.224000	 63.3395
9.308000	 63.3194
9.391999	 63.2731
9.475999	 63.2484
9.560000	 63.2305
9.644000	 63.0756
9.728000	 63.2542
9.812000	 63.1479
9.896000	 63.262
9.980000	 63.2521
10.064	63.0339
10.148	63.1454
10.232	63.3223
10.316	63.217
10.4	63.1773
10.484	63.2226
10.568	63.187
10.652	63.1751
10.736	63.0419
10.82	63.1434
10.904	63.06
10.988	63.2647
11.072	63.2706
11.156	63.1869
11.24	63.3258
11.324	63.4012
11.408	63.2379
11.492	63.2281
11.576	63.1438
11.66	63.1129
11.744	62.9895
11.828	62.9443
11.912	63.0128
11.996	63.1046
12.08	63.2916
12.164	63.3964
12.248	63.1899
12.332	63.0375
12.416	63.2213
12.5	63.1529
12.584	62.9412
12.668	63.0744
12.752	63.2714
12.836	63.41
12.92	63.2283
13.004	62.9013
13.088	62.8521
13.172	62.9577
13.256	63.0342
13.34	63.1525
13.424	63.1892
13.508	63.0005
13.592	62.8145
13.676	62.7555
13.76	62.8284
13.844	62.8629
13.928	62.8509
14.012	62.9445
14.096	62.868
14.18	62.5826
14.264	62.4773
14.348	62.5653
14.432	62.7128
14.516	62.9163
14.6	63.0626
14.684	63.1608
14.768	63.2275
14.852	63.1915
14.936	62.9231
15.02	62.5497
15.104	62.5571
15.188	62.7389
15.272	62.634
15.356	62.4564
15.44	62.3655
15.524	62.2116
15.608	61.9589
15.692	61.8154
15.776	62.1007
15.86	62.64
15.944	62.8697
16.028	62.7907
16.112	62.788
16.196	62.9162
16.28	63.0865
16.364	63.2616
16.448	63.359
16.532	63.4063
16.616	63.3998
16.7	63.1488
16.784	62.7106
16.868	62.4371
16.952	62.3984
17.036	62.393
17.12	62.4121
17.204	62.5719
17.288	62.8423
17.372	63.122
17.456	63.301
17.54	63.2464
17.624	62.9841
17.708	62.7625
17.792	62.7287
17.876	62.7589
17.96	62.7519
18.044	62.7818
18.128	62.8244
18.212	62.6979
18.296	62.3865
18.38	62.1229
18.464	62.0151
18.548	61.8647
18.632	61.5023
18.716	61.0663
18.8	60.8604
18.884	61.0866
18.968	61.6949
19.052	62.3804
19.136	62.8
19.22	62.8563
19.304	62.7704
19.388	62.7878
19.472	62.9109
19.556	62.9913
19.64	62.9898
19.724	62.9715
19.808	62.9405
19.892	62.8588
19.976	62.7798
20.06	62.8331
20.144	63.0286
20.228	63.152
20.312	62.9553
20.396	62.4409
20.48	61.9094
20.564	61.7081
20.648	61.9518
20.732	62.4585
20.816	62.8914
20.9	62.9953
20.984	62.7488
21.068	62.3388
21.152	62.0105
21.236	61.9158
21.32	62.0652
21.404	62.3653
21.488	62.6938
21.572	62.9476
21.656	63.0683
21.74	63.0589
21.824	62.9935
21.908	62.9999
21.992	63.1816
22.076	63.5391
22.16	63.9511
22.244	64.231
22.328	64.2378
22.412	63.9436
22.496	63.4407
22.58	62.8672
22.664	62.3413
22.748	61.9222
22.832	61.6151
22.916	61.4114
23	61.3187
23.084	61.3402
23.168	61.483
23.252	61.7439
23.336	62.0798
23.42	62.4327
23.504	62.7323
23.588	62.9181
23.672	62.9568
23.756	62.8485
23.84	62.6201
23.924	62.3252
24.008	62.0381
24.092	61.8505
24.176	61.8558
24.26	62.0984
24.344	62.5296
24.428	62.987
24.512	63.1886
24.596	62.8462
24.68	61.7636
24.764	59.942
24.848	57.6167
24.932	55.2066
25.016	53.1567
25.1	51.8044
25.184	51.2691
25.268	51.4314
25.352	52.0634
25.436	52.8611
25.52	53.5925
25.604	54.1875
25.688	54.6794
25.772	55.1533
25.856	55.6738
25.94	56.2149
26.024	56.6715
26.108	56.9285
26.192	56.8946
26.276	56.5743
26.36	56.142
26.444	55.8031
26.528	55.7454
26.612	56.1798
26.696	57.2681
26.78	59.0508
26.864	61.4518
26.948	64.4035
27.028	67.7509