File: Bakgrunnsmateriale/MATLAB/FTIR/ftir_data/subAa/Mapping_121/BZ1503107-1_t25_cm-1.asc
PE IR       SPECTRUM    SPECTRUM    ASCII       PEDS        1.60
  -1
BZ6D23~1.ASC
17/04/07
15:19:05.00
17/04/07
15:19:05.00
tln
$BZ1503107-1_t0025$<tbV0>[7.8,-7.8,8.0,0.0,27,1,0]
370
64

2002,4.07
MIRTGS : RIGHTBACK : INTERNAL 2
MIR : ON : INTERNAL 2
OPTKBR

0.200000
8
8.000000
FILLER
RATIO
SPECTRUM
UNLOCKED 256

DOUBLE
64
COMBINED
1
0
0

1.000000
RATIO

1
0
TRUE
51149
0
LEFT NOT FITTED RIGHT NOT FITTED 0
NONE
NONE
15600
12
4.427000
51148
TRUE
1 0 8 72 0 0 0 0

15798

#HDR
-1
-1
#GR
CM-1
%T
2.38419e-05
0.0
5000
-1.000000
4631
8
81.6296
40.1827
#DATA
5000	65.7369
4984	64.5451
4968	64.1744
4952	64.1968
4936	64.9293
4920	64.9261
4904	64.7598
4888	64.2514
4872	64.9888
4856	65.3186
4840	65.1352
4824	64.7961
4808	64.9528
4792	65.0986
4776	65.1505
4760	65.3726
4744	65.4491
4728	65.2234
4712	65.7151
4696	64.8866
4680	65.0481
4664	64.9651
4648	65.1044
4632	65.0381
4616	64.8796
4600	64.7115
4584	64.3253
4568	64.544
4552	64.3415
4536	63.8617
4520	63.9594
4504	64.3154
4488	64.0855
4472	64.0857
4456	64.0878
4440	64.6466
4424	79.4419
4408	66.8703
4392	64.0737
4376	64.4221
4360	64.0233
4344	63.9796
4328	63.9872
4312	64.0004
4296	64.4157
4280	64.5473
4264	64.7054
4248	64.9297
4232	64.7784
4216	64.9288
4200	65.0092
4184	65.1472
4168	65.0985
4152	65.2739
4136	65.0108
4120	65.3286
4104	65.4396
4088	65.3819
4072	65.2373
4056	65.2701
4040	65.3061
4024	65.1331
4008	65.2402
3992	65.4411
3976	65.1144
3960	65.1237
3944	64.9098
3928	65.1902
3912	65.2162
3896	64.901
3880	65.1163
3864	64.9604
3848	65.0725
3832	65.1269
3816	65.2752
3800	65.2969
3784	65.1333
3768	65.0737
3752	65.0981
3736	65.16
3720	65.6468
3704	65.4543
3688	65.1135
3672	65.3619
3656	65.3066
3640	65.2499
3624	65.4577
3608	65.3469
3592	65.3545
3576	65.1669
3560	65.1861
3544	65.0359
3528	65.0015
3512	65.1891
3496	65.2383
3480	64.9151
3464	64.9623
3448	64.9462
3432	64.8832
3416	65.1074
3400	65.2631
3384	65.3008
3368	65.0794
3352	65.0208
3336	65.1721
3320	65.068
3304	65.1242
3288	65.0638
3272	65.2071
3256	65.007
3240	65.081
3224	65.2161
3208	65.0912
3192	64.8944
3176	65.2378
3160	65.2192
3144	65.0509
3128	65.0053
3112	64.9809
3096	65.2181
3080	65.2987
3064	65.2115
3048	65.0843
3032	65.1419
3016	65.1434
3000	65.1762
2984	65.1582
2968	64.9146
2952	65.1288
2936	64.9715
2920	65.0526
2904	65.0701
2888	65.0171
2872	65.0293
2856	65.0347
2840	65.0465
2824	65.1246
2808	65.1238
2792	65.2499
2776	65.1381
2760	65.1065
2744	65.2204
2728	65.1014
2712	64.9389
2696	65.2509
2680	65.072
2664	65.0555
2648	65.0148
2632	65.0408
2616	64.9259
2600	65.0805
2584	64.974
2568	64.9509
2552	65.0437
2536	65.0086
2520	64.8764
2504	64.9935
2488	64.9908
2472	65.0525
2456	64.8743
2440	64.9109
2424	65.0358
2408	64.9017
2392	65.0488
2376	64.9405
2360	64.9213
2344	64.9554
2328	64.8745
2312	65.0005
2296	64.8964
2280	64.9104
2264	64.9047
2248	64.8549
2232	65.0431
2216	64.9183
2200	64.9019
2184	64.9293
2168	64.8992
2152	64.8444
2136	64.8294
2120	64.8206
2104	64.8241
2088	64.9572
2072	64.5689
2056	64.824
2040	64.8247
2024	64.8826
2008	64.8915
1992	64.789
1976	64.7853
1960	64.8259
1944	64.8734
1928	64.7381
1912	64.7669
1896	64.719
1880	64.6852
1864	64.7659
1848	64.8235
1832	64.7071
1816	64.6369
1800	64.6808
1784	64.6232
1768	64.6265
1752	64.4335
1736	64.4258
1720	64.2906
1704	64.579
1688	64.5638
1672	64.6076
1656	64.4598
1640	64.4902
1624	64.4616
1608	64.4957
1592	64.4703
1576	64.611
1560	64.6117
1544	64.439
1528	64.4085
1512	64.626
1496	64.6017
1480	64.4675
1464	64.549
1448	64.5202
1432	64.458
1416	64.317
1400	64.4723
1384	64.3759
1368	64.3695
1352	64.2695
1336	64.5366
1320	64.2786
1304	64.3547
1288	64.3826
1272	64.1114
1256	64.2452
1240	64.3054
1224	64.1576
1208	64.1382
1192	64.1836
1176	64.1823
1160	64.16
1144	64.0505
1128	64.0045
1112	64.0714
1096	64.0697
1080	64.0964
1064	64.1139
1048	64.138
1032	64.2286
1016	64.2273
1000	64.2908
984	 64.1806
968	 64.097
952	 64.1702
936	 64.172
920	 64.2395
904	 64.2106
888	 63.9129
872	 64.3391
856	 64.2952
840	 64.0959
824	 64.2312
808	 64.0938
792	 64.4899
776	 63.8585
760	 64.1963
744	 64.3657
728	 64.2316
712	 63.5848
696	 63.7744
680	 63.5342
664	 63.98
648	 63.7236
632	 64.6359
616	 63.0798
600	 64.0186
584	 64.0346
568	 64.4716
552	 64.6522
536	 63.7574
520	 64.133
504	 64.3912
488	 64.173
472	 63.5953
456	 63.6274
440	 62.389
424	 64.5616
408	 63.436
392	 75.2584
376	 44.6694
370	 40.5212