File: Bakgrunnsmateriale/MATLAB/FTIR/ftir_data/subAa/Mapping_121/BZ1503107-1_t118.asc
PE IR       SPECTRUM    SPECTRUM    ASCII       PEDS        1.60
  -1
BZEAB2~1.ASC
17/04/07
22:57:36.00
17/04/07
22:58:02.00
tln
$BZ1503107-1_t0118$<tbV0>[-5.2,13.0,8.0,0.0,27,1,0]
27.028
64

2002,4.07
MIRTGS : RIGHTBACK : INTERNAL 2
MIR : ON : INTERNAL 2
OPTKBR

0.200000
8
8.000000
FILLER
RATIO
SPECTRUM
UNLOCKED 256

DOUBLE
64
COMBINED
1
0
0

0.002000
RATIO

1
0
TRUE
51149
0
LEFT NOT FITTED RIGHT NOT FITTED 0
NONE
NONE
15600
12
4.427000
51148
TRUE
1 0 8 72 0 0 0 0

15798

#HDR
-1
-1
#GR
µM
%T
2.38419e-05
0.0
2.000000
0.002000
12515
8
73.8235
42.4046
#DATA
2.000000	 64.0428
2.084000	 64.8137
2.168000	 65.0336
2.252000	 60.5299
2.336000	 64.9697
2.420000	 64.7806
2.504000	 64.9747
2.588000	 65.089
2.672000	 65.0927
2.756000	 65.09
2.840000	 64.778
2.924000	 64.9309
3.008000	 64.8641
3.092000	 64.7384
3.176000	 64.7803
3.260000	 64.7076
3.344000	 64.7475
3.428000	 64.325
3.512000	 64.4513
3.596000	 64.6128
3.680000	 64.6616
3.764000	 64.4244
3.848000	 64.3958
3.932000	 64.4491
4.016000	 64.4765
4.100000	 64.3583
4.184000	 64.3253
4.268000	 64.2122
4.352000	 64.2589
4.436000	 64.1852
4.520000	 64.2819
4.604000	 64.1563
4.688000	 64.101
4.772000	 64.0762
4.856000	 64.0764
4.940000	 63.8586
5.024000	 63.918
5.108000	 63.9056
5.192000	 63.8692
5.276000	 63.8476
5.359999	 63.7839
5.444000	 63.7234
5.528000	 63.8049
5.612000	 63.707
5.696000	 63.5605
5.780000	 63.2865
5.864000	 63.4555
5.948000	 63.4618
6.032000	 63.4988
6.116000	 63.4845
6.200000	 63.3975
6.284000	 63.3676
6.368000	 63.192
6.452000	 63.1478
6.536000	 63.1754
6.620000	 63.2629
6.704000	 63.1374
6.788000	 63.1008
6.872000	 63.1151
6.956000	 63.036
7.040000	 63.034
7.124000	 62.9905
7.208000	 62.9347
7.292000	 63.0426
7.376000	 62.9805
7.460000	 62.9765
7.544000	 63.0255
7.628000	 62.9857
7.712000	 62.9095
7.796000	 62.9488
7.880000	 62.8798
7.964000	 62.5179
8.048000	 62.7851
8.132000	 62.7142
8.216000	 62.7163
8.300000	 62.7575
8.384000	 62.7343
8.468000	 62.6342
8.552000	 62.5086
8.635999	 62.7113
8.719999	 62.6472
8.804000	 62.6513
8.888000	 62.5467
8.972000	 62.4793
9.056000	 62.4918
9.140000	 62.6086
9.224000	 62.4572
9.308000	 62.5727
9.391999	 62.534
9.475999	 62.3512
9.560000	 62.2892
9.644000	 62.3195
9.728000	 62.555
9.812000	 62.3723
9.896000	 62.3733
9.980000	 62.4229
10.064	62.4432
10.148	62.3459
10.232	62.4394
10.316	62.3514
10.4	62.3327
10.484	62.4756
10.568	62.4631
10.652	62.3214
10.736	62.4088
10.82	62.3205
10.904	62.3211
10.988	62.4543
11.072	62.3833
11.156	62.34
11.24	62.4058
11.324	62.3762
11.408	62.4207
11.492	62.3989
11.576	62.2584
11.66	62.3463
11.744	62.3873
11.828	62.2814
11.912	62.148
11.996	62.1441
12.08	62.2345
12.164	62.2115
12.248	62.4124
12.332	62.2968
12.416	62.1956
12.5	62.3168
12.584	62.3458
12.668	62.2011
12.752	61.9928
12.836	62.021
12.92	61.8996
13.004	61.6978
13.088	61.622
13.172	61.6915
13.256	61.9686
13.34	62.0495
13.424	61.998
13.508	61.9827
13.592	62.0334
13.676	61.9701
13.76	61.7885
13.844	61.6705
13.928	61.7166
14.012	61.804
14.096	61.7518
14.18	61.7251
14.264	61.7316
14.348	61.7245
14.432	61.6688
14.516	61.4765
14.6	61.3401
14.684	61.4009
14.768	61.4824
14.852	61.5196
14.936	61.5642
15.02	61.6484
15.104	61.6517
15.188	61.4572
15.272	61.2925
15.356	61.3822
15.44	61.4776
15.524	61.3348
15.608	61.2732
15.692	61.4407
15.776	61.3852
15.86	61.1746
15.944	61.4468
16.028	62.099
16.112	62.4792
16.196	62.557
16.28	62.7546
16.364	63.0166
16.448	62.8032
16.532	61.9083
16.616	60.8017
16.7	60.0522
16.784	59.8401
16.868	60.0141
16.952	60.1559
17.036	59.9659
17.12	59.7868
17.204	60.1157
17.288	60.696
17.372	60.92
17.456	60.8356
17.54	60.9804
17.624	61.4529
17.708	61.8216
17.792	61.7569
17.876	61.327
17.96	60.8414
18.044	60.5947
18.128	60.6392
18.212	60.799
18.296	60.945
18.38	61.1538
18.464	61.5309
18.548	61.9733
18.632	62.1803
18.716	61.9496
18.8	61.384
18.884	60.7922
18.968	60.4396
19.052	60.3887
19.136	60.5071
19.22	60.6003
19.304	60.5875
19.388	60.5503
19.472	60.6014
19.556	60.7141
19.64	60.7301
19.724	60.5612
19.808	60.3065
19.892	60.1351
19.976	60.1175
20.06	60.2031
20.144	60.3072
20.228	60.3772
20.312	60.4129
20.396	60.4412
20.48	60.4738
20.564	60.4822
20.648	60.4219
20.732	60.2908
20.816	60.1583
20.9	60.1267
20.984	60.2385
21.068	60.4292
21.152	60.5782
21.236	60.6012
21.32	60.4992
21.404	60.3308
21.488	60.1553
21.572	59.9963
21.656	59.8532
21.74	59.7315
21.824	59.6569
21.908	59.665
21.992	59.7739
22.076	59.9648
22.16	60.1805
22.244	60.3357
22.328	60.3588
22.412	60.2211
22.496	59.9546
22.58	59.6338
22.664	59.3369
22.748	59.1115
22.832	58.968
22.916	58.9014
23	58.9042
23.084	58.9799
23.168	59.1438
23.252	59.4033
23.336	59.7394
23.42	60.115
23.504	60.4873
23.588	60.8193
23.672	61.0816
23.756	61.2442
23.84	61.2693
23.924	61.1271
24.008	60.8
24.092	60.3073
24.176	59.759
24.26	59.3345
24.344	59.2314
24.428	59.5491
24.512	60.2338
24.596	61.0406
24.68	61.6327
24.764	61.7481
24.848	61.3123
24.932	60.4761
25.016	59.5389
25.1	58.7685
25.184	58.3221
25.268	58.1984
25.352	58.3061
25.436	58.5823
25.52	59.0916
25.604	60.019
25.688	61.6094
25.772	63.9832
25.856	66.9802
25.94	70.1191
26.024	72.6526
26.108	73.8069
26.192	73.1128
26.276	70.5266
26.36	66.4669
26.444	61.6461
26.528	56.8176
26.612	52.5677
26.696	49.1909
26.78	46.6677
26.864	44.7927
26.948	43.3676
27.028	42.4046