File: Bakgrunnsmateriale/MATLAB/FTIR/ftir_data/subAa/Mapping_121/BZ1503107-1_t56.asc
PE IR       SPECTRUM    SPECTRUM    ASCII       PEDS        1.60
  -1
BZ2163~1.ASC
17/04/07
17:50:29.00
17/04/07
17:50:55.00
tln
$BZ1503107-1_t0056$<tbV0>[13.0,0.0,8.0,0.0,27,1,0]
27.028
64

2002,4.07
MIRTGS : RIGHTBACK : INTERNAL 2
MIR : ON : INTERNAL 2
OPTKBR

0.200000
8
8.000000
FILLER
RATIO
SPECTRUM
UNLOCKED 256

DOUBLE
64
COMBINED
1
0
0

0.002000
RATIO

1
0
TRUE
51149
0
LEFT NOT FITTED RIGHT NOT FITTED 0
NONE
NONE
15600
12
4.427000
51148
TRUE
1 0 8 72 0 0 0 0

15798

#HDR
-1
-1
#GR
µM
%T
2.38419e-05
0.0
2.000000
0.002000
12515
8
74.1256
47.1955
#DATA
2.000000	 65.603
2.084000	 64.837
2.168000	 65.0095
2.252000	 68.5203
2.336000	 65.0822
2.420000	 65.0121
2.504000	 65.2526
2.588000	 65.2077
2.672000	 65.1947
2.756000	 65.0753
2.840000	 64.9076
2.924000	 65.1255
3.008000	 65.1995
3.092000	 65.009
3.176000	 65.0872
3.260000	 65.0939
3.344000	 65.0073
3.428000	 64.9651
3.512000	 65.0269
3.596000	 64.9184
3.680000	 64.9202
3.764000	 64.941
3.848000	 64.9166
3.932000	 64.9197
4.016000	 64.934
4.100000	 64.9059
4.184000	 64.9405
4.268000	 64.7754
4.352000	 64.8223
4.436000	 64.7961
4.520000	 64.7144
4.604000	 64.6943
4.688000	 64.6687
4.772000	 64.7397
4.856000	 64.7291
4.940000	 64.5773
5.024000	 64.6142
5.108000	 64.513
5.192000	 64.4877
5.276000	 64.4205
5.359999	 64.5421
5.444000	 64.5858
5.528000	 64.4637
5.612000	 64.4381
5.696000	 64.3428
5.780000	 64.2186
5.864000	 64.3137
5.948000	 64.2386
6.032000	 64.2967
6.116000	 64.1554
6.200000	 64.3109
6.284000	 64.1791
6.368000	 64.2606
6.452000	 64.2213
6.536000	 64.176
6.620000	 64.2767
6.704000	 64.3091
6.788000	 64.1233
6.872000	 64.2225
6.956000	 64.0878
7.040000	 64.1022
7.124000	 64.129
7.208000	 64.1168
7.292000	 63.9872
7.376000	 64.0399
7.460000	 64.1334
7.544000	 63.9989
7.628000	 64.0508
7.712000	 64.2389
7.796000	 64.0344
7.880000	 64.051
7.964000	 63.9156
8.048000	 63.9836
8.132000	 63.8142
8.216000	 63.872
8.300000	 63.9442
8.384000	 63.8543
8.468000	 63.8507
8.552000	 63.8957
8.635999	 63.6412
8.719999	 63.7465
8.804000	 63.8688
8.888000	 63.7706
8.972000	 63.5839
9.056000	 63.7135
9.140000	 63.7818
9.224000	 63.7839
9.308000	 63.5993
9.391999	 63.6194
9.475999	 63.8304
9.560000	 63.5839
9.644000	 63.6938
9.728000	 63.8343
9.812000	 63.8597
9.896000	 63.6098
9.980000	 63.8257
10.064	63.7327
10.148	63.7258
10.232	63.8592
10.316	63.8341
10.4	63.7393
10.484	63.6803
10.568	63.7979
10.652	63.6567
10.736	63.7303
10.82	63.7061
10.904	63.7821
10.988	63.9503
11.072	63.9346
11.156	63.7056
11.24	63.6852
11.324	63.8343
11.408	63.687
11.492	63.5416
11.576	63.4544
11.66	63.7403
11.744	63.6691
11.828	63.7508
11.912	63.8354
11.996	63.7067
12.08	63.821
12.164	63.7244
12.248	63.5146
12.332	63.6258
12.416	63.6116
12.5	63.698
12.584	63.7114
12.668	63.5243
12.752	63.3764
12.836	63.542
12.92	63.6471
13.004	63.6924
13.088	63.628
13.172	63.5008
13.256	63.387
13.34	63.1916
13.424	63.2517
13.508	63.4405
13.592	63.4189
13.676	63.3262
13.76	63.3582
13.844	63.4009
13.928	63.3793
14.012	63.4826
14.096	63.5325
14.18	63.3493
14.264	63.2663
14.348	63.4079
14.432	63.5508
14.516	63.6175
14.6	63.5148
14.684	63.4963
14.768	63.6571
14.852	63.5324
14.936	63.2907
15.02	63.2585
15.104	63.2747
15.188	63.3231
15.272	63.389
15.356	63.4428
15.44	63.4553
15.524	63.302
15.608	63.24
15.692	63.3969
15.776	63.354
15.86	63.0551
15.944	62.89
16.028	63.0417
16.112	63.36
16.196	63.4756
16.28	63.2277
16.364	62.9683
16.448	62.9913
16.532	63.1015
16.616	63.0537
16.7	62.9287
16.784	62.8892
16.868	62.9358
16.952	63.0573
17.036	63.3361
17.12	63.6843
17.204	63.7676
17.288	63.4692
17.372	63.0979
17.456	62.9346
17.54	62.9532
17.624	63.0832
17.708	63.3317
17.792	63.556
17.876	63.5456
17.96	63.4294
18.044	63.5865
18.128	64.0771
18.212	64.5368
18.296	64.7011
18.38	64.6979
18.464	64.6975
18.548	64.6243
18.632	64.3824
18.716	64.1419
18.8	64.1665
18.884	64.4448
18.968	64.6529
19.052	64.476
19.136	63.8883
19.22	63.1158
19.304	62.4318
19.388	62.0141
19.472	61.9315
19.556	62.1277
19.64	62.4246
19.724	62.6191
19.808	62.6309
19.892	62.5487
19.976	62.5246
20.06	62.6053
20.144	62.6934
20.228	62.6545
20.312	62.4497
20.396	62.1803
20.48	62.0124
20.564	62.0568
20.648	62.2867
20.732	62.573
20.816	62.8101
20.9	63.001
20.984	63.2264
21.068	63.519
21.152	63.7877
21.236	63.88
21.32	63.7364
21.404	63.4709
21.488	63.284
21.572	63.2861
21.656	63.4211
21.74	63.5314
21.824	63.4856
21.908	63.2757
21.992	62.9968
22.076	62.7608
22.16	62.6275
22.244	62.5799
22.328	62.5702
22.412	62.5592
22.496	62.53
22.58	62.4682
22.664	62.3461
22.748	62.1298
22.832	61.8096
22.916	61.416
23	61.0413
23.084	60.7902
23.168	60.7414
23.252	60.9111
23.336	61.2623
23.42	61.7355
23.504	62.2791
23.588	62.8429
23.672	63.3663
23.756	63.7827
23.84	64.0583
23.924	64.21
24.008	64.2955
24.092	64.3715
24.176	64.4316
24.26	64.3959
24.344	64.1181
24.428	63.4724
24.512	62.4439
24.596	61.1794
24.68	59.9449
24.764	59.0227
24.848	58.6031
24.932	58.7761
25.016	59.4944
25.1	60.5906
25.184	61.7691
25.268	62.704
25.352	63.1482
25.436	62.9732
25.52	62.2242
25.604	61.0755
25.688	59.7756
25.772	58.4864
25.856	57.1871
25.94	55.726
26.024	53.9343
26.108	51.7768
26.192	49.5452
26.276	47.795
26.36	47.201
26.444	48.1317
26.528	50.4266
26.612	53.3624
26.696	55.9679
26.78	57.3741
26.864	57.2883
26.948	56.1102
27.028	54.8006