File: Bakgrunnsmateriale/MATLAB/FTIR/ftir_data/subAa/Mapping_121/BZ1503107-1_t47_cm-1.asc
PE IR       SPECTRUM    SPECTRUM    ASCII       PEDS        1.60
  -1
BZ6F24~1.ASC
17/04/07
17:08:17.00
17/04/07
17:08:17.00
tln
$BZ1503107-1_t0047$<tbV0>[7.8,-2.6,8.0,0.0,27,1,0]
370
64

2002,4.07
MIRTGS : RIGHTBACK : INTERNAL 2
MIR : ON : INTERNAL 2
OPTKBR

0.200000
8
8.000000
FILLER
RATIO
SPECTRUM
UNLOCKED 256

DOUBLE
64
COMBINED
1
0
0

1.000000
RATIO

1
0
TRUE
51149
0
LEFT NOT FITTED RIGHT NOT FITTED 0
NONE
NONE
15600
12
4.427000
51148
TRUE
1 0 8 72 0 0 0 0

15798

#HDR
-1
-1
#GR
CM-1
%T
2.38419e-05
0.0
5000
-1.000000
4631
8
70.2221
43.1186
#DATA
5000	65.954
4984	65.9103
4968	65.3748
4952	64.9285
4936	65.5566
4920	64.5472
4904	64.9011
4888	64.7219
4872	64.5915
4856	64.2591
4840	65.0128
4824	65.115
4808	64.7531
4792	64.7048
4776	65.4477
4760	64.6454
4744	65.0058
4728	65.0179
4712	64.6461
4696	65.0866
4680	65.0526
4664	65.0439
4648	65.1659
4632	65.2513
4616	64.6144
4600	65.0674
4584	65.2061
4568	64.7467
4552	65.6456
4536	64.8617
4520	65.3298
4504	64.994
4488	64.6408
4472	64.1463
4456	64.4376
4440	66.7994
4424	66.7983
4408	66.3079
4392	65.4927
4376	64.7596
4360	65.4067
4344	64.9823
4328	65.325
4312	65.0318
4296	64.9976
4280	64.877
4264	64.7656
4248	65.0871
4232	64.9456
4216	65.0674
4200	65.2209
4184	65.0507
4168	64.9223
4152	64.8426
4136	64.9588
4120	65.1521
4104	65.349
4088	65.0548
4072	64.8584
4056	65.1015
4040	65.3005
4024	65.1345
4008	65.02
3992	65.121
3976	65.1336
3960	64.9164
3944	65.0823
3928	64.6747
3912	64.9167
3896	64.8757
3880	64.855
3864	65.0579
3848	65.2634
3832	65.236
3816	65.3364
3800	65.1213
3784	65.0861
3768	65.1141
3752	64.9937
3736	65.1321
3720	65.2133
3704	65.1456
3688	64.851
3672	65.1532
3656	65.1756
3640	65.1364
3624	65.1185
3608	65.0195
3592	65.1532
3576	65.1471
3560	65.059
3544	65.1025
3528	65.0272
3512	65.1072
3496	65.1192
3480	65.2887
3464	65.2452
3448	65.2349
3432	65.0083
3416	65.1604
3400	64.9591
3384	64.9037
3368	65.0678
3352	64.9581
3336	65.0534
3320	65.1206
3304	64.9878
3288	65.1402
3272	64.9579
3256	65.1351
3240	64.9024
3224	65.1171
3208	65.1093
3192	65.1177
3176	65.0315
3160	64.939
3144	65.1553
3128	65.0772
3112	65.074
3096	65.0763
3080	64.9564
3064	65.0671
3048	65.0087
3032	64.9747
3016	65.0172
3000	65.0434
2984	65.0317
2968	64.9541
2952	64.973
2936	64.8895
2920	64.9191
2904	65.0802
2888	64.9605
2872	64.834
2856	64.905
2840	64.9518
2824	65.0326
2808	64.923
2792	65.0946
2776	64.9214
2760	64.8125
2744	64.9637
2728	64.8558
2712	64.931
2696	64.9547
2680	64.9848
2664	64.8978
2648	64.9319
2632	64.8976
2616	64.8786
2600	64.9244
2584	64.954
2568	64.8197
2552	64.8061
2536	64.8323
2520	64.8124
2504	64.8436
2488	64.8846
2472	64.8026
2456	64.8269
2440	64.983
2424	64.8963
2408	64.8638
2392	64.7737
2376	64.8048
2360	64.8022
2344	64.8924
2328	64.9164
2312	64.9096
2296	64.8778
2280	64.8027
2264	64.8698
2248	64.7257
2232	64.7736
2216	64.7702
2200	64.8164
2184	64.5844
2168	64.6705
2152	64.7417
2136	64.7477
2120	64.7177
2104	64.7569
2088	64.7233
2072	64.7265
2056	64.697
2040	64.6246
2024	64.6651
2008	64.6681
1992	64.7386
1976	64.7592
1960	64.5925
1944	64.6095
1928	64.6191
1912	64.5908
1896	64.5876
1880	64.5951
1864	64.6003
1848	64.5576
1832	64.5639
1816	64.5329
1800	64.5846
1784	64.5724
1768	64.4526
1752	64.5747
1736	64.4023
1720	64.343
1704	64.3591
1688	64.4059
1672	64.4431
1656	64.3581
1640	64.5465
1624	64.2709
1608	64.3375
1592	64.2815
1576	64.2174
1560	64.3208
1544	64.2744
1528	64.2568
1512	64.2706
1496	64.3441
1480	64.2671
1464	64.1887
1448	64.1612
1432	64.1074
1416	64.1691
1400	64.201
1384	64.0759
1368	64.2114
1352	64.0259
1336	64.0365
1320	64.0395
1304	64.1023
1288	64.1072
1272	64.0578
1256	64.1132
1240	64.0486
1224	63.9444
1208	64.1166
1192	63.9125
1176	64.1642
1160	63.8891
1144	63.8898
1128	63.7887
1112	63.8293
1096	63.8449
1080	63.8491
1064	63.8363
1048	63.7688
1032	63.797
1016	63.8501
1000	63.8294
984	 64.0166
968	 63.8088
952	 63.7583
936	 63.778
920	 63.9195
904	 63.9545
888	 63.7907
872	 63.752
856	 63.937
840	 63.807
824	 63.9866
808	 63.6364
792	 63.672
776	 63.7949
760	 63.3922
744	 63.7052
728	 63.4324
712	 63.6461
696	 63.4487
680	 63.5284
664	 63.0915
648	 63.5269
632	 63.1724
616	 63.824
600	 62.9642
584	 62.8044
568	 62.9484
552	 63.6695
536	 63.1556
520	 63.5932
504	 62.9304
488	 63.107
472	 64.1402
456	 64.3583
440	 63.3349
424	 62.6972
408	 59.7751
392	 56.603
376	 56.7599
370	 43.1186