File: Bakgrunnsmateriale/MATLAB/FTIR/ftir_data/subAa/Mapping_121/BZ1503107-1_t94_cm-1.asc
PE IR       SPECTRUM    SPECTRUM    ASCII       PEDS        1.60
  -1
BZ6CA5~1.ASC
17/04/07
20:59:51.00
17/04/07
20:59:51.00
tln
$BZ1503107-1_t0094$<tbV0>[0.0,7.8,8.0,0.0,27,1,0]
370
64

2002,4.07
MIRTGS : RIGHTBACK : INTERNAL 2
MIR : ON : INTERNAL 2
OPTKBR

0.200000
8
8.000000
FILLER
RATIO
SPECTRUM
UNLOCKED 256

DOUBLE
64
COMBINED
1
0
0

1.000000
RATIO

1
0
TRUE
51149
0
LEFT NOT FITTED RIGHT NOT FITTED 0
NONE
NONE
15600
12
4.427000
51148
TRUE
1 0 8 72 0 0 0 0

15798

#HDR
-1
-1
#GR
CM-1
%T
2.38419e-05
0.0
5000
-1.000000
4631
8
88.2444
53.5846
#DATA
5000	63.8155
4984	63.7357
4968	64.9251
4952	65.6476
4936	64.804
4920	64.4071
4904	65.1382
4888	64.4802
4872	65.1605
4856	64.6047
4840	64.6741
4824	64.5822
4808	65.3171
4792	65.009
4776	64.8381
4760	64.6597
4744	64.7471
4728	64.5381
4712	64.55
4696	64.5946
4680	64.9469
4664	64.82
4648	65.0432
4632	64.7525
4616	64.8095
4600	64.5038
4584	64.5963
4568	64.3682
4552	64.2479
4536	64.2048
4520	64.3782
4504	64.211
4488	63.9359
4472	63.6195
4456	65.1556
4440	88.2444
4424	65.6057
4408	64.1572
4392	63.9855
4376	64.0063
4360	64.7408
4344	64.4858
4328	64.766
4312	64.5971
4296	64.6228
4280	64.6456
4264	64.5113
4248	64.9741
4232	64.7158
4216	64.5034
4200	64.8983
4184	65.0704
4168	65.1834
4152	65.0084
4136	64.9241
4120	64.961
4104	65.0158
4088	64.8883
4072	65.0409
4056	64.9682
4040	64.7106
4024	65.0374
4008	64.8481
3992	64.9461
3976	64.9136
3960	64.9699
3944	64.5381
3928	64.8736
3912	64.7885
3896	65.0791
3880	64.8021
3864	64.7078
3848	64.9036
3832	64.8523
3816	65.02
3800	64.8876
3784	65.113
3768	65.0995
3752	64.8681
3736	65.0592
3720	65.0455
3704	65.0608
3688	65.1353
3672	64.9835
3656	65.033
3640	65.2278
3624	64.9111
3608	64.9256
3592	65.0579
3576	64.8879
3560	64.9137
3544	64.9159
3528	65.0278
3512	64.9206
3496	65.0711
3480	64.949
3464	64.9434
3448	65.0012
3432	64.8828
3416	64.8893
3400	64.8774
3384	64.9059
3368	64.8063
3352	64.7527
3336	64.8488
3320	64.7329
3304	64.9374
3288	65.0067
3272	64.8769
3256	64.9387
3240	64.8418
3224	64.8273
3208	64.8066
3192	65.05
3176	64.9089
3160	64.9497
3144	64.808
3128	64.6909
3112	64.822
3096	64.7104
3080	64.7264
3064	64.8303
3048	64.8689
3032	64.8036
3016	64.8444
3000	64.7752
2984	64.718
2968	64.501
2952	64.5348
2936	64.6345
2920	64.8739
2904	64.7403
2888	64.7598
2872	64.612
2856	64.6048
2840	64.7686
2824	64.8324
2808	64.7632
2792	64.7662
2776	64.776
2760	64.795
2744	64.7307
2728	64.9198
2712	64.8652
2696	64.7207
2680	64.6309
2664	64.6726
2648	64.6968
2632	64.7484
2616	64.6081
2600	64.5052
2584	64.6985
2568	64.6196
2552	64.5279
2536	64.5761
2520	64.5846
2504	64.5887
2488	64.5944
2472	64.7012
2456	64.6373
2440	64.4755
2424	64.6522
2408	64.5178
2392	64.447
2376	64.5119
2360	64.5252
2344	64.456
2328	64.5557
2312	64.4796
2296	64.4867
2280	64.3884
2264	64.4546
2248	64.4141
2232	64.3052
2216	64.3761
2200	64.2611
2184	64.2748
2168	64.3806
2152	64.2732
2136	64.2585
2120	64.3388
2104	64.3102
2088	64.364
2072	64.119
2056	64.3857
2040	64.265
2024	64.191
2008	64.2456
1992	64.2137
1976	64.2208
1960	64.1773
1944	64.0894
1928	64.0452
1912	64.1547
1896	64.1336
1880	64.0831
1864	64.0899
1848	63.9984
1832	64.0423
1816	64.1318
1800	64.0794
1784	63.8851
1768	63.9219
1752	63.6984
1736	63.4652
1720	63.7608
1704	63.747
1688	63.7746
1672	63.5367
1656	63.7348
1640	63.7487
1624	63.7746
1608	63.7929
1592	63.7678
1576	63.6596
1560	63.5861
1544	63.6203
1528	63.673
1512	63.596
1496	63.7789
1480	63.7229
1464	63.6115
1448	63.4766
1432	63.5555
1416	63.5647
1400	63.4691
1384	63.4624
1368	63.4659
1352	63.3645
1336	63.3056
1320	63.3963
1304	63.3935
1288	63.1788
1272	63.2251
1256	63.2617
1240	63.2026
1224	63.2356
1208	63.2071
1192	63.2183
1176	63.0435
1160	63.0143
1144	63.102
1128	63.1217
1112	63.107
1096	63.0367
1080	62.8643
1064	62.9967
1048	62.9795
1032	62.9613
1016	62.8386
1000	62.8492
984	 63.0723
968	 63.0446
952	 62.9225
936	 62.9374
920	 62.8193
904	 62.8467
888	 62.9416
872	 63.0148
856	 62.9038
840	 62.6334
824	 62.8726
808	 62.9756
792	 62.964
776	 62.6724
760	 62.615
744	 62.7831
728	 62.7386
712	 62.3701
696	 62.383
680	 62.272
664	 62.4238
648	 62.4588
632	 62.2404
616	 61.8622
600	 62.1269
584	 61.6687
568	 62.0896
552	 62.9024
536	 61.5549
520	 62.4858
504	 61.2539
488	 63.1768
472	 61.7808
456	 61.3338
440	 60.457
424	 59.1421
408	 58.9394
392	 60.3654
376	 54.6538
370	 61.6897