File: Bakgrunnsmateriale/MATLAB/FTIR/ftir_data/subAa/Mapping_121/BZ1503107-1_t24_cm-1.asc
PE IR       SPECTRUM    SPECTRUM    ASCII       PEDS        1.60
  -1
BZ6C23~1.ASC
17/04/07
15:14:28.00
17/04/07
15:14:28.00
tln
$BZ1503107-1_t0024$<tbV0>[10.4,-7.8,8.0,0.0,27,1,0]
370
64

2002,4.07
MIRTGS : RIGHTBACK : INTERNAL 2
MIR : ON : INTERNAL 2
OPTKBR

0.200000
8
8.000000
FILLER
RATIO
SPECTRUM
UNLOCKED 256

DOUBLE
64
COMBINED
1
0
0

1.000000
RATIO

1
0
TRUE
51149
0
LEFT NOT FITTED RIGHT NOT FITTED 0
NONE
NONE
15600
12
4.427000
51148
TRUE
1 0 8 72 0 0 0 0

15798

#HDR
-1
-1
#GR
CM-1
%T
2.38419e-05
0.0
5000
-1.000000
4631
8
89.6182
39.9932
#DATA
5000	65.632
4984	64.7202
4968	64.4967
4952	64.1873
4936	64.7197
4920	64.7722
4904	64.5373
4888	64.6296
4872	64.9785
4856	65.1715
4840	65.0018
4824	64.8777
4808	64.7674
4792	65.2417
4776	64.9699
4760	65.6251
4744	65.2913
4728	65.3003
4712	65.9468
4696	65.0586
4680	65.0504
4664	65.2469
4648	65.1244
4632	64.7096
4616	64.6914
4600	64.4496
4584	64.3068
4568	64.4346
4552	64.4674
4536	64.4047
4520	64.3654
4504	64.0827
4488	64.7385
4472	64.0701
4456	63.3247
4440	64.1527
4424	84.5314
4408	67.0716
4392	65.8586
4376	64.1574
4360	64.5764
4344	64.2233
4328	64.5036
4312	64.3625
4296	64.7735
4280	65.1304
4264	64.8188
4248	64.694
4232	65.0089
4216	65.2881
4200	64.8494
4184	65.2422
4168	64.9371
4152	65.0505
4136	65.4345
4120	65.2775
4104	65.138
4088	65.2394
4072	65.2396
4056	65.2397
4040	65.3026
4024	65.129
4008	65.3372
3992	65.4098
3976	65.1831
3960	65.0121
3944	65.0156
3928	64.9743
3912	65.2036
3896	65.2391
3880	65.0167
3864	65.0558
3848	65.0426
3832	65.166
3816	65.2436
3800	65.2344
3784	64.9907
3768	65.245
3752	65.2464
3736	65.1872
3720	65.1905
3704	65.0592
3688	65.0531
3672	65.3499
3656	65.3378
3640	65.0823
3624	65.0949
3608	65.198
3592	65.1582
3576	65.0429
3560	65.0679
3544	65.1309
3528	65.1646
3512	65.1924
3496	65.2378
3480	65.1683
3464	65.0354
3448	65.1584
3432	65.0603
3416	65.1363
3400	65.1384
3384	65.0907
3368	65.1144
3352	65.3349
3336	65.2315
3320	65.2254
3304	65.1803
3288	65.0741
3272	65.245
3256	65.1385
3240	65.185
3224	65.0759
3208	64.9197
3192	65.2073
3176	65.0462
3160	65.1988
3144	64.927
3128	64.9963
3112	65.0739
3096	65.0522
3080	65.1982
3064	65.1707
3048	65.0496
3032	64.9862
3016	65.0081
3000	65.1416
2984	65.2315
2968	64.9462
2952	64.9315
2936	64.9941
2920	65.0325
2904	65.0858
2888	65.0285
2872	64.9715
2856	65.1376
2840	64.9018
2824	65.0536
2808	64.9932
2792	65.2138
2776	65.17
2760	65.0749
2744	65.1569
2728	65.0267
2712	64.9861
2696	65.0935
2680	64.99
2664	64.974
2648	65.073
2632	65.0908
2616	64.8623
2600	65.0261
2584	64.9266
2568	64.8873
2552	64.9337
2536	64.9698
2520	65.0357
2504	64.9856
2488	64.9234
2472	64.9905
2456	64.8312
2440	65.0307
2424	65.0099
2408	64.7347
2392	65.1085
2376	64.9637
2360	64.9572
2344	64.9766
2328	64.8127
2312	64.9237
2296	64.9053
2280	64.9763
2264	64.8934
2248	64.8655
2232	64.8892
2216	64.7965
2200	65.0474
2184	64.8759
2168	64.852
2152	64.8706
2136	64.8332
2120	64.8884
2104	64.8262
2088	64.8471
2072	64.8652
2056	64.8032
2040	64.8136
2024	64.8362
2008	64.8796
1992	64.7298
1976	64.8314
1960	64.7125
1944	64.7482
1928	64.7515
1912	64.74
1896	64.7233
1880	64.7247
1864	64.657
1848	64.7077
1832	64.6271
1816	64.6703
1800	64.7143
1784	64.588
1768	64.7053
1752	64.4626
1736	64.4475
1720	64.4732
1704	64.6439
1688	64.5685
1672	64.6373
1656	64.5371
1640	64.4702
1624	64.53
1608	64.5492
1592	64.45
1576	64.5134
1560	64.5308
1544	64.4325
1528	64.5046
1512	64.6548
1496	64.6311
1480	64.4907
1464	64.3932
1448	64.4566
1432	64.5049
1416	64.3146
1400	64.2892
1384	64.3287
1368	64.3267
1352	64.2912
1336	64.3785
1320	64.2634
1304	64.3764
1288	64.3411
1272	64.2915
1256	64.2626
1240	64.3597
1224	64.2408
1208	64.1548
1192	64.2309
1176	64.2607
1160	64.2644
1144	64.1796
1128	63.9953
1112	64.2078
1096	64.1316
1080	64.1317
1064	64.1957
1048	64.074
1032	64.1262
1016	64.2577
1000	64.0528
984	 64.1447
968	 64.2942
952	 64.2422
936	 64.2224
920	 64.1857
904	 64.1227
888	 64.2219
872	 64.2594
856	 64.1688
840	 64.1362
824	 64.1524
808	 63.9842
792	 63.9744
776	 64.321
760	 63.9671
744	 63.9677
728	 63.941
712	 63.9303
696	 63.9038
680	 64.2201
664	 63.4666
648	 64.0686
632	 64.8531
616	 63.5028
600	 64.7028
584	 64.267
568	 64.1197
552	 64.3423
536	 63.1536
520	 63.4831
504	 63.7563
488	 63.0001
472	 63.7975
456	 64.5154
440	 63.5584
424	 64.2463
408	 62.4009
392	 69.2958
376	 57.828
370	 39.9932