File: Bakgrunnsmateriale/MATLAB/FTIR/ftir_data/subAa/Mapping_121/BZ1503107-1_t98_cm-1.asc
PE IR       SPECTRUM    SPECTRUM    ASCII       PEDS        1.60
  -1
BZ60B5~1.ASC
17/04/07
21:18:20.00
17/04/07
21:18:20.00
tln
$BZ1503107-1_t0098$<tbV0>[-10.4,7.8,8.0,0.0,27,1,0]
370
64

2002,4.07
MIRTGS : RIGHTBACK : INTERNAL 2
MIR : ON : INTERNAL 2
OPTKBR

0.200000
8
8.000000
FILLER
RATIO
SPECTRUM
UNLOCKED 256

DOUBLE
64
COMBINED
1
0
0

1.000000
RATIO

1
0
TRUE
51149
0
LEFT NOT FITTED RIGHT NOT FITTED 0
NONE
NONE
15600
12
4.427000
51148
TRUE
1 0 8 72 0 0 0 0

15798

#HDR
-1
-1
#GR
CM-1
%T
2.38419e-05
0.0
5000
-1.000000
4631
8
74.046
53.075
#DATA
5000	65.9687
4984	63.8658
4968	64.7237
4952	68.5
4936	64.2198
4920	66.1313
4904	65.6359
4888	64.6871
4872	65.3064
4856	65.1173
4840	65.2571
4824	65.5783
4808	65.1738
4792	65.376
4776	65.3342
4760	65.5582
4744	65.2535
4728	65.1728
4712	65.1805
4696	65.2764
4680	65.7157
4664	65.481
4648	65.5877
4632	65.3424
4616	65.1653
4600	65.2909
4584	64.7389
4568	65.113
4552	64.5592
4536	65.0829
4520	65.2492
4504	64.8365
4488	64.45
4472	64.1526
4456	63.4151
4440	74.046
4424	68.151
4408	65.733
4392	64.6401
4376	64.8625
4360	65.1335
4344	64.9916
4328	65.1038
4312	65.0123
4296	65.0151
4280	65.0953
4264	64.7698
4248	64.9349
4232	65.0079
4216	65.1562
4200	65.3043
4184	65.0244
4168	65.5273
4152	65.4629
4136	65.0556
4120	65.2621
4104	65.3505
4088	65.289
4072	65.4067
4056	65.2316
4040	65.3613
4024	65.3153
4008	65.1364
3992	65.2926
3976	65.1306
3960	65.2788
3944	65.0568
3928	65.2714
3912	65.1769
3896	65.2372
3880	65.0549
3864	65.111
3848	65.383
3832	65.3785
3816	65.2002
3800	65.1003
3784	65.2584
3768	65.2767
3752	65.333
3736	65.138
3720	65.3839
3704	65.3605
3688	65.2792
3672	65.3959
3656	65.1859
3640	65.2183
3624	65.0653
3608	65.3306
3592	65.2851
3576	65.1378
3560	65.2201
3544	65.0194
3528	65.2308
3512	65.1199
3496	65.3587
3480	65.1808
3464	65.1186
3448	64.8887
3432	64.9858
3416	65.0534
3400	64.9964
3384	65.1194
3368	65.1509
3352	65.1995
3336	64.9614
3320	65.1297
3304	65.1243
3288	65.0398
3272	65.0612
3256	65.1921
3240	65.0143
3224	65.0056
3208	65.0021
3192	65.1231
3176	65.0615
3160	65.076
3144	65.0027
3128	64.9907
3112	65.187
3096	65.1899
3080	64.9182
3064	65.0824
3048	65.0348
3032	64.856
3016	64.9839
3000	64.9425
2984	64.7344
2968	64.4794
2952	64.452
2936	64.5381
2920	64.707
2904	64.6091
2888	64.6972
2872	64.8226
2856	64.7444
2840	64.7986
2824	64.8628
2808	64.8293
2792	64.8282
2776	64.9812
2760	64.9005
2744	64.8526
2728	64.8843
2712	64.759
2696	64.6873
2680	64.685
2664	64.7842
2648	64.8697
2632	64.8224
2616	64.7907
2600	64.6977
2584	64.7948
2568	64.8287
2552	64.6791
2536	64.6997
2520	64.7063
2504	64.6745
2488	64.7487
2472	64.7914
2456	64.7697
2440	64.6193
2424	64.7886
2408	64.5897
2392	64.5965
2376	64.6109
2360	64.617
2344	64.5513
2328	64.5914
2312	64.5536
2296	64.5008
2280	64.4777
2264	64.5399
2248	64.5452
2232	64.5755
2216	64.5444
2200	64.3453
2184	64.3842
2168	64.3993
2152	64.3657
2136	64.4611
2120	64.454
2104	64.4191
2088	64.3687
2072	64.3563
2056	64.4935
2040	64.2967
2024	64.2426
2008	64.2405
1992	64.2643
1976	64.2101
1960	64.3367
1944	64.1212
1928	64.198
1912	64.1403
1896	64.2154
1880	64.1467
1864	64.1575
1848	64.0181
1832	64.0999
1816	64.0892
1800	64.1138
1784	63.8462
1768	63.9004
1752	63.5121
1736	62.5994
1720	63.4023
1704	63.7822
1688	63.7636
1672	63.7845
1656	63.854
1640	63.9127
1624	63.7951
1608	63.8298
1592	63.7903
1576	63.691
1560	63.7312
1544	63.6909
1528	63.5734
1512	63.7424
1496	63.6514
1480	63.6328
1464	63.4249
1448	63.4321
1432	63.4329
1416	63.5818
1400	63.4064
1384	63.4193
1368	63.2908
1352	63.4407
1336	63.2991
1320	63.3082
1304	63.3009
1288	63.1811
1272	63.0504
1256	62.8258
1240	62.8007
1224	62.945
1208	63.0287
1192	62.8988
1176	62.6744
1160	62.4252
1144	62.8764
1128	62.921
1112	62.9986
1096	62.9703
1080	62.705
1064	62.8478
1048	62.9445
1032	62.9193
1016	62.746
1000	62.8353
984	 63.1073
968	 62.8408
952	 62.9113
936	 62.9104
920	 62.9997
904	 62.8197
888	 62.9071
872	 62.8091
856	 62.8141
840	 62.6405
824	 62.7321
808	 62.7519
792	 62.7671
776	 62.4627
760	 62.6387
744	 62.6917
728	 62.5745
712	 62.5594
696	 62.4451
680	 62.2941
664	 62.237
648	 62.5558
632	 62.488
616	 62.11
600	 61.8666
584	 61.6175
568	 63.2399
552	 62.4318
536	 61.6333
520	 62.2467
504	 62.8276
488	 62.1726
472	 62.225
456	 59.4988
440	 61.3773
424	 60.7787
408	 61.5794
392	 58.6895
376	 53.5363
370	 58.7471