File: Bakgrunnsmateriale/MATLAB/FTIR/ftir_data/subAa/Mapping_121/BZ1503107-1_t115_cm-1.asc
PE IR       SPECTRUM    SPECTRUM    ASCII       PEDS        1.60
  -1
BZ4CFB~1.ASC
17/04/07
22:43:44.00
17/04/07
22:43:44.00
tln
$BZ1503107-1_t0115$<tbV0>[2.6,13.0,8.0,0.0,27,1,0]
370
64

2002,4.07
MIRTGS : RIGHTBACK : INTERNAL 2
MIR : ON : INTERNAL 2
OPTKBR

0.200000
8
8.000000
FILLER
RATIO
SPECTRUM
UNLOCKED 256

DOUBLE
64
COMBINED
1
0
0

1.000000
RATIO

1
0
TRUE
51149
0
LEFT NOT FITTED RIGHT NOT FITTED 0
NONE
NONE
15600
12
4.427000
51148
TRUE
1 0 8 72 0 0 0 0

15798

#HDR
-1
-1
#GR
CM-1
%T
2.38419e-05
0.0
5000
-1.000000
4631
8
68.0158
40.6172
#DATA
5000	65.9962
4984	66.2849
4968	65.1817
4952	66.0407
4936	65.4359
4920	65.6252
4904	65.4541
4888	65.1892
4872	64.7382
4856	65.4882
4840	65.3574
4824	64.9557
4808	64.6529
4792	65.2975
4776	64.8232
4760	65.1877
4744	64.9113
4728	65.2024
4712	64.8001
4696	64.776
4680	65.0848
4664	65.0779
4648	65.2985
4632	65.2811
4616	65.5356
4600	65.5668
4584	65.5575
4568	65.8415
4552	66.1681
4536	65.8876
4520	65.9559
4504	66.3451
4488	66.1556
4472	66.5674
4456	67.5636
4440	61.5859
4424	51.0751
4408	67.7155
4392	66.2567
4376	66.5813
4360	66.197
4344	65.9383
4328	66.3042
4312	65.8678
4296	65.6028
4280	65.8511
4264	65.5482
4248	65.502
4232	65.4737
4216	65.2805
4200	65.4309
4184	64.9754
4168	65.0917
4152	65.0763
4136	65.0002
4120	65.1241
4104	65.0615
4088	65.0835
4072	65.0906
4056	65.2112
4040	64.9801
4024	64.8526
4008	65.0501
3992	65.1872
3976	65.2504
3960	65.3268
3944	65.6079
3928	65.7068
3912	65.3602
3896	65.2842
3880	65.5315
3864	65.5252
3848	65.303
3832	65.585
3816	65.2171
3800	65.3778
3784	65.0826
3768	65.436
3752	65.2512
3736	65.2317
3720	65.2578
3704	65.1866
3688	65.1992
3672	65.3308
3656	65.2251
3640	65.1853
3624	65.3234
3608	65.2174
3592	65.1254
3576	65.0845
3560	65.3477
3544	65.2093
3528	64.9503
3512	65.1138
3496	65.1112
3480	65.1562
3464	65.1811
3448	65.2739
3432	65.3713
3416	65.1875
3400	65.0772
3384	65.1058
3368	65.2631
3352	65.1902
3336	65.1102
3320	65.1717
3304	64.9568
3288	64.9297
3272	65.1436
3256	65.0112
3240	65.1046
3224	64.9026
3208	65.0094
3192	65.0501
3176	64.8985
3160	65.0914
3144	64.9322
3128	64.8199
3112	64.8305
3096	64.9699
3080	64.9736
3064	65.0077
3048	64.9305
3032	65.0905
3016	64.9195
3000	64.87
2984	64.7655
2968	64.589
2952	64.4966
2936	64.6572
2920	64.4906
2904	64.6539
2888	64.9341
2872	64.6626
2856	64.7012
2840	64.7766
2824	64.7038
2808	64.881
2792	64.6803
2776	64.768
2760	64.7432
2744	64.6904
2728	64.7732
2712	64.7483
2696	64.7543
2680	64.6753
2664	64.7318
2648	64.7356
2632	64.6312
2616	64.6625
2600	64.7243
2584	64.5969
2568	64.5926
2552	64.6502
2536	64.5198
2520	64.5593
2504	64.6358
2488	64.59
2472	64.66
2456	64.5493
2440	64.5587
2424	64.4306
2408	64.3651
2392	64.4787
2376	64.448
2360	64.4096
2344	64.3938
2328	64.4026
2312	64.3094
2296	64.3052
2280	64.465
2264	64.3071
2248	64.3148
2232	64.1544
2216	64.4107
2200	64.2991
2184	64.3082
2168	64.2165
2152	64.2859
2136	64.2915
2120	64.2689
2104	64.2141
2088	64.1651
2072	64.2058
2056	64.1033
2040	64.043
2024	64.0237
2008	63.981
1992	63.9771
1976	63.9168
1960	63.9471
1944	63.9198
1928	64.0172
1912	63.8561
1896	63.8557
1880	63.8299
1864	63.8418
1848	63.8502
1832	63.7909
1816	63.8767
1800	63.8067
1784	63.7257
1768	63.7359
1752	63.5402
1736	62.8855
1720	63.2836
1704	63.5894
1688	63.7128
1672	63.6245
1656	63.5407
1640	63.5456
1624	63.3759
1608	63.3492
1592	63.4223
1576	63.3906
1560	63.3502
1544	63.408
1528	63.329
1512	63.412
1496	63.5741
1480	63.2967
1464	63.0723
1448	63.0802
1432	63.139
1416	63.2129
1400	63.1195
1384	63.0151
1368	63.0434
1352	63.0968
1336	63.0323
1320	63.0762
1304	62.9965
1288	62.8386
1272	62.825
1256	62.6294
1240	62.6989
1224	62.6569
1208	62.7993
1192	62.7318
1176	62.4042
1160	62.4641
1144	62.6039
1128	62.638
1112	62.5081
1096	62.6047
1080	62.6006
1064	62.6011
1048	62.4408
1032	62.3767
1016	62.3335
1000	62.4428
984	 62.5475
968	 62.3642
952	 62.5397
936	 62.3121
920	 62.4711
904	 62.5747
888	 62.2058
872	 62.4572
856	 62.2485
840	 62.2795
824	 62.5104
808	 62.3893
792	 62.2287
776	 62.0334
760	 61.941
744	 61.9832
728	 62.0912
712	 61.8649
696	 61.8433
680	 62.0144
664	 61.7407
648	 61.9401
632	 61.196
616	 61.1368
600	 61.6541
584	 61.342
568	 61.2044
552	 61.493
536	 61.9454
520	 60.5508
504	 61.5347
488	 60.6184
472	 60.1545
456	 61.7788
440	 59.9298
424	 60.0993
408	 58.1929
392	 59.8746
376	 60.2161
370	 40.6172