File: Bakgrunnsmateriale/MATLAB/FTIR/ftir_data/subAa/Mapping_121/BZ1503107-1_t61_cm-1.asc
PE IR       SPECTRUM    SPECTRUM    ASCII       PEDS        1.60
  -1
BZ6921~1.ASC
17/04/07
18:13:35.00
17/04/07
18:13:35.00
tln
$BZ1503107-1_t0061$<tbV0>[0.0,0.0,8.0,0.0,27,1,0]
370
64

2002,4.07
MIRTGS : RIGHTBACK : INTERNAL 2
MIR : ON : INTERNAL 2
OPTKBR

0.200000
8
8.000000
FILLER
RATIO
SPECTRUM
UNLOCKED 256

DOUBLE
64
COMBINED
1
0
0

1.000000
RATIO

1
0
TRUE
51149
0
LEFT NOT FITTED RIGHT NOT FITTED 0
NONE
NONE
15600
12
4.427000
51148
TRUE
1 0 8 72 0 0 0 0

15798

#HDR
-1
-1
#GR
CM-1
%T
2.38419e-05
0.0
5000
-1.000000
4631
8
74.5521
50.5408
#DATA
5000	64.7628
4984	65.1053
4968	66.9316
4952	61.7058
4936	64.067
4920	64.2675
4904	64.6344
4888	64.4383
4872	64.5339
4856	64.4447
4840	64.829
4824	64.3534
4808	64.7069
4792	64.7857
4776	65.0759
4760	64.7146
4744	64.5665
4728	64.6347
4712	64.5305
4696	65.278
4680	65.2966
4664	64.8047
4648	65.3908
4632	65.1802
4616	64.6044
4600	65.2053
4584	65.3277
4568	65.0411
4552	65.3115
4536	65.1842
4520	65.6314
4504	65.4508
4488	64.8317
4472	64.9046
4456	65.3067
4440	54.6667
4424	59.5782
4408	64.7936
4392	65.5266
4376	65.0562
4360	65.7257
4344	64.9861
4328	65.1645
4312	65.1586
4296	65.1713
4280	65.1065
4264	64.9495
4248	64.9206
4232	65.1953
4216	64.9872
4200	65.4003
4184	64.9325
4168	64.8179
4152	65.0265
4136	64.9092
4120	65.105
4104	64.904
4088	65.0984
4072	64.9961
4056	65.0648
4040	65.0537
4024	65.0387
4008	65.069
3992	65.0667
3976	65.1502
3960	65.015
3944	64.6575
3928	64.9818
3912	64.9871
3896	65.0258
3880	64.9577
3864	65.0805
3848	65.1768
3832	65.0517
3816	65.1147
3800	65.209
3784	65.0824
3768	65.2287
3752	64.946
3736	65.1092
3720	65.0901
3704	65.2771
3688	65.1022
3672	65.0284
3656	65.039
3640	65.1856
3624	64.9296
3608	65.0838
3592	65.1469
3576	65.1423
3560	64.9339
3544	65.0067
3528	65.1345
3512	65.218
3496	65.2335
3480	65.299
3464	65.0892
3448	65.0779
3432	65.0169
3416	65.1965
3400	64.9551
3384	64.998
3368	65.1119
3352	64.8109
3336	65.1566
3320	64.9066
3304	65.1024
3288	64.9455
3272	64.8538
3256	65.0736
3240	64.8603
3224	65.0285
3208	64.8956
3192	65.0515
3176	65.0334
3160	64.9582
3144	64.8051
3128	65.0503
3112	64.8705
3096	65.0712
3080	64.852
3064	64.9629
3048	64.8628
3032	64.8649
3016	65.0249
3000	65.0584
2984	64.9136
2968	64.8287
2952	64.8354
2936	64.9166
2920	64.8165
2904	64.8791
2888	64.9918
2872	64.8778
2856	64.9601
2840	64.9737
2824	64.9215
2808	64.965
2792	65.0134
2776	65.0283
2760	64.9405
2744	64.9047
2728	64.9611
2712	64.9507
2696	64.8853
2680	64.9743
2664	64.878
2648	64.8731
2632	64.9603
2616	64.9383
2600	64.9365
2584	64.9059
2568	64.7605
2552	64.7919
2536	64.7216
2520	64.8822
2504	64.7834
2488	64.8856
2472	64.7762
2456	64.7755
2440	64.9228
2424	64.9378
2408	64.7389
2392	64.8451
2376	64.6389
2360	64.7998
2344	64.6825
2328	64.8562
2312	64.698
2296	64.8293
2280	64.7053
2264	64.7879
2248	64.5924
2232	64.6268
2216	64.7504
2200	64.7496
2184	64.5952
2168	64.6065
2152	64.6826
2136	64.6046
2120	64.6077
2104	64.5677
2088	64.5976
2072	64.6853
2056	64.5732
2040	64.5457
2024	64.6166
2008	64.5957
1992	64.5476
1976	64.5797
1960	64.4782
1944	64.5311
1928	64.4922
1912	64.397
1896	64.4052
1880	64.3703
1864	64.4372
1848	64.4714
1832	64.451
1816	64.4501
1800	64.3947
1784	64.4133
1768	64.3974
1752	64.2395
1736	64.0786
1720	64.1828
1704	64.2063
1688	64.227
1672	64.2222
1656	64.2216
1640	64.1799
1624	64.1823
1608	64.171
1592	64.1342
1576	64.0333
1560	64.0981
1544	64.03
1528	64.0119
1512	64.1217
1496	64.1481
1480	64.1081
1464	64.0282
1448	63.8829
1432	64.0354
1416	64.0986
1400	63.9464
1384	63.9891
1368	63.9251
1352	63.8021
1336	63.8498
1320	63.8086
1304	63.8747
1288	63.8117
1272	63.7299
1256	63.8195
1240	63.6442
1224	63.7226
1208	63.7512
1192	63.6744
1176	63.7165
1160	63.5506
1144	63.5822
1128	63.6356
1112	63.6902
1096	63.7133
1080	63.5947
1064	63.6878
1048	63.5513
1032	63.4174
1016	63.6389
1000	63.6413
984	 63.7305
968	 63.6648
952	 63.4469
936	 63.5755
920	 63.61
904	 63.5879
888	 63.4605
872	 63.5703
856	 63.8564
840	 63.4887
824	 63.798
808	 63.4833
792	 63.5048
776	 63.1548
760	 63.4163
744	 63.4519
728	 63.2407
712	 63.2454
696	 63.0722
680	 63.4087
664	 63.1055
648	 63.3024
632	 62.8491
616	 63.6456
600	 63.1461
584	 62.6195
568	 63.2808
552	 62.5347
536	 62.3467
520	 62.492
504	 62.2668
488	 62.7394
472	 62.0661
456	 63.5368
440	 63.5539
424	 64.3354
408	 57.1328
392	 64.4786
376	 68.8502
370	 72.9014