File: Bakgrunnsmateriale/MATLAB/FTIR/ftir_data/subAa/Mapping_121/BZ1503107-1_t73_cm-1.asc
PE IR       SPECTRUM    SPECTRUM    ASCII       PEDS        1.60
  -1
BZ6BA6~1.ASC
17/04/07
19:15:46.00
17/04/07
19:15:46.00
tln
$BZ1503107-1_t0073$<tbV0>[-2.6,2.6,8.0,0.0,27,1,0]
370
64

2002,4.07
MIRTGS : RIGHTBACK : INTERNAL 2
MIR : ON : INTERNAL 2
OPTKBR

0.200000
8
8.000000
FILLER
RATIO
SPECTRUM
UNLOCKED 256

DOUBLE
64
COMBINED
1
0
0

1.000000
RATIO

1
0
TRUE
51149
0
LEFT NOT FITTED RIGHT NOT FITTED 0
NONE
NONE
15600
12
4.427000
51148
TRUE
1 0 8 72 0 0 0 0

15798

#HDR
-1
-1
#GR
CM-1
%T
2.38419e-05
0.0
5000
-1.000000
4631
8
89.7969
54.3866
#DATA
5000	65.5807
4984	64.1468
4968	64.5926
4952	64.823
4936	64.419
4920	64.5518
4904	64.6999
4888	64.615
4872	64.5781
4856	64.545
4840	64.7061
4824	64.4099
4808	64.7532
4792	64.5367
4776	64.575
4760	64.8992
4744	64.9474
4728	64.7537
4712	64.839
4696	64.8156
4680	64.2944
4664	64.706
4648	64.7214
4632	65.2517
4616	64.8802
4600	64.5438
4584	64.7226
4568	65.218
4552	64.3621
4536	64.7542
4520	64.4346
4504	65.1151
4488	65.0909
4472	64.665
4456	64.385
4440	64.5562
4424	60.4724
4408	75.8723
4392	65.3897
4376	64.4524
4360	65.3416
4344	64.7929
4328	63.6855
4312	62.1992
4296	64.8249
4280	64.3493
4264	64.6203
4248	64.7905
4232	64.6804
4216	64.8942
4200	64.8174
4184	65.0206
4168	64.8989
4152	64.6116
4136	64.4488
4120	64.9314
4104	64.5036
4088	64.8771
4072	64.9282
4056	65.02
4040	64.8837
4024	65.0173
4008	65.069
3992	64.54
3976	65.1478
3960	64.9894
3944	65.0526
3928	64.856
3912	65.1054
3896	65.1825
3880	65.1668
3864	65.0004
3848	64.7613
3832	64.9791
3816	65.0505
3800	65.3718
3784	64.9801
3768	64.9789
3752	65.1465
3736	65.0087
3720	64.81
3704	65.1565
3688	65.0659
3672	64.9318
3656	64.7494
3640	64.9568
3624	64.989
3608	65.1573
3592	64.923
3576	65.0756
3560	65.0304
3544	65.1041
3528	65.1254
3512	64.9099
3496	64.7089
3480	64.9421
3464	65.1611
3448	64.981
3432	64.6952
3416	64.7727
3400	64.843
3384	64.8026
3368	65.1731
3352	64.9722
3336	65.0852
3320	64.9067
3304	64.9999
3288	64.8675
3272	64.9662
3256	64.561
3240	66.1901
3224	65.2232
3208	64.7489
3192	65.0416
3176	65.091
3160	65.1102
3144	65.0631
3128	64.8446
3112	64.9748
3096	64.795
3080	64.7855
3064	65.077
3048	64.9861
3032	64.8767
3016	64.7897
3000	64.7885
2984	64.7545
2968	64.9559
2952	64.7103
2936	64.6485
2920	64.6547
2904	64.8088
2888	64.7274
2872	64.8425
2856	64.8045
2840	64.9155
2824	64.7759
2808	64.8779
2792	64.8606
2776	64.9492
2760	64.963
2744	64.9047
2728	64.9412
2712	64.841
2696	64.7234
2680	64.968
2664	64.8819
2648	64.7659
2632	64.7619
2616	64.847
2600	64.5756
2584	64.6077
2568	64.6762
2552	64.6179
2536	64.6973
2520	64.7812
2504	64.7538
2488	64.5085
2472	64.7377
2456	64.689
2440	64.5643
2424	64.8114
2408	64.4805
2392	64.6537
2376	64.5756
2360	64.6755
2344	64.6299
2328	64.6211
2312	64.7673
2296	64.5679
2280	64.5726
2264	64.5886
2248	64.536
2232	64.4713
2216	64.5648
2200	64.5181
2184	64.4884
2168	65.1113
2152	63.7466
2136	64.3626
2120	64.4669
2104	64.5325
2088	64.5335
2072	64.4841
2056	64.4537
2040	64.3022
2024	64.4461
2008	64.3246
1992	64.4119
1976	64.2601
1960	64.3343
1944	64.3164
1928	64.3904
1912	64.4454
1896	64.2921
1880	64.2483
1864	64.2401
1848	64.35
1832	64.2162
1816	64.2257
1800	64.3064
1784	64.3178
1768	64.2041
1752	64.0035
1736	63.9776
1720	64.0322
1704	63.8954
1688	64.0765
1672	63.9949
1656	64.0284
1640	63.8662
1624	64.1133
1608	64.0053
1592	63.8406
1576	63.9272
1560	63.8214
1544	63.9154
1528	63.9292
1512	63.9042
1496	63.6822
1480	63.9652
1464	63.6792
1448	63.9567
1432	63.8175
1416	63.8143
1400	63.8065
1384	63.7496
1368	63.6526
1352	63.6489
1336	63.8152
1320	63.8861
1304	63.7197
1288	63.4996
1272	63.5253
1256	63.6769
1240	63.513
1224	63.6153
1208	63.558
1192	63.6395
1176	63.5233
1160	63.2715
1144	63.5009
1128	63.6299
1112	63.4601
1096	63.1971
1080	66.806
1064	63.4758
1048	63.1152
1032	63.2677
1016	63.4218
1000	63.2004
984	 63.403
968	 63.3863
952	 63.3282
936	 63.3537
920	 63.092
904	 63.45
888	 63.5309
872	 63.2172
856	 63.3606
840	 63.3495
824	 63.55
808	 63.2923
792	 63.0532
776	 62.9296
760	 62.6669
744	 62.6238
728	 62.8483
712	 62.8197
696	 61.7954
680	 63.0628
664	 62.7387
648	 62.5216
632	 62.0638
616	 63.1438
600	 63.72
584	 63.2442
568	 62.8875
552	 62.5835
536	 62.5571
520	 62.3238
504	 62.8995
488	 63.014
472	 62.2713
456	 63.1505
440	 63.1657
424	 61.7611
408	 65.0151
392	 67.5255
376	 72.9962
370	 89.7969