File: Bakgrunnsmateriale/MATLAB/FTIR/ftir_data/subAa/Mapping_121/BZ1503107-1_t81_cm-1.asc
PE IR       SPECTRUM    SPECTRUM    ASCII       PEDS        1.60
  -1
BZ6926~1.ASC
17/04/07
19:53:20.00
17/04/07
19:53:20.00
tln
$BZ1503107-1_t0081$<tbV0>[5.2,5.2,8.0,0.0,27,1,0]
370
64

2002,4.07
MIRTGS : RIGHTBACK : INTERNAL 2
MIR : ON : INTERNAL 2
OPTKBR

0.200000
8
8.000000
FILLER
RATIO
SPECTRUM
UNLOCKED 256

DOUBLE
64
COMBINED
1
0
0

1.000000
RATIO

1
0
TRUE
51149
0
LEFT NOT FITTED RIGHT NOT FITTED 0
NONE
NONE
15600
12
4.427000
51148
TRUE
1 0 8 72 0 0 0 0

15798

#HDR
-1
-1
#GR
CM-1
%T
2.38419e-05
0.0
5000
-1.000000
4631
8
71.5462
47.4423
#DATA
5000	66.1013
4984	65.8083
4968	65.2039
4952	62.9093
4936	64.7587
4920	65.3125
4904	65.3057
4888	65.5499
4872	64.9515
4856	65.0199
4840	64.549
4824	64.5874
4808	64.5633
4792	64.7009
4776	64.7336
4760	65.061
4744	64.5433
4728	64.7805
4712	64.776
4696	64.8277
4680	64.5165
4664	64.6707
4648	65.0251
4632	64.9981
4616	64.9625
4600	64.7456
4584	65.0868
4568	64.9877
4552	64.9062
4536	64.5839
4520	65.0137
4504	65.4519
4488	65.1355
4472	64.5982
4456	64.2098
4440	50.9682
4424	64.9198
4408	67.3502
4392	64.1776
4376	64.4595
4360	65.2871
4344	65.4562
4328	64.8726
4312	64.9707
4296	64.7907
4280	64.9152
4264	64.8226
4248	64.9075
4232	64.8672
4216	64.9971
4200	65.0994
4184	65.0018
4168	65.2111
4152	64.8472
4136	64.7829
4120	64.9276
4104	64.8048
4088	64.8394
4072	64.8216
4056	64.974
4040	64.8452
4024	65.0241
4008	65.0184
3992	64.8113
3976	64.813
3960	64.977
3944	65.1302
3928	64.882
3912	65.0575
3896	64.8003
3880	65.0497
3864	65.0176
3848	64.8856
3832	65.1158
3816	64.9789
3800	65.1494
3784	65.2648
3768	64.9937
3752	65.0946
3736	65.056
3720	65.0284
3704	64.9964
3688	65.0777
3672	65.1304
3656	65.0062
3640	64.9867
3624	64.8149
3608	64.9891
3592	64.9846
3576	65.0084
3560	65.0553
3544	65.0025
3528	65.0443
3512	65.0495
3496	64.9555
3480	64.9915
3464	65.0428
3448	65.0451
3432	64.7533
3416	64.9761
3400	64.87
3384	64.9518
3368	64.932
3352	64.8919
3336	64.9276
3320	64.8069
3304	64.885
3288	64.8222
3272	64.8835
3256	64.7554
3240	64.8874
3224	64.9019
3208	64.9885
3192	64.9176
3176	64.9238
3160	64.9552
3144	64.9994
3128	64.8435
3112	64.8767
3096	64.7943
3080	64.8873
3064	64.9454
3048	65.029
3032	64.7502
3016	64.7446
3000	64.7515
2984	64.8699
2968	64.8467
2952	64.6529
2936	64.7878
2920	64.7469
2904	64.7189
2888	64.7733
2872	64.7104
2856	64.678
2840	64.7298
2824	64.7751
2808	64.9281
2792	64.7128
2776	64.7376
2760	64.7894
2744	64.7088
2728	64.7791
2712	64.7852
2696	64.695
2680	64.8347
2664	64.6485
2648	64.6355
2632	64.6822
2616	64.6072
2600	64.6355
2584	64.6091
2568	64.637
2552	64.7137
2536	64.6423
2520	64.6382
2504	64.6414
2488	64.635
2472	64.499
2456	64.6826
2440	64.5499
2424	64.5736
2408	64.6184
2392	64.5974
2376	64.484
2360	64.4656
2344	64.4391
2328	64.5928
2312	64.5015
2296	64.3469
2280	64.4937
2264	64.5608
2248	64.4004
2232	64.5031
2216	64.4441
2200	64.4344
2184	64.4353
2168	64.3656
2152	64.346
2136	64.458
2120	64.4265
2104	64.4427
2088	64.4816
2072	64.4478
2056	64.3247
2040	64.2025
2024	64.3357
2008	64.3061
1992	64.3022
1976	64.3117
1960	64.2057
1944	64.1877
1928	64.1945
1912	64.2199
1896	64.1094
1880	64.095
1864	64.1495
1848	64.0999
1832	64.0873
1816	64.1592
1800	64.0353
1784	64.0645
1768	64.0709
1752	63.8967
1736	63.8289
1720	63.9267
1704	63.7956
1688	64.0206
1672	63.776
1656	63.8699
1640	63.8179
1624	64.0695
1608	63.7807
1592	63.7017
1576	63.7046
1560	63.7093
1544	63.8415
1528	63.7966
1512	63.7717
1496	63.6785
1480	63.7534
1464	63.6009
1448	63.7068
1432	63.7508
1416	63.7007
1400	63.6198
1384	63.5736
1368	63.5744
1352	63.5545
1336	63.6695
1320	63.5649
1304	63.5579
1288	63.5329
1272	63.503
1256	63.4585
1240	63.3793
1224	63.4929
1208	63.2609
1192	63.4542
1176	63.2689
1160	63.2228
1144	63.42
1128	63.2402
1112	63.113
1096	63.2029
1080	63.2559
1064	63.347
1048	63.2962
1032	63.1696
1016	63.115
1000	63.3252
984	 63.2691
968	 63.1119
952	 63.3473
936	 63.1501
920	 63.3405
904	 63.3675
888	 63.1379
872	 63.3124
856	 63.0929
840	 63.1269
824	 63.3914
808	 62.9907
792	 62.8208
776	 62.956
760	 62.7391
744	 62.799
728	 62.7617
712	 62.7948
696	 62.6709
680	 63.1831
664	 62.5487
648	 62.8077
632	 62.0702
616	 62.6661
600	 62.3932
584	 62.2583
568	 62.4836
552	 63.2681
536	 64.0905
520	 62.0982
504	 61.9347
488	 64.0669
472	 61.9803
456	 62.6067
440	 62.0693
424	 61.0963
408	 61.8864
392	 51.0357
376	 59.7613
370	 68.1833