File: Bakgrunnsmateriale/MATLAB/FTIR/ftir_data/subAa/Mapping_121/BZ1503107-1_t48_cm-1.asc
PE IR       SPECTRUM    SPECTRUM    ASCII       PEDS        1.60
  -1
BZ6034~1.ASC
17/04/07
17:12:54.00
17/04/07
17:12:54.00
tln
$BZ1503107-1_t0048$<tbV0>[5.2,-2.6,8.0,0.0,27,1,0]
370
64

2002,4.07
MIRTGS : RIGHTBACK : INTERNAL 2
MIR : ON : INTERNAL 2
OPTKBR

0.200000
8
8.000000
FILLER
RATIO
SPECTRUM
UNLOCKED 256

DOUBLE
64
COMBINED
1
0
0

1.000000
RATIO

1
0
TRUE
51149
0
LEFT NOT FITTED RIGHT NOT FITTED 0
NONE
NONE
15600
12
4.427000
51148
TRUE
1 0 8 72 0 0 0 0

15798

#HDR
-1
-1
#GR
CM-1
%T
2.38419e-05
0.0
5000
-1.000000
4631
8
67.4737
41.5059
#DATA
5000	64.0107
4984	64.9427
4968	65.6633
4952	64.9526
4936	64.889
4920	64.8171
4904	64.5559
4888	65.0248
4872	64.6357
4856	64.7566
4840	64.2794
4824	64.3566
4808	64.6225
4792	64.509
4776	64.4102
4760	64.6371
4744	64.4795
4728	64.8477
4712	64.5956
4696	64.6018
4680	65.1535
4664	64.9662
4648	64.7061
4632	65.2441
4616	64.9122
4600	65.2746
4584	65.1733
4568	65.0745
4552	65.8256
4536	65.3117
4520	65.328
4504	66.2953
4488	65.3291
4472	65.5195
4456	66.0441
4440	56.4801
4424	60.2342
4408	66.5283
4392	65.8099
4376	65.9416
4360	66.4738
4344	65.5277
4328	65.6368
4312	65.3986
4296	65.2562
4280	65.1415
4264	65.1999
4248	65.2298
4232	65.0388
4216	65.0135
4200	65.1032
4184	64.7123
4168	64.8354
4152	64.7294
4136	64.8334
4120	64.9905
4104	64.8952
4088	64.8252
4072	64.7861
4056	65.0311
4040	65.1462
4024	64.8392
4008	65.1633
3992	65.3236
3976	65.2818
3960	65.0313
3944	65.0204
3928	64.799
3912	65.2544
3896	65.2375
3880	65.0874
3864	65.5298
3848	65.13
3832	65.1492
3816	65.0484
3800	65.0398
3784	65.3168
3768	64.8591
3752	65.0972
3736	65.0839
3720	64.9893
3704	65.0283
3688	65.0279
3672	64.9997
3656	65.2492
3640	65.1297
3624	64.8782
3608	65.0826
3592	64.9557
3576	65.1098
3560	65.0401
3544	65.1708
3528	65.0537
3512	65.2821
3496	65.3032
3480	65.1755
3464	65.2663
3448	65.126
3432	65.0068
3416	65.0212
3400	65.0327
3384	65.0895
3368	65.2494
3352	64.8082
3336	65.0132
3320	65.0886
3304	65.0133
3288	64.9033
3272	65.0089
3256	65.031
3240	65.0417
3224	65.1217
3208	65.1555
3192	65.0423
3176	65.1049
3160	65.0439
3144	65.007
3128	65.0604
3112	65.1958
3096	65.1901
3080	65.0696
3064	65.0825
3048	64.9861
3032	64.946
3016	65.0701
3000	65.0109
2984	65.0791
2968	64.847
2952	64.8419
2936	64.9368
2920	64.7188
2904	64.8767
2888	65.0352
2872	65.0121
2856	64.9592
2840	64.9502
2824	65.0054
2808	64.9302
2792	64.9634
2776	64.9491
2760	64.9318
2744	64.8787
2728	64.9334
2712	65.0633
2696	64.9536
2680	64.9967
2664	64.971
2648	64.9534
2632	64.9756
2616	64.8793
2600	65.0208
2584	64.9589
2568	64.8815
2552	64.9321
2536	64.9957
2520	64.9183
2504	64.9576
2488	64.9159
2472	64.8628
2456	64.8074
2440	64.7945
2424	64.889
2408	64.7377
2392	64.8919
2376	64.804
2360	64.6411
2344	64.8122
2328	64.6813
2312	64.7776
2296	64.7932
2280	64.7408
2264	64.8476
2248	64.7225
2232	64.7231
2216	64.7954
2200	64.7516
2184	64.7228
2168	64.6608
2152	64.8469
2136	64.6795
2120	64.7326
2104	64.7773
2088	64.6879
2072	64.7478
2056	64.6693
2040	64.6781
2024	64.6662
2008	64.7478
1992	64.7771
1976	64.6863
1960	64.642
1944	64.6068
1928	64.7084
1912	64.5519
1896	64.5756
1880	64.6497
1864	64.6548
1848	64.5109
1832	64.5871
1816	64.5225
1800	64.5214
1784	64.4424
1768	64.4792
1752	64.4298
1736	64.3292
1720	64.4149
1704	64.3879
1688	64.3367
1672	64.3611
1656	64.4482
1640	64.3063
1624	64.3409
1608	64.4222
1592	64.2485
1576	64.1243
1560	64.2957
1544	64.2333
1528	64.2204
1512	64.3094
1496	64.1643
1480	64.253
1464	64.1357
1448	64.2884
1432	64.1531
1416	64.267
1400	64.1466
1384	64.0488
1368	64.1138
1352	64.1773
1336	64.1818
1320	64.0676
1304	64.0031
1288	64.0943
1272	64.1522
1256	63.9991
1240	63.9204
1224	63.9452
1208	63.9168
1192	63.8515
1176	63.9052
1160	63.7165
1144	63.7697
1128	63.8168
1112	63.8508
1096	63.9966
1080	63.8791
1064	63.7442
1048	63.8264
1032	63.7493
1016	63.6955
1000	63.832
984	 64.0224
968	 63.8765
952	 63.8902
936	 63.6439
920	 63.777
904	 63.8166
888	 63.7246
872	 63.9387
856	 63.8711
840	 64.0541
824	 64.0021
808	 63.822
792	 63.8371
776	 63.872
760	 63.6306
744	 63.4479
728	 63.499
712	 63.7028
696	 63.2401
680	 63.6156
664	 63.5594
648	 63.4572
632	 63.3141
616	 64.3929
600	 63.7645
584	 64.1543
568	 63.4447
552	 63.0476
536	 64.077
520	 63.3101
504	 63.1796
488	 63.3817
472	 63.1547
456	 64.653
440	 62.5564
424	 64.4455
408	 62.9969
392	 58.643
376	 51.4793
370	 50.1273