File: Bakgrunnsmateriale/MATLAB/FTIR/ftir_data/subAa/Mapping_121/BZ1503107-1_t90_cm-1.asc
PE IR       SPECTRUM    SPECTRUM    ASCII       PEDS        1.60
  -1
BZ68A5~1.ASC
17/04/07
20:41:23.00
17/04/07
20:41:23.00
tln
$BZ1503107-1_t0090$<tbV0>[10.4,7.8,8.0,0.0,27,1,0]
370
64

2002,4.07
MIRTGS : RIGHTBACK : INTERNAL 2
MIR : ON : INTERNAL 2
OPTKBR

0.200000
8
8.000000
FILLER
RATIO
SPECTRUM
UNLOCKED 256

DOUBLE
64
COMBINED
1
0
0

1.000000
RATIO

1
0
TRUE
51149
0
LEFT NOT FITTED RIGHT NOT FITTED 0
NONE
NONE
15600
12
4.427000
51148
TRUE
1 0 8 72 0 0 0 0

15798

#HDR
-1
-1
#GR
CM-1
%T
2.38419e-05
0.0
5000
-1.000000
4631
8
76.3023
52.6259
#DATA
5000	59.0833
4984	59.6649
4968	59.2379
4952	60.3852
4936	60.7582
4920	58.5257
4904	59.4529
4888	59.1859
4872	58.4244
4856	58.96
4840	59.0597
4824	59.3958
4808	58.8528
4792	59.0995
4776	59.3843
4760	59.6866
4744	58.8099
4728	59.3008
4712	59.0951
4696	59.1862
4680	59.5955
4664	59.5673
4648	59.5521
4632	59.4212
4616	59.1585
4600	59.3013
4584	59.3259
4568	59.2555
4552	59.0373
4536	59.0858
4520	58.9861
4504	58.9173
4488	58.3619
4472	59.2596
4456	56.8747
4440	60.638
4424	58.7008
4408	59.3993
4392	59.4375
4376	58.6262
4360	59.108
4344	59.1796
4328	59.3704
4312	59.2438
4296	59.3762
4280	59.3513
4264	58.737
4248	59.3467
4232	59.3998
4216	59.3505
4200	59.5975
4184	59.7109
4168	59.509
4152	59.902
4136	59.3883
4120	59.7584
4104	59.725
4088	59.6663
4072	59.6214
4056	59.7047
4040	60.0497
4024	59.6022
4008	59.7508
3992	59.8104
3976	59.5681
3960	59.9684
3944	59.3788
3928	59.7375
3912	59.5415
3896	59.8103
3880	59.6374
3864	59.9056
3848	59.7914
3832	59.9745
3816	59.7653
3800	59.929
3784	59.8049
3768	60.0047
3752	60.0245
3736	60.1212
3720	60.1011
3704	60.0152
3688	60.0761
3672	59.9044
3656	59.9192
3640	60.237
3624	59.9587
3608	60.2116
3592	60.325
3576	59.9274
3560	60.1097
3544	59.9063
3528	60.3108
3512	60.0028
3496	60.166
3480	60.0403
3464	60.1836
3448	59.9335
3432	60.0659
3416	60.16
3400	60.0784
3384	60.2207
3368	60.2324
3352	60.2813
3336	60.3262
3320	60.2704
3304	60.2005
3288	60.2391
3272	60.2656
3256	60.3772
3240	60.1812
3224	60.206
3208	60.355
3192	60.3732
3176	60.3989
3160	60.2435
3144	60.4321
3128	60.288
3112	60.5249
3096	60.4761
3080	60.2906
3064	60.4058
3048	60.5708
3032	60.3859
3016	60.5073
3000	60.4642
2984	60.3363
2968	60.3261
2952	60.2746
2936	60.317
2920	60.5229
2904	60.6157
2888	60.4542
2872	60.5143
2856	60.4401
2840	60.3971
2824	60.6879
2808	60.5917
2792	60.6821
2776	60.6652
2760	60.7503
2744	60.6937
2728	60.7775
2712	60.774
2696	60.6019
2680	60.5872
2664	60.7165
2648	60.867
2632	60.7271
2616	60.7479
2600	60.7532
2584	60.8915
2568	60.9214
2552	60.8163
2536	60.8581
2520	60.7896
2504	60.8098
2488	60.9565
2472	60.9756
2456	60.9805
2440	60.9479
2424	60.9699
2408	60.9668
2392	61.0322
2376	61.0058
2360	61.1267
2344	61.0072
2328	61.1135
2312	61.0973
2296	61.1467
2280	61.0504
2264	61.1292
2248	61.0832
2232	61.104
2216	61.0489
2200	61.0454
2184	61.0256
2168	61.2042
2152	61.165
2136	61.2528
2120	61.2802
2104	61.304
2088	61.2014
2072	61.1991
2056	61.2601
2040	61.2079
2024	61.2366
2008	61.2281
1992	61.2117
1976	61.2118
1960	61.2839
1944	61.2604
1928	61.2996
1912	61.3077
1896	61.4462
1880	61.4228
1864	61.383
1848	61.465
1832	61.4479
1816	61.4243
1800	61.5085
1784	61.4159
1768	61.465
1752	61.2499
1736	60.9624
1720	61.2458
1704	61.364
1688	61.3754
1672	61.3618
1656	61.4153
1640	61.4367
1624	61.3978
1608	61.5274
1592	61.4797
1576	61.3498
1560	61.4757
1544	61.4757
1528	61.4757
1512	61.4601
1496	61.507
1480	61.5624
1464	61.4498
1448	61.549
1432	61.6587
1416	61.5869
1400	61.6752
1384	61.5961
1368	61.6589
1352	61.5861
1336	61.4713
1320	61.8107
1304	61.6234
1288	61.6169
1272	61.5768
1256	61.743
1240	61.7154
1224	61.6606
1208	61.7423
1192	61.7743
1176	61.7017
1160	61.6325
1144	61.7329
1128	61.7099
1112	61.7372
1096	61.9549
1080	61.6322
1064	61.9567
1048	61.867
1032	61.7933
1016	61.703
1000	61.7679
984	 62.0938
968	 61.9664
952	 61.8829
936	 62.0291
920	 62.1732
904	 61.981
888	 62.2094
872	 62.1484
856	 62.1096
840	 62.2425
824	 62.1602
808	 62.0955
792	 62.1984
776	 61.9162
760	 62.1912
744	 62.1201
728	 62.1638
712	 62.1328
696	 62.0404
680	 61.8755
664	 62.0356
648	 61.9142
632	 62.0253
616	 61.7828
600	 62.1848
584	 62.1708
568	 62.209
552	 62.4335
536	 62.5222
520	 63.2328
504	 61.7193
488	 62.5599
472	 60.6287
456	 61.7149
440	 62.178
424	 62.185
408	 63.7047
392	 68.1178
376	 57.2249
370	 52.6259