File: Bakgrunnsmateriale/MATLAB/FTIR/ftir_data/subAa/Mapping_121/BZ1503107-1_t06.asc
PE IR       SPECTRUM    SPECTRUM    ASCII       PEDS        1.60
  -1
BZ1165~1.ASC
17/04/07
13:43:34.00
17/04/07
13:44:01.00
tln
$BZ1503107-1_t0006$<tbV0>[0.0,-13.0,8.0,0.0,27,1,0]
27.028
64

2002,4.07
MIRTGS : RIGHTBACK : INTERNAL 2
MIR : ON : INTERNAL 2
OPTKBR

0.200000
8
8.000000
FILLER
RATIO
SPECTRUM
UNLOCKED 256

DOUBLE
64
COMBINED
1
0
0

0.002000
RATIO

1
0
TRUE
51149
0
LEFT NOT FITTED RIGHT NOT FITTED 0
NONE
NONE
15600
12
4.427000
51148
TRUE
1 0 8 72 0 0 0 0

15798

#HDR
-1
-1
#GR
µM
%T
2.38419e-05
0.0
2.000000
0.002000
12515
8
76.6929
52.2105
#DATA
2.000000	 64.7307
2.084000	 65.7436
2.168000	 64.3539
2.252000	 61.876
2.336000	 64.6267
2.420000	 65.0626
2.504000	 64.9435
2.588000	 65.0478
2.672000	 65.2381
2.756000	 65.3024
2.840000	 64.9754
2.924000	 65.0135
3.008000	 65.0503
3.092000	 64.9832
3.176000	 64.8814
3.260000	 64.9705
3.344000	 64.8452
3.428000	 64.8267
3.512000	 64.8933
3.596000	 64.906
3.680000	 64.9614
3.764000	 65.0117
3.848000	 64.9277
3.932000	 64.9557
4.016000	 64.9697
4.100000	 64.8736
4.184000	 64.9135
4.268000	 64.9621
4.352000	 64.9248
4.436000	 64.863
4.520000	 64.8187
4.604000	 64.8099
4.688000	 64.7236
4.772000	 64.7805
4.856000	 64.7857
4.940000	 64.8022
5.024000	 64.7453
5.108000	 64.8069
5.192000	 64.7695
5.276000	 64.7634
5.359999	 64.7455
5.444000	 64.6166
5.528000	 64.7623
5.612000	 64.711
5.696000	 64.6036
5.780000	 64.4098
5.864000	 64.6808
5.948000	 64.6438
6.032000	 64.6273
6.116000	 64.6355
6.200000	 64.4832
6.284000	 64.5451
6.368000	 64.6088
6.452000	 64.6108
6.536000	 64.3561
6.620000	 64.5947
6.704000	 64.4658
6.788000	 64.5044
6.872000	 64.5699
6.956000	 64.668
7.040000	 64.5298
7.124000	 64.3665
7.208000	 64.3994
7.292000	 64.3081
7.376000	 64.4668
7.460000	 64.4751
7.544000	 64.3661
7.628000	 64.2837
7.712000	 64.2703
7.796000	 64.3257
7.880000	 64.1561
7.964000	 64.1883
8.048000	 64.2459
8.132000	 64.2221
8.216000	 64.185
8.300000	 64.2605
8.384000	 64.2596
8.468000	 64.1652
8.552000	 64.1819
8.635999	 64.1341
8.719999	 64.1272
8.804000	 64.2616
8.888000	 64.2911
8.972000	 64.2552
9.056000	 63.9908
9.140000	 64.3653
9.224000	 64.2852
9.308000	 64.4108
9.391999	 64.1296
9.475999	 64.0957
9.560000	 64.1607
9.644000	 64.1714
9.728000	 64.1355
9.812000	 64.0304
9.896000	 64.0908
9.980000	 64.1142
10.064	64.3077
10.148	64.0853
10.232	64.2009
10.316	64.1937
10.4	64.0832
10.484	64.1705
10.568	64.4274
10.652	64.3434
10.736	64.1029
10.82	64.0972
10.904	64.2103
10.988	64.2372
11.072	64.1789
11.156	64.1564
11.24	64.0952
11.324	64.2071
11.408	64.2107
11.492	64.2383
11.576	64.1096
11.66	64.2064
11.744	64.2887
11.828	64.1861
11.912	64.0367
11.996	64.0036
12.08	63.9853
12.164	64.0893
12.248	64.2301
12.332	64.305
12.416	64.1504
12.5	64.0466
12.584	64.1214
12.668	64.0838
12.752	64.0676
12.836	64.1193
12.92	64.1685
13.004	64.0422
13.088	63.963
13.172	64.0706
13.256	63.964
13.34	63.8328
13.424	63.8827
13.508	64.0399
13.592	64.154
13.676	64.1991
13.76	64.2008
13.844	64.1387
13.928	64.1048
14.012	64.0732
14.096	64.022
14.18	63.9706
14.264	63.8214
14.348	63.6834
14.432	63.775
14.516	63.9828
14.6	64.1402
14.684	64.1258
14.768	63.9943
14.852	63.9392
14.936	63.9603
15.02	63.9943
15.104	64.0092
15.188	63.9712
15.272	63.9115
15.356	63.9365
15.44	64.1137
15.524	64.3272
15.608	64.3891
15.692	64.2883
15.776	64.2159
15.86	64.3145
15.944	64.4715
16.028	64.4766
16.112	64.3262
16.196	64.1902
16.28	64.1456
16.364	64.1123
16.448	64.0046
16.532	63.843
16.616	63.7483
16.7	63.7961
16.784	63.9054
16.868	63.977
16.952	64.0242
17.036	64.1165
17.12	64.2596
17.204	64.3449
17.288	64.2521
17.372	64.0163
17.456	63.8331
17.54	63.8633
17.624	64.0971
17.708	64.3933
17.792	64.6021
17.876	64.6832
17.96	64.6653
18.044	64.5499
18.128	64.3448
18.212	64.1414
18.296	64.0639
18.38	64.1516
18.464	64.3207
18.548	64.437
18.632	64.4226
18.716	64.3242
18.8	64.2814
18.884	64.3993
18.968	64.6329
19.052	64.8187
19.136	64.8228
19.22	64.651
19.304	64.4199
19.388	64.2332
19.472	64.1143
19.556	64.0451
19.64	64.0178
19.724	64.0051
19.808	63.9486
19.892	63.8062
19.976	63.6431
20.06	63.6053
20.144	63.7663
20.228	64.024
20.312	64.1868
20.396	64.1498
20.48	63.9653
20.564	63.7843
20.648	63.7808
20.732	64.1101
20.816	64.8443
20.9	65.8689
20.984	66.8537
21.068	67.361
21.152	67.1144
21.236	66.1836
21.32	64.9473
21.404	63.8631
21.488	63.1918
21.572	62.9378
21.656	62.9526
21.74	63.0938
21.824	63.319
21.908	63.6372
21.992	63.9718
22.076	64.1054
22.16	63.7568
22.244	62.7719
22.328	61.2464
22.412	59.5065
22.496	57.9948
22.58	57.0913
22.664	57.0384
22.748	57.8636
22.832	59.3622
22.916	61.161
23	62.8086
23.084	63.9448
23.168	64.3972
23.252	64.2374
23.336	63.7122
23.42	63.0953
23.504	62.5711
23.588	62.168
23.672	61.81
23.756	61.4084
23.84	60.9515
23.924	60.56
24.008	60.4482
24.092	60.8369
24.176	61.8439
24.26	63.3773
24.344	65.1338
24.428	66.7307
24.512	67.8006
24.596	68.1536
24.68	67.8465
24.764	67.1645
24.848	66.4489
24.932	65.9552
25.016	65.7343
25.1	65.6739
25.184	65.6086
25.268	65.4493
25.352	65.234
25.436	65.0696
25.52	65.0859
25.604	65.3944
25.688	65.8736
25.772	66.3732
25.856	66.8707
25.94	67.8414
26.024	69.3577
26.108	70.3709
26.192	70.0798
26.276	68.5631
26.36	67.7904
26.444	68.8008
26.528	71.0404
26.612	70.7328
26.696	65.543
26.78	57.2116
26.864	52.2439
26.948	57.1413
27.028	69.4775