File: Bakgrunnsmateriale/MATLAB/FTIR/ftir_data/subAa/Mapping_121/BZ1503107-1_t38_cm-1.asc
PE IR       SPECTRUM    SPECTRUM    ASCII       PEDS        1.60
  -1
BZ60B0~1.ASC
17/04/07
16:19:45.00
17/04/07
16:19:45.00
tln
$BZ1503107-1_t0038$<tbV0>[2.6,-5.2,8.0,0.0,27,1,0]
370
64

2002,4.07
MIRTGS : RIGHTBACK : INTERNAL 2
MIR : ON : INTERNAL 2
OPTKBR

0.200000
8
8.000000
FILLER
RATIO
SPECTRUM
UNLOCKED 256

DOUBLE
64
COMBINED
1
0
0

1.000000
RATIO

1
0
TRUE
51149
0
LEFT NOT FITTED RIGHT NOT FITTED 0
NONE
NONE
15600
12
4.427000
51148
TRUE
1 0 8 72 0 0 0 0

15798

#HDR
-1
-1
#GR
CM-1
%T
2.38419e-05
0.0
5000
-1.000000
4631
8
79.3896
53.1787
#DATA
5000	65.5348
4984	64.9361
4968	64.5864
4952	64.7515
4936	64.6654
4920	64.2404
4904	64.8667
4888	64.9845
4872	64.6761
4856	65.2792
4840	65.1195
4824	65.1782
4808	65.0678
4792	64.6859
4776	64.9972
4760	65.1864
4744	65.0089
4728	65.16
4712	65.5628
4696	64.8328
4680	64.8623
4664	64.9579
4648	65.105
4632	64.9784
4616	64.9693
4600	64.6978
4584	64.9828
4568	64.6162
4552	65.1602
4536	64.959
4520	64.9715
4504	64.8011
4488	64.5391
4472	64.4913
4456	65.5111
4440	67.5112
4424	58.5225
4408	69.5049
4392	65.1681
4376	65.2938
4360	64.9809
4344	65.2464
4328	64.5601
4312	64.7051
4296	65.1863
4280	65.1135
4264	65.1033
4248	64.9938
4232	65.2087
4216	64.9247
4200	64.9818
4184	64.6806
4168	64.8463
4152	65.004
4136	65.2167
4120	65.0443
4104	64.9485
4088	64.8652
4072	65.1356
4056	64.9854
4040	65.1424
4024	65.2902
4008	65.2359
3992	65.1875
3976	65.3816
3960	65.309
3944	65.1518
3928	64.9521
3912	65.4131
3896	65.5151
3880	65.2218
3864	65.0986
3848	65.1349
3832	65.2034
3816	64.9599
3800	65.3693
3784	64.9689
3768	65.4106
3752	65.2727
3736	65.1618
3720	65.0966
3704	65.3069
3688	65.1334
3672	65.3323
3656	65.4388
3640	65.4638
3624	65.4008
3608	65.3183
3592	65.2985
3576	65.0324
3560	65.0539
3544	64.9682
3528	65.0049
3512	65.1759
3496	65.1202
3480	65.1055
3464	65.1183
3448	65.0324
3432	65.1121
3416	65.1873
3400	65.2745
3384	65.4198
3368	65.096
3352	65.1981
3336	65.2425
3320	65.0044
3304	65.2159
3288	65.1219
3272	65.0236
3256	64.9523
3240	65.2249
3224	65.025
3208	65.0486
3192	64.9769
3176	65.1758
3160	65.2025
3144	64.9434
3128	65.2245
3112	64.906
3096	65.1063
3080	65.1003
3064	65.1862
3048	65.1426
3032	65.0639
3016	65.1083
3000	65.0785
2984	65.0682
2968	65.0343
2952	65.0321
2936	64.9455
2920	65.0504
2904	64.9764
2888	65.0836
2872	65.0968
2856	65.0297
2840	65.0453
2824	65.06
2808	65.0488
2792	65.1733
2776	65.0774
2760	64.995
2744	65.0787
2728	65.1049
2712	64.9188
2696	65.1585
2680	64.9548
2664	65.0498
2648	65.0179
2632	64.9951
2616	64.9951
2600	64.931
2584	65.0693
2568	65.0046
2552	65.0564
2536	64.9601
2520	64.9314
2504	65.0526
2488	64.954
2472	65.0463
2456	64.9978
2440	64.9724
2424	65.2109
2408	64.9784
2392	65.0465
2376	64.8295
2360	64.9724
2344	64.9002
2328	64.8253
2312	64.9135
2296	64.8553
2280	64.9132
2264	64.8775
2248	64.8825
2232	64.9631
2216	64.7954
2200	64.8843
2184	64.9054
2168	64.8232
2152	64.9243
2136	64.8667
2120	64.854
2104	64.8584
2088	64.8475
2072	64.9312
2056	64.6972
2040	64.724
2024	64.8448
2008	64.7892
1992	64.6179
1976	64.6471
1960	64.7093
1944	64.786
1928	64.6245
1912	64.6931
1896	64.5499
1880	64.6256
1864	64.6217
1848	64.7105
1832	64.6399
1816	64.654
1800	64.6329
1784	64.5448
1768	64.5282
1752	64.4501
1736	64.3105
1720	64.4223
1704	64.5288
1688	64.5764
1672	64.6473
1656	64.3842
1640	64.4183
1624	64.3723
1608	64.396
1592	64.4021
1576	64.3797
1560	64.4369
1544	64.3271
1528	64.3058
1512	64.5043
1496	64.4273
1480	64.3798
1464	64.2451
1448	64.2753
1432	64.4155
1416	64.3564
1400	64.3021
1384	64.2455
1368	64.2391
1352	64.2243
1336	64.2747
1320	64.076
1304	64.1909
1288	64.2629
1272	64.0682
1256	64.0432
1240	64.1382
1224	64.1269
1208	64.0735
1192	64.1438
1176	63.9932
1160	64.0405
1144	64.0133
1128	63.8481
1112	63.917
1096	63.7571
1080	63.9202
1064	63.9055
1048	63.9626
1032	63.8764
1016	63.935
1000	64.0366
984	 63.9842
968	 63.9773
952	 63.8901
936	 64.1536
920	 64.243
904	 63.8898
888	 64.0686
872	 64.2768
856	 63.8927
840	 63.8244
824	 63.7108
808	 63.8326
792	 63.9175
776	 63.9957
760	 63.5589
744	 64.0007
728	 63.8109
712	 63.5457
696	 63.4881
680	 63.6234
664	 63.1604
648	 63.3306
632	 64.6075
616	 62.6673
600	 63.9303
584	 63.2245
568	 64.0088
552	 64.1041
536	 63.2481
520	 64.2354
504	 63.7123
488	 62.6398
472	 63.7311
456	 63.3779
440	 63.7173
424	 62.7059
408	 63.9954
392	 69.664
376	 78.5904
370	 71.9525