File: Bakgrunnsmateriale/MATLAB/FTIR/ftir_data/subAa/Mapping_121/BZ1503107-1_t105.asc
PE IR       SPECTRUM    SPECTRUM    ASCII       PEDS        1.60
  -1
BZD6B6~1.ASC
17/04/07
21:51:18.00
17/04/07
21:51:44.00
tln
$BZ1503107-1_t0105$<tbV0>[0.0,10.4,8.0,0.0,27,1,0]
27.028
64

2002,4.07
MIRTGS : RIGHTBACK : INTERNAL 2
MIR : ON : INTERNAL 2
OPTKBR

0.200000
8
8.000000
FILLER
RATIO
SPECTRUM
UNLOCKED 256

DOUBLE
64
COMBINED
1
0
0

0.002000
RATIO

1
0
TRUE
51149
0
LEFT NOT FITTED RIGHT NOT FITTED 0
NONE
NONE
15600
12
4.427000
51148
TRUE
1 0 8 72 0 0 0 0

15798

#HDR
-1
-1
#GR
µM
%T
2.38419e-05
0.0
2.000000
0.002000
12515
8
80.8688
55.7917
#DATA
2.000000	 66.2032
2.084000	 65.362
2.168000	 64.6588
2.252000	 76.6971
2.336000	 64.838
2.420000	 65.263
2.504000	 64.9911
2.588000	 64.9392
2.672000	 64.9507
2.756000	 65.1631
2.840000	 65.0633
2.924000	 64.9075
3.008000	 64.8194
3.092000	 65.0798
3.176000	 64.6645
3.260000	 64.8064
3.344000	 64.6916
3.428000	 64.7334
3.512000	 64.5832
3.596000	 64.6943
3.680000	 64.7272
3.764000	 64.6742
3.848000	 64.5112
3.932000	 64.6349
4.016000	 64.4731
4.100000	 64.6236
4.184000	 64.4894
4.268000	 64.4052
4.352000	 64.4135
4.436000	 64.4116
4.520000	 64.3441
4.604000	 64.3133
4.688000	 64.2833
4.772000	 64.3084
4.856000	 64.2866
4.940000	 64.1088
5.024000	 64.2127
5.108000	 64.1252
5.192000	 63.9415
5.276000	 64.0409
5.359999	 64.0265
5.444000	 63.9803
5.528000	 63.9314
5.612000	 63.7705
5.696000	 63.6841
5.780000	 63.3013
5.864000	 63.6348
5.948000	 63.5866
6.032000	 63.6903
6.116000	 63.6748
6.200000	 63.6812
6.284000	 63.6969
6.368000	 63.6542
6.452000	 63.5105
6.536000	 63.5357
6.620000	 63.5113
6.704000	 63.504
6.788000	 63.3655
6.872000	 63.2746
6.956000	 63.2702
7.040000	 63.3208
7.124000	 63.2664
7.208000	 63.281
7.292000	 63.1006
7.376000	 63.0349
7.460000	 63.2175
7.544000	 63.1783
7.628000	 63.1883
7.712000	 63.1737
7.796000	 62.988
7.880000	 63.0105
7.964000	 62.9084
8.048000	 62.9219
8.132000	 62.9536
8.216000	 63.0999
8.300000	 62.9742
8.384000	 62.9122
8.468000	 62.7692
8.552000	 62.8019
8.635999	 62.6799
8.719999	 62.7926
8.804000	 62.9113
8.888000	 62.844
8.972000	 62.8233
9.056000	 62.9136
9.140000	 62.8685
9.224000	 62.8193
9.308000	 62.5973
9.391999	 62.803
9.475999	 62.8922
9.560000	 62.824
9.644000	 62.812
9.728000	 62.768
9.812000	 62.7336
9.896000	 62.7169
9.980000	 62.6889
10.064	62.8942
10.148	62.7993
10.232	62.8263
10.316	62.5902
10.4	62.5667
10.484	62.6831
10.568	62.6066
10.652	62.7054
10.736	62.7108
10.82	62.8454
10.904	62.8072
10.988	62.6995
11.072	62.4578
11.156	62.2365
11.24	62.4813
11.324	62.8462
11.408	62.8004
11.492	62.7353
11.576	62.7444
11.66	62.6364
11.744	62.5942
11.828	62.6873
11.912	62.5125
11.996	62.3709
12.08	62.3293
12.164	62.6803
12.248	62.9917
12.332	62.7893
12.416	62.4369
12.5	62.3532
12.584	62.6262
12.668	62.6398
12.752	62.4936
12.836	62.438
12.92	62.4612
13.004	62.3345
13.088	62.2833
13.172	62.3434
13.256	62.3466
13.34	62.316
13.424	62.2301
13.508	62.1935
13.592	62.3269
13.676	62.2701
13.76	62.1778
13.844	62.2023
13.928	62.183
14.012	62.2324
14.096	62.2462
14.18	62.1599
14.264	62.0633
14.348	61.9633
14.432	62.0233
14.516	62.27
14.6	62.2717
14.684	61.9161
14.768	61.7493
14.852	62.0128
14.936	62.2673
15.02	62.2536
15.104	62.1606
15.188	62.0149
15.272	61.8308
15.356	61.7667
15.44	61.9093
15.524	62.233
15.608	62.49
15.692	62.4608
15.776	62.3032
15.86	62.2092
15.944	62.0951
16.028	61.9316
16.112	61.749
16.196	61.3744
16.28	60.8874
16.364	60.8538
16.448	61.3956
16.532	61.8165
16.616	61.644
16.7	61.2609
16.784	61.189
16.868	61.3817
16.952	61.4706
17.036	61.4881
17.12	61.7538
17.204	62.1031
17.288	62.1328
17.372	62.0162
17.456	62.1618
17.54	62.4165
17.624	62.4081
17.708	62.2498
17.792	62.2304
17.876	62.2938
17.96	62.2636
18.044	62.1994
18.128	62.1868
18.212	62.0803
18.296	61.7274
18.38	61.2507
18.464	60.9313
18.548	60.9066
18.632	61.0548
18.716	61.1222
18.8	60.9431
18.884	60.6206
18.968	60.49
19.052	60.8219
19.136	61.4867
19.22	62.0207
19.304	62.0715
19.388	61.7351
19.472	61.3825
19.556	61.2546
19.64	61.2774
19.724	61.2129
19.808	60.91
19.892	60.3972
19.976	59.8322
20.06	59.4215
20.144	59.3554
20.228	59.7231
20.312	60.4187
20.396	61.1517
20.48	61.612
20.564	61.6631
20.648	61.4069
20.732	61.0854
20.816	60.9086
20.9	60.9498
20.984	61.1433
21.068	61.3428
21.152	61.3981
21.236	61.2373
21.32	60.9262
21.404	60.6535
21.488	60.6033
21.572	60.826
21.656	61.2229
21.74	61.6207
21.824	61.8852
21.908	61.9796
21.992	61.9248
22.076	61.7488
22.16	61.4708
22.244	61.1196
22.328	60.7665
22.412	60.5009
22.496	60.386
22.58	60.4375
22.664	60.6328
22.748	60.9102
22.832	61.1761
22.916	61.3185
23	61.2424
23.084	60.9178
23.168	60.4136
23.252	59.8812
23.336	59.5165
23.42	59.5002
23.504	59.9186
23.588	60.7065
23.672	61.6713
23.756	62.5383
23.84	63.0573
23.924	63.1144
24.008	62.766
24.092	62.2057
24.176	61.6909
24.26	61.4282
24.344	61.5057
24.428	61.8648
24.512	62.3543
24.596	62.8088
24.68	63.0733
24.764	63.0227
24.848	62.5834
24.932	61.7357
25.016	60.5346
25.1	59.0981
25.184	57.644
25.268	56.4578
25.352	55.8286
25.436	56.0333
25.52	57.2304
25.604	59.3895
25.688	62.2325
25.772	65.2202
25.856	67.6887
25.94	69.0591
26.024	69.0008
26.108	67.5662
26.192	65.1846
26.276	62.5177
26.36	60.2792
26.444	59.0219
26.528	58.953
26.612	59.9293
26.696	61.4482
26.78	62.8013
26.864	63.3182
26.948	62.6236
27.028	60.887