File: Bakgrunnsmateriale/MATLAB/FTIR/ftir_data/subAa/Mapping_121/BZ1503107-1_t115.asc
PE IR       SPECTRUM    SPECTRUM    ASCII       PEDS        1.60
  -1
BZDAB6~1.ASC
17/04/07
22:43:44.00
17/04/07
22:44:10.00
tln
$BZ1503107-1_t0115$<tbV0>[2.6,13.0,8.0,0.0,27,1,0]
27.028
64

2002,4.07
MIRTGS : RIGHTBACK : INTERNAL 2
MIR : ON : INTERNAL 2
OPTKBR

0.200000
8
8.000000
FILLER
RATIO
SPECTRUM
UNLOCKED 256

DOUBLE
64
COMBINED
1
0
0

0.002000
RATIO

1
0
TRUE
51149
0
LEFT NOT FITTED RIGHT NOT FITTED 0
NONE
NONE
15600
12
4.427000
51148
TRUE
1 0 8 72 0 0 0 0

15798

#HDR
-1
-1
#GR
µM
%T
2.38419e-05
0.0
2.000000
0.002000
12515
8
67.9772
40.6172
#DATA
2.000000	 65.9962
2.084000	 65.1463
2.168000	 65.5987
2.252000	 62.2912
2.336000	 65.8501
2.420000	 65.1539
2.504000	 65.1776
2.588000	 65.5255
2.672000	 65.2982
2.756000	 65.448
2.840000	 64.9389
2.924000	 65.1914
3.008000	 65.1778
3.092000	 65.0805
3.176000	 64.9231
3.260000	 64.9209
3.344000	 64.9775
3.428000	 64.4948
3.512000	 64.722
3.596000	 64.7331
3.680000	 64.7579
3.764000	 64.6472
3.848000	 64.7332
3.932000	 64.6972
4.016000	 64.5648
4.100000	 64.5684
4.184000	 64.4758
4.268000	 64.4051
4.352000	 64.3
4.436000	 64.197
4.520000	 64.4088
4.604000	 64.2267
4.688000	 64.2703
4.772000	 64.1444
4.856000	 64.0755
4.940000	 64.025
5.024000	 63.9511
5.108000	 63.9337
5.192000	 63.9817
5.276000	 63.8504
5.359999	 63.8375
5.444000	 63.8223
5.528000	 63.9499
5.612000	 63.7541
5.696000	 63.6427
5.780000	 62.914
5.864000	 63.5881
5.948000	 63.625
6.032000	 63.5577
6.116000	 63.5631
6.200000	 63.2692
6.284000	 63.4303
6.368000	 63.4306
6.452000	 63.4357
6.536000	 63.3318
6.620000	 63.3877
6.704000	 63.5216
6.788000	 63.227
6.872000	 63.2366
6.956000	 63.1127
7.040000	 63.2078
7.124000	 63.1139
7.208000	 63.0132
7.292000	 63.0448
7.376000	 63.0727
7.460000	 63.0258
7.544000	 63.0565
7.628000	 63.0766
7.712000	 63.0289
7.796000	 62.8112
7.880000	 62.7767
7.964000	 62.6298
8.048000	 62.6926
8.132000	 62.7374
8.216000	 62.7391
8.300000	 62.7316
8.384000	 62.7272
8.468000	 62.5244
8.552000	 62.2913
8.635999	 62.4479
8.719999	 62.5774
8.804000	 62.5777
8.888000	 62.6568
8.972000	 62.5542
9.056000	 62.4848
9.140000	 62.5978
9.224000	 62.4676
9.308000	 62.5675
9.391999	 62.5993
9.475999	 62.4237
9.560000	 62.4931
9.644000	 62.4149
9.728000	 62.3841
9.812000	 62.3645
9.896000	 62.4943
9.980000	 62.4474
10.064	62.5265
10.148	62.5076
10.232	62.6239
10.316	62.3797
10.4	62.4046
10.484	62.5537
10.568	62.4561
10.652	62.365
10.736	62.3014
10.82	62.4593
10.904	62.4547
10.988	62.5636
11.072	62.5762
11.156	62.4689
11.24	62.2142
11.324	62.3079
11.408	62.5156
11.492	62.4096
11.576	62.2696
11.66	62.2569
11.744	62.2754
11.828	62.3731
11.912	62.2752
11.996	62.343
12.08	62.5044
12.164	62.4687
12.248	62.4021
12.332	62.4437
12.416	62.3334
12.5	62.401
12.584	62.3837
12.668	62.083
12.752	62.0636
12.836	62.0703
12.92	62.042
13.004	62.1268
13.088	62.0491
13.172	61.9264
13.256	61.8809
13.34	61.9733
13.424	62.0071
13.508	61.894
13.592	61.9503
13.676	62.0336
13.76	62.117
13.844	62.1781
13.928	62.0954
14.012	61.9256
14.096	61.7526
14.18	61.5063
14.264	61.4685
14.348	61.7517
14.432	62.1472
14.516	62.3499
14.6	62.1868
14.684	62.0283
14.768	61.989
14.852	61.9573
14.936	61.9596
15.02	61.8455
15.104	61.6373
15.188	61.6014
15.272	61.7659
15.356	61.9189
15.44	61.9364
15.524	61.8426
15.608	61.6316
15.692	61.3531
15.776	61.2029
15.86	61.2027
15.944	61.1789
16.028	61.1146
16.112	61.0611
16.196	61.0681
16.28	61.2948
16.364	61.631
16.448	61.6539
16.532	61.4172
16.616	61.44
16.7	61.8332
16.784	62.1626
16.868	62.0314
16.952	61.5652
17.036	61.2551
17.12	61.3343
17.204	61.4984
17.288	61.36
17.372	60.953
17.456	60.6732
17.54	60.8384
17.624	61.314
17.708	61.6962
17.792	61.796
17.876	61.7499
17.96	61.6962
18.044	61.6132
18.128	61.4712
18.212	61.3494
18.296	61.3518
18.38	61.5257
18.464	61.8189
18.548	62.0583
18.632	62.0242
18.716	61.647
18.8	61.1051
18.884	60.6748
18.968	60.4846
19.052	60.4532
19.136	60.466
19.22	60.5328
19.304	60.7551
19.388	61.1486
19.472	61.5698
19.556	61.8316
19.64	61.8661
19.724	61.7495
19.808	61.5934
19.892	61.4516
19.976	61.3248
20.06	61.2109
20.144	61.1173
20.228	61.0337
20.312	60.9311
20.396	60.7939
20.48	60.6396
20.564	60.4986
20.648	60.3896
20.732	60.3106
20.816	60.2527
20.9	60.2058
20.984	60.1666
21.068	60.1367
21.152	60.1364
21.236	60.2101
21.32	60.408
21.404	60.7459
21.488	61.1726
21.572	61.5826
21.656	61.8628
21.74	61.9578
21.824	61.9041
21.908	61.802
21.992	61.7322
22.076	61.692
22.16	61.5986
22.244	61.3673
22.328	60.9908
22.412	60.5526
22.496	60.1788
22.58	59.9563
22.664	59.8985
22.748	59.948
22.832	60.0388
22.916	60.1359
23	60.2457
23.084	60.3847
23.168	60.5481
23.252	60.6954
23.336	60.7617
23.42	60.6845
23.504	60.4442
23.588	60.085
23.672	59.6876
23.756	59.327
23.84	59.0328
23.924	58.7716
24.008	58.4819
24.092	58.1328
24.176	57.7676
24.26	57.5012
24.344	57.4665
24.428	57.7221
24.512	58.2071
24.596	58.772
24.68	59.2615
24.764	59.6021
24.848	59.8355
24.932	60.1067
25.016	60.5513
25.1	61.1439
25.184	61.712
25.268	62.0006
25.352	61.7738
25.436	60.9593
25.52	59.7193
25.604	58.3656
25.688	57.2577
25.772	56.6346
25.856	56.526
25.94	56.7498
26.024	57.0463
26.108	57.2509
26.192	57.3699
26.276	57.5454
26.36	57.9742
26.444	58.7392
26.528	59.656
26.612	60.2756
26.696	59.9196
26.78	57.9085
26.864	53.8203
26.948	47.7056
27.028	40.6172