File: Bakgrunnsmateriale/MATLAB/FTIR/ftir_data/subAa/Mapping_121/BZ1503107-1_t34_cm-1.asc
PE IR       SPECTRUM    SPECTRUM    ASCII       PEDS        1.60
  -1
BZ6CA0~1.ASC
17/04/07
16:01:17.00
17/04/07
16:01:17.00
tln
$BZ1503107-1_t0034$<tbV0>[13.0,-5.2,8.0,0.0,27,1,0]
370
64

2002,4.07
MIRTGS : RIGHTBACK : INTERNAL 2
MIR : ON : INTERNAL 2
OPTKBR

0.200000
8
8.000000
FILLER
RATIO
SPECTRUM
UNLOCKED 256

DOUBLE
64
COMBINED
1
0
0

1.000000
RATIO

1
0
TRUE
51149
0
LEFT NOT FITTED RIGHT NOT FITTED 0
NONE
NONE
15600
12
4.427000
51148
TRUE
1 0 8 72 0 0 0 0

15798

#HDR
-1
-1
#GR
CM-1
%T
2.38419e-05
0.0
5000
-1.000000
4631
8
85.1394
46.0164
#DATA
5000	65.551
4984	64.8336
4968	64.6226
4952	64.5112
4936	64.8105
4920	64.8953
4904	65.205
4888	64.6503
4872	65.2924
4856	64.9902
4840	65.0597
4824	64.954
4808	65.0107
4792	64.9109
4776	64.8864
4760	65.0782
4744	64.7219
4728	65.0056
4712	65.8512
4696	65.1248
4680	64.9023
4664	65.1478
4648	65.2709
4632	64.7187
4616	64.9457
4600	64.3233
4584	64.6774
4568	65.0483
4552	64.7067
4536	65.1072
4520	64.0734
4504	64.7095
4488	64.7672
4472	64.2768
4456	65.5715
4440	66.5815
4424	73.2203
4408	60.0544
4392	66.0796
4376	64.8669
4360	64.9849
4344	65.0066
4328	64.8558
4312	64.589
4296	65.0083
4280	64.8169
4264	65.3147
4248	64.8377
4232	65.0462
4216	65.1512
4200	65.1433
4184	65.3914
4168	65.0895
4152	65.0156
4136	65.4194
4120	65.2914
4104	65.4449
4088	64.9775
4072	65.1974
4056	65.3136
4040	65.2979
4024	65.2074
4008	65.1524
3992	65.2342
3976	65.025
3960	65.2937
3944	64.991
3928	65.1848
3912	65.3181
3896	65.368
3880	64.7503
3864	65.1126
3848	65.0987
3832	65.051
3816	65.0693
3800	65.4478
3784	64.9315
3768	65.2364
3752	65.0656
3736	65.1632
3720	65.1012
3704	65.3904
3688	65.1413
3672	65.2212
3656	65.196
3640	65.3024
3624	65.2322
3608	65.2282
3592	65.2459
3576	65.1537
3560	65.1824
3544	65.1746
3528	65.0791
3512	65.1525
3496	65.1852
3480	65.0012
3464	65.1471
3448	65.2304
3432	65.122
3416	64.9722
3400	65.1291
3384	65.2211
3368	65.1879
3352	65.1764
3336	65.1644
3320	65.2613
3304	65.0318
3288	64.8629
3272	65.1502
3256	64.9843
3240	65.0439
3224	65.1749
3208	64.9645
3192	65.0772
3176	65.1438
3160	65.1742
3144	64.9585
3128	65.1886
3112	65.1168
3096	65.2264
3080	65.079
3064	64.9549
3048	65.0343
3032	64.9409
3016	64.9733
3000	65.0744
2984	65.1964
2968	64.8223
2952	65.0302
2936	64.9776
2920	64.9807
2904	64.9335
2888	64.9676
2872	65.0205
2856	64.9467
2840	64.9176
2824	64.9613
2808	65.0139
2792	65.2602
2776	65.0785
2760	65.1091
2744	65.0551
2728	64.8903
2712	64.9682
2696	65.2259
2680	64.9539
2664	65.0431
2648	65.0752
2632	65.0309
2616	64.9383
2600	64.9299
2584	65.0542
2568	65.0232
2552	64.8432
2536	65.0934
2520	64.9994
2504	64.9689
2488	64.9925
2472	64.9211
2456	64.9687
2440	64.9699
2424	64.9855
2408	64.9906
2392	65.0453
2376	64.8158
2360	64.9335
2344	64.9728
2328	64.9853
2312	64.9925
2296	64.8216
2280	64.945
2264	64.91
2248	64.8274
2232	64.8315
2216	64.7941
2200	64.9441
2184	64.881
2168	64.8967
2152	64.8111
2136	64.8056
2120	64.9286
2104	64.8167
2088	64.7165
2072	64.8238
2056	64.7672
2040	64.7118
2024	64.888
2008	64.8495
1992	64.7647
1976	64.7959
1960	64.669
1944	64.7767
1928	64.7029
1912	64.6716
1896	64.6721
1880	64.6538
1864	64.6394
1848	64.6851
1832	64.7065
1816	64.7333
1800	64.6663
1784	64.6045
1768	64.6098
1752	64.4171
1736	64.2907
1720	64.4795
1704	64.5094
1688	64.4356
1672	64.5808
1656	64.5277
1640	64.4125
1624	64.3832
1608	64.3997
1592	64.3613
1576	64.1534
1560	64.334
1544	64.3954
1528	64.3364
1512	64.5782
1496	64.4713
1480	64.3993
1464	64.3752
1448	64.3824
1432	64.4516
1416	64.5436
1400	64.331
1384	64.204
1368	64.2395
1352	64.2737
1336	64.4022
1320	64.2383
1304	64.2036
1288	64.0707
1272	64.1868
1256	64.0837
1240	64.1927
1224	64.0781
1208	64.1
1192	64.0289
1176	64.0807
1160	64.1134
1144	63.9205
1128	63.7724
1112	63.9735
1096	63.9016
1080	63.9173
1064	64.0309
1048	63.9311
1032	64.107
1016	64.0182
1000	64.0608
984	 64.0378
968	 63.9795
952	 64.1297
936	 64.0491
920	 64.0115
904	 63.9968
888	 64.0555
872	 63.904
856	 64.1685
840	 64.0208
824	 63.8598
808	 63.9409
792	 63.8946
776	 64.1063
760	 63.7028
744	 63.977
728	 63.448
712	 63.4631
696	 64.276
680	 63.4278
664	 63.5029
648	 63.0813
632	 63.7645
616	 63.1917
600	 64.3479
584	 63.6942
568	 63.6373
552	 64.7437
536	 63.7774
520	 63.1203
504	 63.2284
488	 63.0674
472	 63.1517
456	 63.2699
440	 63.2242
424	 62.6501
408	 67.2198
392	 81.6226
376	 49.2281
370	 54.7713