File: Bakgrunnsmateriale/MATLAB/FTIR/ftir_data/subAa/Mapping_121/BZ1503107-1_t64.asc
PE IR       SPECTRUM    SPECTRUM    ASCII       PEDS        1.60
  -1
BZ2951~1.ASC
17/04/07
18:27:27.00
17/04/07
18:27:53.00
tln
$BZ1503107-1_t0064$<tbV0>[-7.8,0.0,8.0,0.0,27,1,0]
27.028
64

2002,4.07
MIRTGS : RIGHTBACK : INTERNAL 2
MIR : ON : INTERNAL 2
OPTKBR

0.200000
8
8.000000
FILLER
RATIO
SPECTRUM
UNLOCKED 256

DOUBLE
64
COMBINED
1
0
0

0.002000
RATIO

1
0
TRUE
51149
0
LEFT NOT FITTED RIGHT NOT FITTED 0
NONE
NONE
15600
12
4.427000
51148
TRUE
1 0 8 72 0 0 0 0

15798

#HDR
-1
-1
#GR
µM
%T
2.38419e-05
0.0
2.000000
0.002000
12515
8
70.1084
47.5368
#DATA
2.000000	 65.0026
2.084000	 64.5986
2.168000	 64.4792
2.252000	 65.2801
2.336000	 64.9951
2.420000	 64.8203
2.504000	 65.2792
2.588000	 65.1448
2.672000	 65.1318
2.756000	 65.1979
2.840000	 64.959
2.924000	 64.9754
3.008000	 65.0979
3.092000	 64.9167
3.176000	 64.8853
3.260000	 64.8506
3.344000	 65.0019
3.428000	 64.9413
3.512000	 65.0371
3.596000	 64.8182
3.680000	 64.8288
3.764000	 64.934
3.848000	 64.8368
3.932000	 64.8581
4.016000	 64.8805
4.100000	 64.839
4.184000	 64.8291
4.268000	 64.8017
4.352000	 64.7881
4.436000	 64.7027
4.520000	 64.6528
4.604000	 64.6829
4.688000	 64.6414
4.772000	 64.6248
4.856000	 64.5925
4.940000	 64.5923
5.024000	 64.5468
5.108000	 64.3909
5.192000	 64.4395
5.276000	 64.3439
5.359999	 64.4626
5.444000	 64.4029
5.528000	 64.3926
5.612000	 64.416
5.696000	 64.2273
5.780000	 64.0692
5.864000	 64.2038
5.948000	 64.0571
6.032000	 64.1006
6.116000	 64.094
6.200000	 64.1597
6.284000	 64.0583
6.368000	 64.0309
6.452000	 63.99
6.536000	 64.0054
6.620000	 64.1968
6.704000	 64.0806
6.788000	 64.1991
6.872000	 64.0553
6.956000	 64.0579
7.040000	 64.1631
7.124000	 64.0085
7.208000	 64.046
7.292000	 63.9453
7.376000	 63.9799
7.460000	 63.9023
7.544000	 63.886
7.628000	 63.8201
7.712000	 63.9568
7.796000	 63.9213
7.880000	 63.898
7.964000	 63.7951
8.048000	 63.8414
8.132000	 63.7878
8.216000	 63.7541
8.300000	 63.7574
8.384000	 63.6659
8.468000	 63.7549
8.552000	 63.6333
8.635999	 63.6123
8.719999	 63.6351
8.804000	 63.5829
8.888000	 63.5134
8.972000	 63.5299
9.056000	 63.7186
9.140000	 63.6109
9.224000	 63.4868
9.308000	 63.6157
9.391999	 63.6406
9.475999	 63.6081
9.560000	 63.7713
9.644000	 63.6927
9.728000	 63.4861
9.812000	 63.5352
9.896000	 63.514
9.980000	 63.7417
10.064	63.7798
10.148	63.6261
10.232	63.7517
10.316	63.6512
10.4	63.6081
10.484	63.6443
10.568	63.6378
10.652	63.5517
10.736	63.5548
10.82	63.6518
10.904	63.9085
10.988	63.7531
11.072	63.6723
11.156	63.5712
11.24	63.6
11.324	63.7599
11.408	63.7333
11.492	63.8212
11.576	63.8614
11.66	63.8811
11.744	63.7237
11.828	63.6965
11.912	63.7205
11.996	63.8398
12.08	63.8517
12.164	63.6323
12.248	63.502
12.332	63.48
12.416	63.4477
12.5	63.4197
12.584	63.4345
12.668	63.5024
12.752	63.5127
12.836	63.4898
12.92	63.4745
13.004	63.3349
13.088	63.156
13.172	63.124
13.256	63.1032
13.34	63.0335
13.424	62.9972
13.508	63.0798
13.592	63.0884
13.676	63.0678
13.76	63.0218
13.844	63.0411
13.928	63.1577
14.012	63.2759
14.096	63.2814
14.18	63.0398
14.264	62.9078
14.348	63.0542
14.432	63.2736
14.516	63.4788
14.6	63.3987
14.684	63.2007
14.768	63.1946
14.852	63.1099
14.936	62.8943
15.02	62.7244
15.104	62.8311
15.188	63.153
15.272	63.2838
15.356	63.5061
15.44	63.8557
15.524	63.5516
15.608	62.9691
15.692	62.9516
15.776	63.0117
15.86	62.6853
15.944	62.5122
16.028	62.9285
16.112	63.6358
16.196	63.9906
16.28	63.6452
16.364	62.9163
16.448	62.3617
16.532	62.0359
16.616	61.5504
16.7	60.9556
16.784	60.874
16.868	61.4665
16.952	62.2035
17.036	62.7146
17.12	63.0359
17.204	63.1737
17.288	63.095
17.372	62.9083
17.456	62.7573
17.54	62.7117
17.624	62.6935
17.708	62.5409
17.792	62.2874
17.876	62.2312
17.96	62.5473
18.044	63.0128
18.128	63.2822
18.212	63.2643
18.296	63.073
18.38	62.7939
18.464	62.4499
18.548	62.1114
18.632	61.919
18.716	61.9873
18.8	62.3259
18.884	62.8267
18.968	63.3169
19.052	63.6533
19.136	63.796
19.22	63.7865
19.304	63.6753
19.388	63.4747
19.472	63.1938
19.556	62.8906
19.64	62.6626
19.724	62.5807
19.808	62.6397
19.892	62.774
19.976	62.9085
20.06	62.9943
20.144	63.0007
20.228	62.913
20.312	62.7575
20.396	62.6167
20.48	62.5906
20.564	62.7188
20.648	62.9361
20.732	63.1178
20.816	63.1705
20.9	63.0943
20.984	62.9469
21.068	62.7932
21.152	62.6682
21.236	62.5865
21.32	62.5558
21.404	62.5653
21.488	62.5818
21.572	62.5603
21.656	62.482
21.74	62.3728
21.824	62.2861
21.908	62.2703
21.992	62.3599
22.076	62.5879
22.16	62.9888
22.244	63.5672
22.328	64.2554
22.412	64.912
22.496	65.3636
22.58	65.4841
22.664	65.2452
22.748	64.7359
22.832	64.1007
22.916	63.4916
23	63.0175
23.084	62.7335
23.168	62.6554
23.252	62.7745
23.336	63.0636
23.42	63.459
23.504	63.8599
23.588	64.1538
23.672	64.256
23.756	64.1436
23.84	63.894
23.924	63.6599
24.008	63.6086
24.092	63.8561
24.176	64.4004
24.26	65.1191
24.344	65.8054
24.428	66.2722
24.512	66.4082
24.596	66.2524
24.68	65.9875
24.764	65.8625
24.848	66.0534
24.932	66.5992
25.016	67.3564
25.1	68.0445
25.184	68.3203
25.268	67.9436
25.352	66.869
25.436	65.2584
25.52	63.4134
25.604	61.6369
25.688	60.1498
25.772	59.0375
25.856	58.2875
25.94	57.8224
26.024	57.6043
26.108	57.69
26.192	58.2036
26.276	59.1938
26.36	60.4952
26.444	61.7309
26.528	62.4088
26.612	62.0697
26.696	60.4485
26.78	57.5935
26.864	53.9593
26.948	50.2908
27.028	47.5368