File: Bakgrunnsmateriale/MATLAB/FTIR/ftir_data/subAa/Mapping_121/BZ1503107-1_t05_cm-1.asc
PE IR       SPECTRUM    SPECTRUM    ASCII       PEDS        1.60
  -1
BZ6D22~1.ASC
17/04/07
13:38:58.00
17/04/07
13:38:58.00
tln
$BZ1503107-1_t0005$<tbV0>[2.6,-13.0,8.0,0.0,27,1,0]
370
64

2002,4.07
MIRTGS : RIGHTBACK : INTERNAL 2
MIR : ON : INTERNAL 2
OPTKBR

0.200000
8
8.000000
FILLER
RATIO
SPECTRUM
UNLOCKED 256

DOUBLE
64
COMBINED
1
0
0

1.000000
RATIO

1
0
TRUE
51149
0
LEFT NOT FITTED RIGHT NOT FITTED 0
NONE
NONE
15600
12
4.427000
51148
TRUE
1 0 8 72 0 0 0 0

15798

#HDR
-1
-1
#GR
CM-1
%T
2.38419e-05
0.0
5000
-1.000000
4631
8
85.746
58.9595
#DATA
5000	65.2549
4984	64.5561
4968	64.721
4952	65.0665
4936	64.7921
4920	65.7857
4904	65.1802
4888	62.9542
4872	63.4413
4856	64.8484
4840	65.2464
4824	65.1363
4808	65.6189
4792	65.4339
4776	65.1966
4760	65.3568
4744	65.0856
4728	64.858
4712	64.573
4696	64.6901
4680	64.9894
4664	64.5821
4648	64.9199
4632	64.4156
4616	64.3939
4600	64.7275
4584	64.7477
4568	64.1021
4552	63.7223
4536	64.3845
4520	63.1629
4504	64.572
4488	67.0644
4472	64.128
4456	71.9571
4440	66.4028
4424	64.3346
4408	64.079
4392	64.5071
4376	64.0205
4360	64.3435
4344	64.9451
4328	64.4285
4312	64.9164
4296	64.8597
4280	64.7468
4264	64.7892
4248	65.2432
4232	65.0009
4216	64.9237
4200	65.3082
4184	64.9979
4168	64.7973
4152	65.0367
4136	65.1913
4120	65.0059
4104	65.5847
4088	65.141
4072	65.162
4056	65.2112
4040	65.0369
4024	65.0836
4008	64.726
3992	65.1466
3976	65.3865
3960	65.1316
3944	65.0261
3928	64.8833
3912	65.0445
3896	65.0906
3880	64.9106
3864	64.8879
3848	65.0868
3832	65.2739
3816	65.3447
3800	65.345
3784	65.0677
3768	65.0904
3752	65.2729
3736	65.2971
3720	65.0282
3704	65.3064
3688	65.4064
3672	65.3236
3656	65.255
3640	65.3756
3624	65.1433
3608	65.2374
3592	65.156
3576	65.0979
3560	64.9794
3544	65.2762
3528	65.0465
3512	65.0612
3496	65.1569
3480	65.2488
3464	64.7989
3448	64.9045
3432	65.099
3416	65.0555
3400	65.0749
3384	65.1052
3368	65.0501
3352	65.1217
3336	65.1823
3320	65.1648
3304	65.0713
3288	65.0806
3272	65.1503
3256	65.0936
3240	64.9087
3224	65.0797
3208	65.0287
3192	65.1728
3176	65.1872
3160	65.1593
3144	65.0334
3128	65.2038
3112	65.033
3096	65.1989
3080	65.2491
3064	65.0182
3048	65.1086
3032	65.0399
3016	65.1549
3000	65.1186
2984	65.0905
2968	64.9843
2952	64.964
2936	65.0877
2920	65.0507
2904	65.0936
2888	65.001
2872	65.0065
2856	65.0667
2840	65.0255
2824	65.1682
2808	65.0661
2792	65.0252
2776	65.0483
2760	65.0918
2744	65.156
2728	65.1234
2712	65.0933
2696	65.1353
2680	65.0883
2664	65.0256
2648	64.9722
2632	65.027
2616	65.0221
2600	64.9902
2584	65.1153
2568	65.0613
2552	65.0775
2536	65.046
2520	64.9766
2504	65.074
2488	65.1348
2472	65.0794
2456	65.0969
2440	65.0465
2424	64.891
2408	64.9883
2392	65.0429
2376	65.107
2360	65.0367
2344	65.0548
2328	64.9793
2312	65.0433
2296	65.042
2280	64.9612
2264	64.909
2248	64.8778
2232	64.8367
2216	64.8786
2200	64.9089
2184	64.939
2168	65.0339
2152	64.6618
2136	64.8632
2120	64.8951
2104	64.833
2088	64.8738
2072	64.8312
2056	64.9706
2040	64.9109
2024	64.8999
2008	64.9285
1992	64.8656
1976	64.7796
1960	64.8896
1944	64.8751
1928	64.8157
1912	64.8248
1896	64.9665
1880	64.8129
1864	64.8567
1848	64.8051
1832	64.8015
1816	64.8499
1800	64.8287
1784	64.7528
1768	64.866
1752	64.8253
1736	64.6028
1720	64.7217
1704	64.8238
1688	64.6839
1672	64.718
1656	64.8426
1640	64.6929
1624	64.7529
1608	64.6423
1592	64.7433
1576	64.6671
1560	64.7563
1544	64.7467
1528	64.574
1512	64.7216
1496	64.68
1480	64.7254
1464	64.6332
1448	64.4708
1432	64.616
1416	64.5153
1400	64.4615
1384	64.4637
1368	64.474
1352	64.5598
1336	64.4221
1320	64.3684
1304	64.3098
1288	64.4619
1272	64.4072
1256	64.4058
1240	64.348
1224	64.3126
1208	64.3934
1192	64.4545
1176	64.1378
1160	64.3079
1144	64.2034
1128	64.3916
1112	64.3331
1096	64.3009
1080	64.2799
1064	64.29
1048	64.3357
1032	64.4137
1016	64.2427
1000	64.1196
984	 64.175
968	 64.2019
952	 64.325
936	 64.3554
920	 64.4207
904	 64.1166
888	 64.1319
872	 64.3028
856	 64.2658
840	 64.1689
824	 64.0664
808	 64.1277
792	 64.0744
776	 64.2479
760	 64.0909
744	 63.9769
728	 64.1552
712	 63.9486
696	 64.0266
680	 64.0712
664	 63.9949
648	 63.9106
632	 63.9682
616	 63.8963
600	 63.5666
584	 64.1436
568	 63.5846
552	 64.0861
536	 63.6426
520	 64.4851
504	 63.3328
488	 63.8473
472	 64.0238
456	 65.1081
440	 64.0509
424	 62.4222
408	 66.5068
392	 68.4828
376	 68.9562
370	 85.746