File: Bakgrunnsmateriale/MATLAB/FTIR/ftir_data/subAa/Mapping_121/BZ1503107-1_t53_cm-1.asc
PE IR       SPECTRUM    SPECTRUM    ASCII       PEDS        1.60
  -1
BZ6BA3~1.ASC
17/04/07
17:36:00.00
17/04/07
17:36:00.00
tln
$BZ1503107-1_t0053$<tbV0>[-7.8,-2.6,8.0,0.0,27,1,0]
370
64

2002,4.07
MIRTGS : RIGHTBACK : INTERNAL 2
MIR : ON : INTERNAL 2
OPTKBR

0.200000
8
8.000000
FILLER
RATIO
SPECTRUM
UNLOCKED 256

DOUBLE
64
COMBINED
1
0
0

1.000000
RATIO

1
0
TRUE
51149
0
LEFT NOT FITTED RIGHT NOT FITTED 0
NONE
NONE
15600
12
4.427000
51148
TRUE
1 0 8 72 0 0 0 0

15798

#HDR
-1
-1
#GR
CM-1
%T
2.38419e-05
0.0
5000
-1.000000
4631
8
81.5937
48.8808
#DATA
5000	65.5801
4984	65.3513
4968	65.5932
4952	64.2357
4936	63.9909
4920	64.4672
4904	64.6928
4888	64.438
4872	64.3726
4856	64.9347
4840	64.2289
4824	64.6371
4808	64.3746
4792	64.5418
4776	64.5858
4760	64.662
4744	64.1613
4728	64.4501
4712	64.5346
4696	64.819
4680	64.9594
4664	64.4705
4648	64.854
4632	64.9956
4616	65.0548
4600	65.2015
4584	65.3547
4568	65.4382
4552	65.4689
4536	65.6904
4520	65.6305
4504	65.9579
4488	66.1511
4472	65.7088
4456	64.359
4440	52.5958
4424	49.5152
4408	65.2782
4392	67.1228
4376	65.3928
4360	66.5891
4344	65.3073
4328	65.7979
4312	65.5979
4296	65.4745
4280	65.1058
4264	65.3595
4248	65.1996
4232	65.1474
4216	64.8187
4200	65.0194
4184	65.1718
4168	64.753
4152	64.8352
4136	64.6388
4120	64.963
4104	64.6234
4088	64.7073
4072	64.7658
4056	64.7356
4040	64.8318
4024	64.8093
4008	64.9971
3992	65.2753
3976	65.0125
3960	64.9217
3944	65.3101
3928	64.9235
3912	65.1531
3896	65.3577
3880	65.2005
3864	65.0464
3848	65.3434
3832	65.2491
3816	65.0909
3800	65.045
3784	65.3113
3768	65.0835
3752	64.8364
3736	64.8445
3720	65.033
3704	65.0904
3688	65.0866
3672	65.0027
3656	65.0913
3640	65.0109
3624	65.1262
3608	64.9712
3592	65.0508
3576	65.0145
3560	65.1866
3544	65.1306
3528	64.9556
3512	65.1676
3496	65.1445
3480	65.1862
3464	65.127
3448	65.2179
3432	65.0519
3416	65.0308
3400	65.0299
3384	65.012
3368	65.1631
3352	64.9737
3336	65.0018
3320	64.8719
3304	65.0851
3288	65.0522
3272	64.9646
3256	64.9206
3240	64.9822
3224	64.9337
3208	64.9588
3192	65.055
3176	65.0347
3160	65.2085
3144	65.0911
3128	65.0652
3112	65.0273
3096	65.0206
3080	64.9645
3064	65.0999
3048	64.9064
3032	65.0912
3016	64.868
3000	65.157
2984	64.9665
2968	64.7533
2952	64.7967
2936	64.8787
2920	65.0331
2904	64.9671
2888	64.8812
2872	64.9481
2856	64.9133
2840	64.9066
2824	64.8706
2808	64.9436
2792	64.9944
2776	64.8665
2760	64.9144
2744	64.8765
2728	64.8875
2712	65.0162
2696	64.943
2680	64.9624
2664	64.923
2648	65.0253
2632	64.9115
2616	64.9884
2600	64.8948
2584	64.9204
2568	64.7472
2552	64.8397
2536	64.8849
2520	64.9251
2504	64.8204
2488	64.9309
2472	64.8468
2456	64.9212
2440	64.8743
2424	64.8206
2408	64.8778
2392	64.8503
2376	64.7586
2360	64.7471
2344	64.7361
2328	64.8164
2312	64.769
2296	64.7888
2280	64.742
2264	64.7576
2248	64.7108
2232	64.7157
2216	64.7572
2200	64.7185
2184	64.73
2168	64.6327
2152	64.7286
2136	64.744
2120	64.689
2104	64.7417
2088	64.695
2072	64.6155
2056	64.7142
2040	64.6286
2024	64.5326
2008	64.6672
1992	64.7694
1976	64.6371
1960	64.5249
1944	64.6478
1928	64.609
1912	64.6009
1896	64.5157
1880	64.5356
1864	64.4355
1848	64.6022
1832	64.5374
1816	64.4738
1800	64.5504
1784	64.4971
1768	64.4519
1752	64.3205
1736	64.2013
1720	64.2437
1704	64.3227
1688	64.3027
1672	64.3278
1656	64.2399
1640	64.3548
1624	64.2566
1608	64.3032
1592	64.2211
1576	64.1607
1560	64.1639
1544	64.223
1528	64.2687
1512	64.1259
1496	64.1416
1480	64.2829
1464	64.0235
1448	64.095
1432	64.068
1416	64.3095
1400	64.1197
1384	64.0784
1368	64.1195
1352	64.0659
1336	63.9306
1320	64.02
1304	63.9156
1288	63.9843
1272	64.0222
1256	64.0055
1240	63.9221
1224	63.7887
1208	63.9242
1192	63.8004
1176	63.7519
1160	63.6634
1144	63.6939
1128	63.7853
1112	63.9161
1096	63.9557
1080	63.7733
1064	63.7148
1048	63.915
1032	63.7063
1016	63.5568
1000	63.8779
984	 63.8737
968	 63.827
952	 63.7113
936	 63.5314
920	 63.758
904	 63.8269
888	 63.8055
872	 63.8026
856	 63.9563
840	 63.9377
824	 63.8787
808	 63.5436
792	 63.7124
776	 63.6218
760	 63.2283
744	 63.87
728	 63.4109
712	 63.3677
696	 63.2446
680	 63.7432
664	 63.2214
648	 63.8644
632	 62.7802
616	 63.2257
600	 62.6708
584	 63.3694
568	 63.8437
552	 63.5748
536	 62.62
520	 64.1013
504	 62.6817
488	 62.8166
472	 62.6513
456	 63.6389
440	 63.7985
424	 64.2974
408	 62.5393
392	 66.884
376	 78.9868
370	 77.3476