File: Bakgrunnsmateriale/MATLAB/FTIR/ftir_data/subAa/Mapping_121/BZ1503107-1_t42.asc
PE IR       SPECTRUM    SPECTRUM    ASCII       PEDS        1.60
  -1
BZ215D~1.ASC
17/04/07
16:38:14.00
17/04/07
16:38:40.00
tln
$BZ1503107-1_t0042$<tbV0>[-7.8,-5.2,8.0,0.0,27,1,0]
27.028
64

2002,4.07
MIRTGS : RIGHTBACK : INTERNAL 2
MIR : ON : INTERNAL 2
OPTKBR

0.200000
8
8.000000
FILLER
RATIO
SPECTRUM
UNLOCKED 256

DOUBLE
64
COMBINED
1
0
0

0.002000
RATIO

1
0
TRUE
51149
0
LEFT NOT FITTED RIGHT NOT FITTED 0
NONE
NONE
15600
12
4.427000
51148
TRUE
1 0 8 72 0 0 0 0

15798

#HDR
-1
-1
#GR
µM
%T
2.38419e-05
0.0
2.000000
0.002000
12515
8
83.8433
53.6337
#DATA
2.000000	 65.1069
2.084000	 64.8251
2.168000	 64.6904
2.252000	 64.8044
2.336000	 64.3624
2.420000	 65.2302
2.504000	 65.4431
2.588000	 64.8553
2.672000	 65.4005
2.756000	 65.2844
2.840000	 65.1084
2.924000	 65.1782
3.008000	 65.1401
3.092000	 65.1682
3.176000	 65.0682
3.260000	 65.0514
3.344000	 65.077
3.428000	 65.0371
3.512000	 65.0784
3.596000	 65.0647
3.680000	 65.1753
3.764000	 65.0968
3.848000	 65.0497
3.932000	 65.0077
4.016000	 64.9151
4.100000	 64.9503
4.184000	 65.1091
4.268000	 64.9326
4.352000	 64.8846
4.436000	 64.8012
4.520000	 64.8563
4.604000	 64.846
4.688000	 64.8803
4.772000	 64.7846
4.856000	 64.8942
4.940000	 64.8015
5.024000	 64.7059
5.108000	 64.7522
5.192000	 64.8161
5.276000	 64.6128
5.359999	 64.695
5.444000	 64.7087
5.528000	 64.5589
5.612000	 64.5388
5.696000	 64.5374
5.780000	 64.3184
5.864000	 64.5056
5.948000	 64.4688
6.032000	 64.4808
6.116000	 64.4222
6.200000	 64.3463
6.284000	 64.3889
6.368000	 64.3374
6.452000	 64.1602
6.536000	 64.2891
6.620000	 64.367
6.704000	 64.2522
6.788000	 64.3436
6.872000	 64.4985
6.956000	 64.4554
7.040000	 64.3426
7.124000	 64.2393
7.208000	 64.2942
7.292000	 64.3271
7.376000	 64.1413
7.460000	 64.2773
7.544000	 64.1255
7.628000	 64.1393
7.712000	 64.1644
7.796000	 64.1314
7.880000	 64.1525
7.964000	 64.1095
8.048000	 64.0282
8.132000	 64.2449
8.216000	 64.1467
8.300000	 64.0418
8.384000	 64.0381
8.468000	 64.0813
8.552000	 64.0088
8.635999	 64.0065
8.719999	 64.0043
8.804000	 63.9006
8.888000	 63.9688
8.972000	 63.9531
9.056000	 64.0139
9.140000	 64.0519
9.224000	 64.0016
9.308000	 63.8965
9.391999	 63.9986
9.475999	 63.9299
9.560000	 63.9636
9.644000	 63.9792
9.728000	 64.0145
9.812000	 64.0086
9.896000	 63.9517
9.980000	 64.011
10.064	64.0735
10.148	63.9926
10.232	64.1596
10.316	64.0877
10.4	64.0226
10.484	64.0855
10.568	64.1763
10.652	64.0584
10.736	64.0768
10.82	63.9898
10.904	64.0576
10.988	64.1478
11.072	64.0349
11.156	64.1417
11.24	64.1593
11.324	64.0056
11.408	64.0941
11.492	64.134
11.576	64.0985
11.66	63.9646
11.744	64.0371
11.828	63.9526
11.912	64.0375
11.996	64.0904
12.08	63.9779
12.164	63.8493
12.248	63.7744
12.332	63.8253
12.416	64.0252
12.5	64.0872
12.584	64.3294
12.668	64.2367
12.752	64.0036
12.836	63.7167
12.92	63.839
13.004	63.9577
13.088	63.6444
13.172	63.6626
13.256	63.8157
13.34	63.7862
13.424	63.8034
13.508	63.8219
13.592	63.8576
13.676	63.7073
13.76	63.2057
13.844	62.9489
13.928	63.1269
14.012	63.329
14.096	63.7536
14.18	64.4301
14.264	64.6136
14.348	64.0027
14.432	63.4323
14.516	63.2273
14.6	63.336
14.684	63.9275
14.768	64.3856
14.852	64.2892
14.936	64.214
15.02	64.3033
15.104	63.9686
15.188	63.4676
15.272	63.4017
15.356	63.4714
15.44	63.4104
15.524	63.5679
15.608	63.9682
15.692	64.1611
15.776	64.0395
15.86	63.9151
15.944	63.9971
16.028	64.1342
16.112	64.0042
16.196	63.6082
16.28	63.3568
16.364	63.4747
16.448	63.7542
16.532	63.9861
16.616	64.2093
16.7	64.4078
16.784	64.3419
16.868	63.9386
16.952	63.5145
17.036	63.3346
17.12	63.3048
17.204	63.328
17.288	63.5036
17.372	63.7718
17.456	63.8079
17.54	63.4878
17.624	63.1213
17.708	63.048
17.792	63.2743
17.876	63.5865
17.96	63.8497
18.044	64.0278
18.128	64.0297
18.212	63.7601
18.296	63.2873
18.38	62.8071
18.464	62.4657
18.548	62.2929
18.632	62.2849
18.716	62.4455
18.8	62.7268
18.884	63.0029
18.968	63.1497
19.052	63.1533
19.136	63.1084
19.22	63.1197
19.304	63.2092
19.388	63.3227
19.472	63.4074
19.556	63.4627
19.64	63.5195
19.724	63.5769
19.808	63.5843
19.892	63.4882
19.976	63.2916
20.06	63.0624
20.144	62.8811
20.228	62.7877
20.312	62.7794
20.396	62.8483
20.48	62.9993
20.564	63.2341
20.648	63.5301
20.732	63.8275
20.816	64.0444
20.9	64.1167
20.984	64.0423
21.068	63.8809
21.152	63.7118
21.236	63.577
21.32	63.4702
21.404	63.3743
21.488	63.3012
21.572	63.2896
21.656	63.3537
21.74	63.4486
21.824	63.4912
21.908	63.4235
21.992	63.2561
22.076	63.0474
22.16	62.8496
22.244	62.6613
22.328	62.4361
22.412	62.1354
22.496	61.7793
22.58	61.4527
22.664	61.2609
22.748	61.2788
22.832	61.5189
22.916	61.9281
23	62.4092
23.084	62.857
23.168	63.1997
23.252	63.423
23.336	63.5415
23.42	63.5859
23.504	63.5808
23.588	63.5272
23.672	63.4254
23.756	63.3091
23.84	63.1931
23.924	63.0945
24.008	62.9937
24.092	62.8115
24.176	62.4702
24.26	61.9723
24.344	61.4033
24.428	60.8674
24.512	60.4363
24.596	60.0587
24.68	59.5668
24.764	58.7699
24.848	57.5763
24.932	56.0998
25.016	54.6795
25.1	53.7546
25.184	53.7918
25.268	55.095
25.352	57.7164
25.436	61.5248
25.52	66.2012
25.604	71.2796
25.688	76.1348
25.772	80.0485
25.856	82.3521
25.94	82.5852
26.024	80.6459
26.108	76.9007
26.192	72.0718
26.276	67.0402
26.36	62.6775
26.444	59.6083
26.528	58.0965
26.612	58.0392
26.696	59.0877
26.78	60.8072
26.864	62.73
26.948	64.4306
27.028	65.5193