File: Bakgrunnsmateriale/MATLAB/FTIR/ftir_data/subAa/Mapping_121/BZ1503107-1_t71_cm-1.asc
PE IR       SPECTRUM    SPECTRUM    ASCII       PEDS        1.60
  -1
BZ69A6~1.ASC
17/04/07
19:06:31.00
17/04/07
19:06:31.00
tln
$BZ1503107-1_t0071$<tbV0>[2.6,2.6,8.0,0.0,27,1,0]
370
64

2002,4.07
MIRTGS : RIGHTBACK : INTERNAL 2
MIR : ON : INTERNAL 2
OPTKBR

0.200000
8
8.000000
FILLER
RATIO
SPECTRUM
UNLOCKED 256

DOUBLE
64
COMBINED
1
0
0

1.000000
RATIO

1
0
TRUE
51149
0
LEFT NOT FITTED RIGHT NOT FITTED 0
NONE
NONE
15600
12
4.427000
51148
TRUE
1 0 8 72 0 0 0 0

15798

#HDR
-1
-1
#GR
CM-1
%T
2.38419e-05
0.0
5000
-1.000000
4631
8
71.0231
32.2752
#DATA
5000	65.4047
4984	65.4864
4968	64.6327
4952	64.9747
4936	64.6165
4920	64.5503
4904	64.3938
4888	65.058
4872	65.0531
4856	64.7627
4840	64.3521
4824	64.409
4808	64.7449
4792	65.0815
4776	64.8264
4760	64.9512
4744	64.8346
4728	65.0318
4712	64.9128
4696	65.0699
4680	64.6511
4664	64.8337
4648	64.7949
4632	64.8574
4616	65.0269
4600	64.6939
4584	64.6569
4568	64.6422
4552	64.587
4536	64.848
4520	64.6951
4504	64.6645
4488	65.2692
4472	64.467
4456	64.5208
4440	64.1383
4424	62.9368
4408	67.8235
4392	65.6551
4376	65.5196
4360	65.9344
4344	65.0748
4328	64.7859
4312	64.9831
4296	65.0337
4280	64.947
4264	64.5072
4248	64.9905
4232	65.0797
4216	64.5156
4200	65.0707
4184	64.7149
4168	65.2226
4152	64.6042
4136	64.7594
4120	64.7129
4104	65.0998
4088	64.9487
4072	65.0106
4056	64.7945
4040	64.9705
4024	64.9523
4008	65.1179
3992	64.8252
3976	64.7907
3960	64.889
3944	64.9611
3928	64.8802
3912	65.0227
3896	65.0533
3880	64.9163
3864	65.0923
3848	64.9017
3832	65.0168
3816	65.0744
3800	65.0796
3784	65.041
3768	65.0061
3752	65.1317
3736	65.1568
3720	65.1669
3704	65.0455
3688	65.2761
3672	65.2784
3656	65.1364
3640	65.1656
3624	64.9306
3608	65.1459
3592	64.8294
3576	65.0119
3560	65.05
3544	64.9365
3528	64.965
3512	65.1262
3496	65.0943
3480	64.9091
3464	65.0371
3448	65.0253
3432	64.9752
3416	65.0416
3400	65.082
3384	64.9014
3368	64.9914
3352	65.0041
3336	65.0984
3320	65.0311
3304	65.0545
3288	64.9415
3272	64.9833
3256	64.8874
3240	65.1586
3224	65.028
3208	65.0369
3192	65.0281
3176	65.0259
3160	65.0503
3144	65.0706
3128	64.9214
3112	64.9014
3096	64.9582
3080	64.8767
3064	65.0407
3048	64.9101
3032	64.8915
3016	64.9368
3000	64.9362
2984	64.722
2968	64.8993
2952	64.7091
2936	64.7438
2920	64.9436
2904	64.7369
2888	64.754
2872	64.8299
2856	64.8674
2840	64.8335
2824	64.8121
2808	64.9566
2792	64.8763
2776	64.9162
2760	64.8899
2744	64.8172
2728	64.9593
2712	64.9565
2696	64.752
2680	64.9425
2664	64.768
2648	64.7782
2632	64.7246
2616	64.8596
2600	64.6883
2584	64.6977
2568	64.7419
2552	64.662
2536	64.8066
2520	64.793
2504	64.6461
2488	64.738
2472	64.7346
2456	64.787
2440	64.6667
2424	64.695
2408	64.7865
2392	64.5661
2376	64.6664
2360	64.6185
2344	64.6728
2328	64.6869
2312	64.628
2296	64.559
2280	64.6298
2264	64.6867
2248	64.5631
2232	64.5404
2216	64.6158
2200	64.4579
2184	64.6137
2168	64.5735
2152	64.4156
2136	64.5731
2120	64.4606
2104	64.5992
2088	64.5192
2072	64.5648
2056	64.481
2040	64.3305
2024	64.361
2008	64.4965
1992	64.32
1976	64.4276
1960	64.4254
1944	64.3506
1928	64.2865
1912	64.2769
1896	64.2669
1880	64.34
1864	64.2987
1848	64.2844
1832	64.2686
1816	64.2229
1800	64.1634
1784	64.1719
1768	64.2892
1752	64.0387
1736	63.818
1720	64.0598
1704	64.039
1688	64.0746
1672	64.0188
1656	63.9849
1640	63.9657
1624	64.2251
1608	63.97
1592	63.9546
1576	63.9405
1560	63.902
1544	63.8666
1528	63.8574
1512	64.0053
1496	63.8094
1480	63.9578
1464	63.7833
1448	63.8636
1432	63.8991
1416	63.8244
1400	63.7595
1384	63.6855
1368	63.6799
1352	63.6709
1336	63.8099
1320	63.7725
1304	63.8253
1288	63.6341
1272	63.546
1256	63.5787
1240	63.6214
1224	63.5448
1208	63.6782
1192	63.6225
1176	63.4532
1160	63.4306
1144	63.5206
1128	63.4595
1112	63.5244
1096	63.3316
1080	63.4691
1064	63.5317
1048	63.6328
1032	63.349
1016	63.3161
1000	63.4547
984	 63.6541
968	 63.4613
952	 63.3725
936	 63.3271
920	 63.6259
904	 63.5093
888	 63.6276
872	 63.5467
856	 63.3324
840	 63.4939
824	 63.3326
808	 63.3351
792	 62.9487
776	 64.1732
760	 63.2022
744	 62.5799
728	 63.5576
712	 62.6012
696	 63.2402
680	 63.2578
664	 62.7122
648	 62.412
632	 62.2699
616	 63.0677
600	 63.2734
584	 62.6662
568	 63.6499
552	 62.9394
536	 62.9442
520	 63.0105
504	 62.5583
488	 63.419
472	 61.7681
456	 61.7528
440	 62.2873
424	 63.2277
408	 60.8751
392	 54.465
376	 56.771
370	 32.2752