File: Bakgrunnsmateriale/MATLAB/FTIR/ftir_data/subAa/Mapping_121/BZ1503107-1_t78.asc
PE IR       SPECTRUM    SPECTRUM    ASCII       PEDS        1.60
  -1
BZ296F~1.ASC
17/04/07
19:39:28.00
17/04/07
19:39:54.00
tln
$BZ1503107-1_t0078$<tbV0>[13.0,5.2,8.0,0.0,27,1,0]
27.028
64

2002,4.07
MIRTGS : RIGHTBACK : INTERNAL 2
MIR : ON : INTERNAL 2
OPTKBR

0.200000
8
8.000000
FILLER
RATIO
SPECTRUM
UNLOCKED 256

DOUBLE
64
COMBINED
1
0
0

0.002000
RATIO

1
0
TRUE
51149
0
LEFT NOT FITTED RIGHT NOT FITTED 0
NONE
NONE
15600
12
4.427000
51148
TRUE
1 0 8 72 0 0 0 0

15798

#HDR
-1
-1
#GR
µM
%T
2.38419e-05
0.0
2.000000
0.002000
12515
8
80.0942
57.0821
#DATA
2.000000	 61.636
2.084000	 60.0886
2.168000	 60.5466
2.252000	 59.7207
2.336000	 61.0715
2.420000	 61.4147
2.504000	 61.2379
2.588000	 61.7396
2.672000	 61.8185
2.756000	 62.0172
2.840000	 61.943
2.924000	 62.1087
3.008000	 62.3679
3.092000	 62.423
3.176000	 62.5838
3.260000	 62.4641
3.344000	 62.5182
3.428000	 62.5018
3.512000	 62.5859
3.596000	 62.7952
3.680000	 62.7522
3.764000	 62.7551
3.848000	 62.7892
3.932000	 62.7831
4.016000	 62.9713
4.100000	 62.9903
4.184000	 62.9887
4.268000	 62.9199
4.352000	 63.0018
4.436000	 63.093
4.520000	 63.0198
4.604000	 63.0027
4.688000	 63.065
4.772000	 63.0457
4.856000	 63.0939
4.940000	 63.1596
5.024000	 63.068
5.108000	 63.1706
5.192000	 63.105
5.276000	 63.1392
5.359999	 63.1535
5.444000	 63.1011
5.528000	 63.195
5.612000	 63.1602
5.696000	 63.1059
5.780000	 62.9182
5.864000	 63.1329
5.948000	 63.1982
6.032000	 63.207
6.116000	 62.9038
6.200000	 63.1709
6.284000	 63.1115
6.368000	 63.1962
6.452000	 63.0881
6.536000	 63.2215
6.620000	 63.3577
6.704000	 63.2105
6.788000	 63.1447
6.872000	 63.0229
6.956000	 63.021
7.040000	 63.1717
7.124000	 63.092
7.208000	 63.1051
7.292000	 63.0744
7.376000	 63.0623
7.460000	 63.1542
7.544000	 63.2363
7.628000	 63.0944
7.712000	 63.2145
7.796000	 63.0117
7.880000	 63.0014
7.964000	 63.0489
8.048000	 63.1019
8.132000	 63.0653
8.216000	 63.0654
8.300000	 63.0456
8.384000	 63.1489
8.468000	 63.0904
8.552000	 62.9155
8.635999	 63.0881
8.719999	 63.1589
8.804000	 63.0442
8.888000	 63.0906
8.972000	 62.9724
9.056000	 62.8687
9.140000	 63.0112
9.224000	 63.174
9.308000	 63.0393
9.391999	 63.2035
9.475999	 63.1149
9.560000	 63.2439
9.644000	 63.0821
9.728000	 63.1719
9.812000	 63.0816
9.896000	 63.0356
9.980000	 63.1759
10.064	63.0905
10.148	63.2459
10.232	63.3777
10.316	63.17
10.4	63.1177
10.484	63.3476
10.568	63.3045
10.652	63.1826
10.736	63.1117
10.82	63.1601
10.904	63.0769
10.988	63.2219
11.072	63.026
11.156	63.0258
11.24	63.1519
11.324	63.2184
11.408	63.1558
11.492	63.198
11.576	62.8256
11.66	62.7012
11.744	62.9513
11.828	63.0892
11.912	63.0369
11.996	62.8618
12.08	62.9565
12.164	63.1018
12.248	63.0376
12.332	62.9485
12.416	62.9881
12.5	62.9355
12.584	63.0508
12.668	63.1107
12.752	63.001
12.836	63.2159
12.92	63.2922
13.004	62.9858
13.088	62.7318
13.172	62.7099
13.256	62.9339
13.34	63.1226
13.424	62.9667
13.508	62.8566
13.592	62.9443
13.676	62.8408
13.76	62.682
13.844	62.7547
13.928	62.9985
14.012	63.1167
14.096	62.9037
14.18	62.6135
14.264	62.5306
14.348	62.6011
14.432	62.9022
14.516	63.2196
14.6	63.353
14.684	63.4824
14.768	63.4008
14.852	63.0983
14.936	62.7425
15.02	62.4682
15.104	62.7095
15.188	63.1005
15.272	62.9323
15.356	62.5097
15.44	62.265
15.524	62.1498
15.608	62.1364
15.692	62.1773
15.776	62.1747
15.86	62.229
15.944	62.4657
16.028	62.8198
16.112	63.2216
16.196	63.6802
16.28	64.0037
16.364	63.8271
16.448	63.1544
16.532	62.5245
16.616	62.3214
16.7	62.4814
16.784	62.8878
16.868	63.3408
16.952	63.4768
17.036	63.1487
17.12	62.5843
17.204	62.1285
17.288	62.069
17.372	62.3457
17.456	62.4977
17.54	62.2716
17.624	61.9699
17.708	61.97
17.792	62.2952
17.876	62.7489
17.96	63.1464
18.044	63.3926
18.128	63.5417
18.212	63.6288
18.296	63.4747
18.38	62.9086
18.464	62.1186
18.548	61.5309
18.632	61.3658
18.716	61.4781
18.8	61.6294
18.884	61.7476
18.968	61.8869
19.052	62.0871
19.136	62.3025
19.22	62.4507
19.304	62.4986
19.388	62.4961
19.472	62.5363
19.556	62.6801
19.64	62.917
19.724	63.1687
19.808	63.3405
19.892	63.3662
19.976	63.2513
20.06	63.0864
20.144	62.9874
20.228	63.0046
20.312	63.0829
20.396	63.1221
20.48	63.0881
20.564	63.051
20.648	63.1122
20.732	63.2894
20.816	63.4861
20.9	63.566
20.984	63.4574
21.068	63.2027
21.152	62.918
21.236	62.7069
21.32	62.5989
21.404	62.5555
21.488	62.5291
21.572	62.5046
21.656	62.4917
21.74	62.4846
21.824	62.4432
21.908	62.3235
21.992	62.129
22.076	61.9306
22.16	61.8407
22.244	61.9342
22.328	62.1965
22.412	62.526
22.496	62.7907
22.58	62.9011
22.664	62.8391
22.748	62.654
22.832	62.4059
22.916	62.136
23	61.8658
23.084	61.6124
23.168	61.4224
23.252	61.3646
23.336	61.4987
23.42	61.8428
23.504	62.3447
23.588	62.8955
23.672	63.3868
23.756	63.7623
23.84	64.044
23.924	64.326
24.008	64.7047
24.092	65.2057
24.176	65.7559
24.26	66.2053
24.344	66.3778
24.428	66.1638
24.512	65.5575
24.596	64.6499
24.68	63.5776
24.764	62.4675
24.848	61.3967
24.932	60.385
25.016	59.4263
25.1	58.5613
25.184	57.8718
25.268	57.4696
25.352	57.4713
25.436	57.9594
25.52	58.9023
25.604	60.1375
25.688	61.4766
25.772	62.7264
25.856	63.7
25.94	64.2634
26.024	64.3416
26.108	63.9335
26.192	63.0784
26.276	61.8765
26.36	60.5402
26.444	59.2914
26.528	58.3576
26.612	57.9408
26.696	58.2987
26.78	59.7145
26.864	62.3964
26.948	66.3666
27.028	71.1083