File: Bakgrunnsmateriale/MATLAB/FTIR/ftir_data/subAa/Mapping_121/BZ1503107-1_t85_cm-1.asc
PE IR       SPECTRUM    SPECTRUM    ASCII       PEDS        1.60
  -1
BZ6D26~1.ASC
17/04/07
20:11:48.00
17/04/07
20:11:48.00
tln
$BZ1503107-1_t0085$<tbV0>[-5.2,5.2,8.0,0.0,27,1,0]
370
64

2002,4.07
MIRTGS : RIGHTBACK : INTERNAL 2
MIR : ON : INTERNAL 2
OPTKBR

0.200000
8
8.000000
FILLER
RATIO
SPECTRUM
UNLOCKED 256

DOUBLE
64
COMBINED
1
0
0

1.000000
RATIO

1
0
TRUE
51149
0
LEFT NOT FITTED RIGHT NOT FITTED 0
NONE
NONE
15600
12
4.427000
51148
TRUE
1 0 8 72 0 0 0 0

15798

#HDR
-1
-1
#GR
CM-1
%T
2.38419e-05
0.0
5000
-1.000000
4631
8
77.3607
59.6641
#DATA
5000	64.6811
4984	63.7343
4968	65.1405
4952	63.0525
4936	63.5571
4920	64.3447
4904	64.9197
4888	64.8566
4872	65.0995
4856	64.5039
4840	64.4694
4824	64.8835
4808	64.5991
4792	64.7655
4776	64.8268
4760	64.9699
4744	64.5263
4728	64.9274
4712	64.68
4696	65.0257
4680	64.6873
4664	64.7335
4648	64.9995
4632	64.9666
4616	64.843
4600	64.9855
4584	64.4807
4568	64.8114
4552	64.8979
4536	64.7531
4520	64.5993
4504	64.7583
4488	64.4312
4472	64.2241
4456	64.8355
4440	67.9535
4424	65.6701
4408	67.5043
4392	64.2926
4376	64.4881
4360	65.3414
4344	65.0543
4328	64.8117
4312	64.7619
4296	65.0584
4280	64.9303
4264	64.9063
4248	64.7004
4232	64.5801
4216	64.7298
4200	64.8122
4184	64.5135
4168	64.7831
4152	65.0218
4136	64.7031
4120	64.7856
4104	65.1423
4088	65.0213
4072	64.9163
4056	64.8915
4040	64.9522
4024	64.9941
4008	65.0366
3992	64.8432
3976	65.1966
3960	64.7087
3944	64.5374
3928	64.7791
3912	64.7897
3896	64.9777
3880	64.9197
3864	64.9691
3848	64.7747
3832	64.9296
3816	64.891
3800	64.9713
3784	64.9041
3768	64.9964
3752	64.9136
3736	65.1447
3720	65.0624
3704	65.2048
3688	64.931
3672	65.0497
3656	65.0852
3640	65.0061
3624	64.8891
3608	65.0561
3592	65.0093
3576	64.9575
3560	64.8424
3544	65.0109
3528	64.9453
3512	64.771
3496	64.849
3480	64.8862
3464	64.9473
3448	65.0773
3432	64.7898
3416	65.055
3400	64.9438
3384	64.9387
3368	64.9936
3352	64.9217
3336	65.0161
3320	64.9231
3304	64.9714
3288	64.8771
3272	64.9129
3256	64.8774
3240	64.8395
3224	64.955
3208	65.0135
3192	64.7711
3176	64.9977
3160	65.0208
3144	64.8675
3128	64.8729
3112	64.9652
3096	64.8344
3080	64.8494
3064	64.8658
3048	64.9818
3032	64.7415
3016	64.9434
3000	64.7698
2984	64.7671
2968	64.7667
2952	64.634
2936	64.7879
2920	64.7447
2904	64.8168
2888	64.7853
2872	64.7746
2856	64.7939
2840	64.7808
2824	64.756
2808	64.886
2792	64.7407
2776	64.7999
2760	64.8749
2744	64.7497
2728	64.8255
2712	64.7683
2696	64.6517
2680	64.7695
2664	64.6566
2648	64.7167
2632	64.676
2616	64.7441
2600	64.7655
2584	64.6769
2568	64.6505
2552	64.5406
2536	64.6592
2520	64.7625
2504	64.6109
2488	64.6307
2472	64.6296
2456	64.6672
2440	64.6582
2424	64.5679
2408	64.6572
2392	64.5974
2376	64.5342
2360	64.5452
2344	64.4028
2328	64.5572
2312	64.5813
2296	64.4702
2280	64.4989
2264	64.4377
2248	64.4214
2232	64.4532
2216	64.3424
2200	64.4582
2184	64.3963
2168	64.3557
2152	64.4574
2136	64.4703
2120	64.3722
2104	64.3318
2088	64.4128
2072	64.3185
2056	64.2045
2040	64.342
2024	64.3285
2008	64.2283
1992	64.1393
1976	64.2841
1960	64.2536
1944	64.1646
1928	64.101
1912	64.2576
1896	64.1836
1880	64.2438
1864	64.086
1848	64.1749
1832	64.1336
1816	64.1982
1800	64.0169
1784	64.0582
1768	64.1089
1752	63.8402
1736	63.7844
1720	63.8546
1704	63.8397
1688	63.9676
1672	63.8597
1656	63.8779
1640	63.7953
1624	63.8968
1608	63.7733
1592	63.7506
1576	63.816
1560	63.7022
1544	63.862
1528	63.8736
1512	63.7559
1496	63.7408
1480	63.6487
1464	63.6331
1448	63.7267
1432	63.8455
1416	63.6648
1400	63.471
1384	63.6343
1368	63.4907
1352	63.4566
1336	63.5544
1320	63.5764
1304	63.4317
1288	63.4499
1272	63.2969
1256	63.3643
1240	63.3767
1224	63.3694
1208	63.3698
1192	63.4047
1176	63.2726
1160	63.2416
1144	63.2795
1128	63.248
1112	63.2941
1096	63.2293
1080	63.2703
1064	63.2427
1048	63.4585
1032	63.1392
1016	63.2105
1000	63.2434
984	 63.1858
968	 63.0649
952	 63.1918
936	 62.9792
920	 63.1036
904	 63.1186
888	 63.0668
872	 63.1167
856	 62.8851
840	 63.1377
824	 63.116
808	 62.8545
792	 62.8155
776	 62.9392
760	 62.9538
744	 62.478
728	 62.4569
712	 62.9045
696	 62.544
680	 63.1444
664	 62.5751
648	 62.089
632	 62.1414
616	 62.6631
600	 62.6051
584	 62.8986
568	 62.897
552	 61.9302
536	 61.6188
520	 63.9038
504	 62.6977
488	 62.8789
472	 62.5955
456	 62.0443
440	 61.6842
424	 64.3241
408	 61.6337
392	 65.6061
376	 64.4039
370	 68.4494