File: Bakgrunnsmateriale/MATLAB/FTIR/ftir_data/subAa/Mapping_121/BZ1503107-1_t62.asc
PE IR       SPECTRUM    SPECTRUM    ASCII       PEDS        1.60
  -1
BZ2151~1.ASC
17/04/07
18:18:13.00
17/04/07
18:18:39.00
tln
$BZ1503107-1_t0062$<tbV0>[-2.6,0.0,8.0,0.0,27,1,0]
27.028
64

2002,4.07
MIRTGS : RIGHTBACK : INTERNAL 2
MIR : ON : INTERNAL 2
OPTKBR

0.200000
8
8.000000
FILLER
RATIO
SPECTRUM
UNLOCKED 256

DOUBLE
64
COMBINED
1
0
0

0.002000
RATIO

1
0
TRUE
51149
0
LEFT NOT FITTED RIGHT NOT FITTED 0
NONE
NONE
15600
12
4.427000
51148
TRUE
1 0 8 72 0 0 0 0

15798

#HDR
-1
-1
#GR
µM
%T
2.38419e-05
0.0
2.000000
0.002000
12515
8
77.5
45.6467
#DATA
2.000000	 65.66
2.084000	 64.7456
2.168000	 64.6049
2.252000	 70.6082
2.336000	 64.8189
2.420000	 64.9321
2.504000	 65.0992
2.588000	 65.1343
2.672000	 65.1421
2.756000	 65.2088
2.840000	 65.114
2.924000	 65.0558
3.008000	 65.2294
3.092000	 64.9472
3.176000	 65.1343
3.260000	 64.9625
3.344000	 64.9359
3.428000	 65.0274
3.512000	 64.942
3.596000	 64.8838
3.680000	 64.8613
3.764000	 64.763
3.848000	 65.0078
3.932000	 64.8285
4.016000	 64.788
4.100000	 64.8721
4.184000	 64.7734
4.268000	 64.6966
4.352000	 64.7908
4.436000	 64.7526
4.520000	 64.5892
4.604000	 64.6198
4.688000	 64.5748
4.772000	 64.6181
4.856000	 64.5739
4.940000	 64.5265
5.024000	 64.5945
5.108000	 64.3227
5.192000	 64.444
5.276000	 64.4526
5.359999	 64.3465
5.444000	 64.4424
5.528000	 64.4566
5.612000	 64.2599
5.696000	 64.2212
5.780000	 64.0614
5.864000	 64.2197
5.948000	 64.0747
6.032000	 64.2252
6.116000	 64.1539
6.200000	 64.115
6.284000	 64.1052
6.368000	 64.0977
6.452000	 64.1188
6.536000	 64.0614
6.620000	 64.0218
6.704000	 64.1383
6.788000	 64.007
6.872000	 63.991
6.956000	 63.9693
7.040000	 64.1346
7.124000	 63.9285
7.208000	 64.0286
7.292000	 63.9357
7.376000	 63.9927
7.460000	 63.8794
7.544000	 63.8952
7.628000	 63.7955
7.712000	 63.9928
7.796000	 63.8928
7.880000	 63.8222
7.964000	 63.8265
8.048000	 63.8252
8.132000	 63.8017
8.216000	 63.7742
8.300000	 63.8109
8.384000	 63.6212
8.468000	 63.8192
8.552000	 63.8384
8.635999	 63.6114
8.719999	 63.6669
8.804000	 63.6226
8.888000	 63.6248
8.972000	 63.646
9.056000	 63.7595
9.140000	 63.7695
9.224000	 63.707
9.308000	 63.6709
9.391999	 63.6834
9.475999	 63.5972
9.560000	 63.7365
9.644000	 63.5519
9.728000	 63.5733
9.812000	 63.6626
9.896000	 63.6522
9.980000	 63.6497
10.064	63.7238
10.148	63.7251
10.232	63.7581
10.316	63.7011
10.4	63.5338
10.484	63.4249
10.568	63.4612
10.652	63.3504
10.736	63.5079
10.82	63.6111
10.904	63.6223
10.988	63.6239
11.072	63.6232
11.156	63.4744
11.24	63.3903
11.324	63.5867
11.408	63.6091
11.492	63.5757
11.576	63.688
11.66	63.5304
11.744	63.369
11.828	63.5207
11.912	63.6006
11.996	63.5543
12.08	63.5346
12.164	63.3795
12.248	63.4935
12.332	63.6262
12.416	63.5807
12.5	63.3908
12.584	63.3236
12.668	63.2736
12.752	63.305
12.836	63.4726
12.92	63.4811
13.004	63.5801
13.088	63.6267
13.172	63.4053
13.256	63.135
13.34	63.144
13.424	63.3014
13.508	63.3646
13.592	63.2913
13.676	63.2034
13.76	63.2976
13.844	63.3839
13.928	63.3263
14.012	63.2411
14.096	63.0964
14.18	63.0183
14.264	63.098
14.348	63.1351
14.432	63.1265
14.516	63.2451
14.6	63.2658
14.684	63.3097
14.768	63.4196
14.852	63.2417
14.936	63.0904
15.02	63.1489
15.104	63.2065
15.188	63.3508
15.272	63.4078
15.356	63.2755
15.44	63.3098
15.524	63.4617
15.608	63.457
15.692	63.336
15.776	63.1274
15.86	62.8857
15.944	62.912
16.028	63.3905
16.112	63.8927
16.196	63.7144
16.28	62.9555
16.364	62.5929
16.448	63.1219
16.532	63.9418
16.616	64.3225
16.7	64.2924
16.784	64.2905
16.868	64.3521
16.952	64.1562
17.036	63.7632
17.12	63.5602
17.204	63.404
17.288	62.7683
17.372	61.8161
17.456	61.3909
17.54	61.8416
17.624	62.5911
17.708	63.0133
17.792	63.1197
17.876	63.2653
17.96	63.5391
18.044	63.7371
18.128	63.7432
18.212	63.6716
18.296	63.6042
18.38	63.4216
18.464	63.0079
18.548	62.5195
18.632	62.3025
18.716	62.5647
18.8	63.1949
18.884	63.8734
18.968	64.2857
19.052	64.269
19.136	63.8594
19.22	63.2642
19.304	62.7564
19.388	62.513
19.472	62.5268
19.556	62.6688
19.64	62.8215
19.724	62.9416
19.808	63.0378
19.892	63.1273
19.976	63.213
20.06	63.267
20.144	63.2353
20.228	63.0766
20.312	62.8159
20.396	62.5535
20.48	62.3888
20.564	62.3495
20.648	62.3928
20.732	62.4625
20.816	62.5274
20.9	62.5814
20.984	62.6407
21.068	62.7315
21.152	62.8691
21.236	63.0391
21.32	63.204
21.404	63.3283
21.488	63.4073
21.572	63.4649
21.656	63.5174
21.74	63.5502
21.824	63.5289
21.908	63.4365
21.992	63.297
22.076	63.1607
22.16	63.074
22.244	63.0554
22.328	63.0868
22.412	63.1233
22.496	63.1075
22.58	62.9996
22.664	62.7988
22.748	62.5566
22.832	62.3526
22.916	62.2604
23	62.3098
23.084	62.4616
23.168	62.6127
23.252	62.6588
23.336	62.5403
23.42	62.2778
23.504	61.9583
23.588	61.6868
23.672	61.5266
23.756	61.4741
23.84	61.4824
23.924	61.503
24.008	61.5375
24.092	61.6401
24.176	61.8533
24.26	62.1555
24.344	62.4256
24.428	62.4968
24.512	62.2332
24.596	61.6449
24.68	60.907
24.764	60.2962
24.848	60.0504
24.932	60.3045
25.016	61.0135
25.1	61.953
25.184	62.8351
25.268	63.4381
25.352	63.6612
25.436	63.5072
25.52	63.0317
25.604	62.2739
25.688	61.2441
25.772	59.9444
25.856	58.4122
25.94	56.6986
26.024	54.9235
26.108	53.2958
26.192	52.1555
26.276	51.8561
26.36	52.6488
26.444	54.4391
26.528	56.7236
26.612	58.6905
26.696	59.4571
26.78	58.3769
26.864	55.3119
26.948	50.6865
27.028	45.6467