File: Bakgrunnsmateriale/MATLAB/FTIR/ftir_data/subAa/Mapping_121/BZ1503107-1_e125.asc
PE IR       SPECTRUM    SPECTRUM    ASCII       PEDS        1.60
  -1
BZD0A6~1.ASC
17/04/07
18:42:25.00
17/04/07
18:42:52.00
tln
$BZ1503107-1_e0125$<ebV0>[-23.3,12.1,10.0,0.0,27,1,0]
27.028
64

2002,4.07
MIRTGS : RIGHTBACK : INTERNAL 2
MIR : ON : INTERNAL 2
OPTKBR

0.200000
8
8.000000
FILLER
SINGLE
SPECTRUM
UNLOCKED 256

DOUBLE

COMBINED
1
0
0

0.002000
BACKG

1
0
TRUE
51149
0
LEFT NOT FITTED RIGHT NOT FITTED 0
NONE
NONE
15600
12
4.427000
51148
TRUE
1 0 8 72 0 0 0 0

15798

#HDR
-1
-1
#GR
µM
EGY
2.38419e-05
0.0
2.000000
0.002000
12515
8
2.468705
0.006961
#DATA
2.000000	 0.774884
2.084000	 0.880524
2.168000	 0.938315
2.252000	 1.009272
2.336000	 1.150717
2.420000	 1.246185
2.504000	 1.409651
2.588000	 1.459806
2.672000	 1.563355
2.756000	 1.587493
2.840000	 1.638518
2.924000	 1.599125
3.008000	 1.698819
3.092000	 1.794493
3.176000	 1.824071
3.260000	 1.944371
3.344000	 2.043910
3.428000	 1.849339
3.512000	 2.026942
3.596000	 2.229223
3.680000	 2.266610
3.764000	 2.232962
3.848000	 2.239630
3.932000	 2.308493
4.016000	 2.337913
4.100000	 2.299070
4.184000	 2.262289
4.268000	 2.274651
4.352000	 2.354909
4.436000	 2.388216
4.520000	 2.378165
4.604000	 2.349532
4.688000	 2.342456
4.772000	 2.347970
4.856000	 2.395629
4.940000	 2.451644
5.024000	 2.467381
5.108000	 2.437169
5.192000	 2.410630
5.276000	 2.381312
5.359999	 2.389460
5.444000	 2.415435
5.528000	 2.437709
5.612000	 2.437293
5.696000	 2.405485
5.780000	 2.331729
5.864000	 2.289666
5.948000	 2.246174
6.032000	 2.198743
6.116000	 2.147734
6.200000	 2.012276
6.284000	 2.024277
6.368000	 1.986380
6.452000	 1.964643
6.536000	 2.104527
6.620000	 2.087232
6.704000	 1.695954
6.788000	 1.979385
6.872000	 1.794942
6.956000	 1.867599
7.040000	 1.859256
7.124000	 1.732180
7.208000	 1.790709
7.292000	 1.818508
7.376000	 1.822129
7.460000	 1.819139
7.544000	 1.850157
7.628000	 1.859417
7.712000	 1.859729
7.796000	 1.855536
7.880000	 1.777805
7.964000	 1.763993
8.048000	 1.837894
8.132000	 1.829170
8.216000	 1.789400
8.300000	 1.747454
8.384000	 1.743001
8.468000	 1.716403
8.552000	 1.676583
8.635999	 1.624788
8.719999	 1.604867
8.804000	 1.575254
8.888000	 1.527991
8.972000	 1.471890
9.056000	 1.434546
9.140000	 1.426727
9.224000	 1.430095
9.308000	 1.430399
9.391999	 1.436709
9.475999	 1.359241
9.560000	 1.326038
9.644000	 1.387416
9.728000	 1.370727
9.812000	 1.363808
9.896000	 1.383423
9.980000	 1.398129
10.064	1.399974
10.148	1.386203
10.232	1.369063
10.316	1.349494
10.4	1.320486
10.484	1.293695
10.568	1.273372
10.652	1.258305
10.736	1.243376
10.82	1.225604
10.904	1.207297
10.988	1.178845
11.072	1.161138
11.156	1.152497
11.24	1.130597
11.324	1.077894
11.408	1.031791
11.492	1.045836
11.576	1.085271
11.66	1.095621
11.744	1.088985
11.828	1.078642
11.912	1.057576
11.996	0.993203
12.08	0.882221
12.164	0.850856
12.248	0.914440
12.332	0.948775
12.416	0.948768
12.5	0.947213
12.584	0.956028
12.668	0.969484
12.752	0.978917
12.836	0.978867
12.92	0.975701
13.004	0.973626
13.088	0.970245
13.172	0.965361
13.256	0.959143
13.34	0.952594
13.424	0.945556
13.508	0.936933
13.592	0.926397
13.676	0.914727
13.76	0.902198
13.844	0.889167
13.928	0.875521
14.012	0.861733
14.096	0.849945
14.18	0.838417
14.264	0.822227
14.348	0.800002
14.432	0.769123
14.516	0.738760
14.6	0.727629
14.684	0.729910
14.768	0.729238
14.852	0.724418
14.936	0.719272
15.02	0.713387
15.104	0.703780
15.188	0.692921
15.272	0.684771
15.356	0.676982
15.44	0.667559
15.524	0.658369
15.608	0.651106
15.692	0.643793
15.776	0.633678
15.86	0.622541
15.944	0.613888
16.028	0.606571
16.112	0.596729
16.196	0.583379
16.28	0.567340
16.364	0.549671
16.448	0.533620
16.532	0.523428
16.616	0.520850
16.7	0.522937
16.784	0.524711
16.868	0.523287
16.952	0.519313
17.036	0.514638
17.12	0.510149
17.204	0.505910
17.288	0.502137
17.372	0.499064
17.456	0.496408
17.54	0.493862
17.624	0.491025
17.708	0.487521
17.792	0.483358
17.876	0.478813
17.96	0.474157
18.044	0.469500
18.128	0.464887
18.212	0.460352
18.296	0.455963
18.38	0.451591
18.464	0.447293
18.548	0.443059
18.632	0.438736
18.716	0.434091
18.8	0.428988
18.884	0.423523
18.968	0.417684
19.052	0.411596
19.136	0.405545
19.22	0.399850
19.304	0.394691
19.388	0.389822
19.472	0.384949
19.556	0.380029
19.64	0.374952
19.724	0.369611
19.808	0.363903
19.892	0.357689
19.976	0.350814
20.06	0.343321
20.144	0.335311
20.228	0.327213
20.312	0.319455
20.396	0.312023
20.48	0.304824
20.564	0.297634
20.648	0.290436
20.732	0.283390
20.816	0.276666
20.9	0.270529
20.984	0.264960
21.068	0.259781
21.152	0.254778
21.236	0.249698
21.32	0.244296
21.404	0.238387
21.488	0.231991
21.572	0.225221
21.656	0.218318
21.74	0.211406
21.824	0.204624
21.908	0.198046
21.992	0.191634
22.076	0.185518
22.16	0.179760
22.244	0.174516
22.328	0.169834
22.412	0.165632
22.496	0.161667
22.58	0.157728
22.664	0.153513
22.748	0.148989
22.832	0.144188
22.916	0.139297
23	0.134424
23.084	0.129621
23.168	0.124711
23.252	0.119635
23.336	0.114352
23.42	0.108881
23.504	0.103426
23.588	0.098209
23.672	0.093337
23.756	0.088845
23.84	0.084670
23.924	0.080678
24.008	0.076762
24.092	0.072872
24.176	0.068994
24.26	0.065184
24.344	0.061557
24.428	0.058129
24.512	0.054922
24.596	0.051936
24.68	0.049224
24.764	0.046699
24.848	0.044298
24.932	0.041974
25.016	0.039662
25.1	0.037369
25.184	0.035039
25.268	0.032808
25.352	0.030671
25.436	0.028698
25.52	0.026878
25.604	0.025191
25.688	0.023597
25.772	0.022074
25.856	0.020609
25.94	0.019227
26.024	0.017927
26.108	0.016735
26.192	0.015631
26.276	0.014641
26.36	0.013751
26.444	0.012891
26.528	0.012034
26.612	0.011126
26.696	0.010214
26.78	0.009298
26.864	0.008445
26.948	0.007637
27.028	0.006961