File: Bakgrunnsmateriale/MATLAB/FTIR/ftir_data/subAa/Mapping_121/BZ1503107-1_t114_cm-1.asc
PE IR       SPECTRUM    SPECTRUM    ASCII       PEDS        1.60
  -1
BZ4C7A~1.ASC
17/04/07
22:39:07.00
17/04/07
22:39:07.00
tln
$BZ1503107-1_t0114$<tbV0>[5.2,13.0,8.0,0.0,27,1,0]
370
64

2002,4.07
MIRTGS : RIGHTBACK : INTERNAL 2
MIR : ON : INTERNAL 2
OPTKBR

0.200000
8
8.000000
FILLER
RATIO
SPECTRUM
UNLOCKED 256

DOUBLE
64
COMBINED
1
0
0

1.000000
RATIO

1
0
TRUE
51149
0
LEFT NOT FITTED RIGHT NOT FITTED 0
NONE
NONE
15600
12
4.427000
51148
TRUE
1 0 8 72 0 0 0 0

15798

#HDR
-1
-1
#GR
CM-1
%T
2.38419e-05
0.0
5000
-1.000000
4631
8
80.7654
51.8996
#DATA
5000	65.7937
4984	65.8027
4968	64.5096
4952	65.4645
4936	65.0979
4920	65.1439
4904	65.2015
4888	64.7249
4872	64.6089
4856	64.7701
4840	64.6011
4824	64.6513
4808	64.474
4792	65.1124
4776	64.5913
4760	65.1232
4744	64.8158
4728	65.0722
4712	64.936
4696	64.9351
4680	64.6745
4664	65.1723
4648	64.9351
4632	64.9736
4616	65.2642
4600	64.7532
4584	65.0379
4568	65.1901
4552	64.779
4536	64.9041
4520	64.5263
4504	64.5731
4488	64.6223
4472	64.8349
4456	66.3769
4440	60.5383
4424	76.811
4408	66.1927
4392	64.3488
4376	65.2694
4360	65.0869
4344	64.9958
4328	64.7647
4312	64.672
4296	64.7466
4280	64.9136
4264	64.754
4248	64.7994
4232	64.806
4216	65.1571
4200	65.1184
4184	65.1353
4168	65.0245
4152	64.9363
4136	64.8544
4120	64.9709
4104	65.183
4088	65.0217
4072	65.1855
4056	65.173
4040	65.0558
4024	64.8662
4008	64.9819
3992	64.9405
3976	64.9971
3960	64.7043
3944	65.0997
3928	64.8672
3912	64.8999
3896	65.0028
3880	65.2478
3864	64.8823
3848	65.0059
3832	65.1317
3816	64.9807
3800	65.3401
3784	65.0133
3768	65.0789
3752	64.8148
3736	64.8492
3720	65.019
3704	65.0349
3688	65.0626
3672	65.0593
3656	65.1299
3640	65.1205
3624	65.0473
3608	65.116
3592	64.8766
3576	65.0642
3560	64.9785
3544	64.9154
3528	64.757
3512	65.0066
3496	64.9341
3480	64.9956
3464	64.9435
3448	64.9156
3432	64.9884
3416	65.1074
3400	64.937
3384	64.8307
3368	64.8517
3352	65.0548
3336	64.8978
3320	64.8086
3304	64.751
3288	64.8316
3272	64.769
3256	64.92
3240	64.7157
3224	64.7493
3208	64.9502
3192	64.9302
3176	64.8031
3160	64.7842
3144	64.8928
3128	64.7308
3112	64.9446
3096	64.8804
3080	64.8147
3064	64.9156
3048	64.7899
3032	64.8571
3016	64.6677
3000	64.7817
2984	64.6968
2968	64.6854
2952	64.5623
2936	64.523
2920	64.469
2904	64.4267
2888	64.7517
2872	64.5828
2856	64.6481
2840	64.6244
2824	64.5755
2808	64.6674
2792	64.6316
2776	64.6902
2760	64.6639
2744	64.5777
2728	64.684
2712	64.5514
2696	64.507
2680	64.5801
2664	64.5462
2648	64.5761
2632	64.5347
2616	64.5621
2600	64.52
2584	64.349
2568	64.4334
2552	64.4424
2536	64.4304
2520	64.5502
2504	64.4422
2488	64.4033
2472	64.4454
2456	64.4026
2440	64.3897
2424	64.3132
2408	64.2884
2392	64.4021
2376	64.4129
2360	64.428
2344	64.3159
2328	64.4088
2312	64.2205
2296	64.2244
2280	64.2955
2264	64.358
2248	64.21
2232	64.2624
2216	64.2421
2200	64.2288
2184	64.2262
2168	64.1813
2152	64.1644
2136	64.2443
2120	64.2092
2104	64.0761
2088	64.1917
2072	64.0146
2056	64.113
2040	63.995
2024	63.9542
2008	63.9388
1992	63.9039
1976	63.8501
1960	63.8506
1944	63.9703
1928	63.9164
1912	63.8528
1896	63.8209
1880	63.86
1864	63.8684
1848	63.7308
1832	63.8886
1816	63.717
1800	63.7908
1784	63.7737
1768	63.6518
1752	63.6372
1736	63.4488
1720	63.5254
1704	63.6049
1688	63.6265
1672	63.6056
1656	63.5838
1640	63.4944
1624	63.4241
1608	63.3044
1592	63.4226
1576	63.3882
1560	63.3991
1544	63.2969
1528	63.2495
1512	63.4473
1496	63.4214
1480	63.277
1464	63.233
1448	63.2037
1432	63.2033
1416	63.1767
1400	63.1121
1384	63.0282
1368	62.9786
1352	63.1209
1336	63.0756
1320	63.0045
1304	62.8762
1288	62.9489
1272	62.9299
1256	62.7968
1240	62.7341
1224	62.7908
1208	62.8058
1192	62.7259
1176	62.729
1160	62.7584
1144	62.6952
1128	62.762
1112	62.6611
1096	62.6996
1080	62.6908
1064	62.7228
1048	62.7981
1032	62.6144
1016	62.4594
1000	62.6688
984	 62.5776
968	 62.5996
952	 62.5034
936	 62.5666
920	 62.6751
904	 62.5491
888	 62.6621
872	 62.4471
856	 62.5425
840	 62.2651
824	 62.4982
808	 62.4101
792	 62.482
776	 61.9785
760	 62.2548
744	 62.2246
728	 62.1684
712	 61.9739
696	 61.7329
680	 62.0249
664	 61.9421
648	 61.6958
632	 61.5769
616	 61.747
600	 61.3587
584	 61.5592
568	 61.2666
552	 61.6994
536	 61.6609
520	 60.2532
504	 60.9842
488	 61.2443
472	 60.7872
456	 60.3475
440	 59.7401
424	 60.153
408	 58.0195
392	 61.9221
376	 74.0081
370	 67.2799