File: Bakgrunnsmateriale/MATLAB/FTIR/ftir_data/subAa/Mapping_121/BZ1503107-1_t78_cm-1.asc
PE IR       SPECTRUM    SPECTRUM    ASCII       PEDS        1.60
  -1
BZ60B6~1.ASC
17/04/07
19:39:28.00
17/04/07
19:39:28.00
tln
$BZ1503107-1_t0078$<tbV0>[13.0,5.2,8.0,0.0,27,1,0]
370
64

2002,4.07
MIRTGS : RIGHTBACK : INTERNAL 2
MIR : ON : INTERNAL 2
OPTKBR

0.200000
8
8.000000
FILLER
RATIO
SPECTRUM
UNLOCKED 256

DOUBLE
64
COMBINED
1
0
0

1.000000
RATIO

1
0
TRUE
51149
0
LEFT NOT FITTED RIGHT NOT FITTED 0
NONE
NONE
15600
12
4.427000
51148
TRUE
1 0 8 72 0 0 0 0

15798

#HDR
-1
-1
#GR
CM-1
%T
2.38419e-05
0.0
5000
-1.000000
4631
8
80.4742
57.0446
#DATA
5000	61.636
4984	59.5817
4968	59.1235
4952	60.4538
4936	59.5359
4920	60.1752
4904	60.1759
4888	60.468
4872	60.3962
4856	60.4356
4840	60.9913
4824	60.3983
4808	60.3674
4792	60.4263
4776	60.6512
4760	60.3881
4744	60.663
4728	60.845
4712	60.3474
4696	60.3579
4680	60.4348
4664	60.6687
4648	60.152
4632	60.8598
4616	60.6249
4600	60.6487
4584	60.4079
4568	60.2376
4552	60.1129
4536	60.4208
4520	60.7374
4504	60.5237
4488	60.6689
4472	60.1733
4456	58.6366
4440	60.5765
4424	59.3793
4408	62.3687
4392	60.0483
4376	60.342
4360	60.8972
4344	61.0152
4328	60.6093
4312	60.7449
4296	61.1566
4280	61.0729
4264	60.7126
4248	61.2732
4232	61.1856
4216	61.2482
4200	60.9633
4184	61.3079
4168	61.2857
4152	61.2511
4136	61.4649
4120	61.3238
4104	61.551
4088	61.455
4072	61.3939
4056	61.5997
4040	61.2722
4024	61.4537
4008	61.483
3992	61.2594
3976	61.467
3960	61.5071
3944	61.7805
3928	61.2603
3912	61.3668
3896	61.8275
3880	61.2942
3864	61.7399
3848	61.3721
3832	61.409
3816	61.6493
3800	61.7939
3784	61.8587
3768	61.5875
3752	61.7014
3736	61.8336
3720	61.8588
3704	62.0002
3688	61.954
3672	62.0035
3656	62.0445
3640	61.931
3624	61.8891
3608	62.0364
3592	62.1915
3576	61.9557
3560	61.9706
3544	62.0327
3528	62.0754
3512	61.9951
3496	61.9788
3480	61.9436
3464	62.1284
3448	62.3357
3432	61.9019
3416	62.0662
3400	62.1246
3384	62.1634
3368	62.3009
3352	62.1141
3336	62.2846
3320	62.2068
3304	62.4053
3288	62.1625
3272	62.2685
3256	62.2794
3240	62.2406
3224	62.413
3208	62.4866
3192	62.4723
3176	62.4753
3160	62.4692
3144	62.6188
3128	62.2959
3112	62.539
3096	62.4536
3080	62.3626
3064	62.5371
3048	62.6004
3032	62.3063
3016	62.5311
3000	62.533
2984	62.343
2968	62.4714
2952	62.4122
2936	62.4939
2920	62.4902
2904	62.5206
2888	62.5515
2872	62.5906
2856	62.5469
2840	62.5906
2824	62.6426
2808	62.7099
2792	62.674
2776	62.7514
2760	62.8689
2744	62.7763
2728	62.8273
2712	62.6888
2696	62.8057
2680	62.821
2664	62.7532
2648	62.7612
2632	62.7317
2616	62.8216
2600	62.7801
2584	62.7894
2568	62.8776
2552	62.7304
2536	62.8641
2520	63.0108
2504	63.0486
2488	62.9621
2472	63.0267
2456	63.0266
2440	63.0037
2424	62.9725
2408	62.9729
2392	63.005
2376	62.8921
2360	62.9586
2344	62.9003
2328	63.025
2312	63.1226
2296	62.9893
2280	63.0468
2264	63.1216
2248	63.0918
2232	63.1413
2216	63.059
2200	62.9857
2184	62.9957
2168	63.0558
2152	63.0829
2136	63.0356
2120	62.989
2104	63.1829
2088	63.0511
2072	63.0741
2056	63.1314
2040	63.186
2024	63.1592
2008	63.1417
1992	63.0438
1976	63.1776
1960	63.1774
1944	63.1212
1928	63.0842
1912	63.0792
1896	63.1403
1880	63.1531
1864	63.1611
1848	63.2285
1832	63.1026
1816	63.2326
1800	63.2124
1784	63.1662
1768	63.185
1752	62.9437
1736	62.8195
1720	62.9629
1704	63.1523
1688	63.2513
1672	63.0716
1656	63.182
1640	62.956
1624	63.163
1608	63.1204
1592	63.121
1576	63.3067
1560	63.1676
1544	63.1875
1528	63.2356
1512	63.3172
1496	63.1694
1480	63.2562
1464	63.0022
1448	63.1018
1432	63.1579
1416	63.1129
1400	63.0883
1384	63.0501
1368	63.0391
1352	63.0337
1336	63.1941
1320	63.1857
1304	63.1405
1288	63.0549
1272	63.04
1256	63.0423
1240	63.0959
1224	63.21
1208	63.0521
1192	63.1429
1176	62.9909
1160	63.0825
1144	63.094
1128	63.0888
1112	62.9502
1096	62.9485
1080	63.0472
1064	63.1993
1048	63.1903
1032	63.1266
1016	63.0451
1000	63.1363
984	 63.2986
968	 63.151
952	 63.3346
936	 63.1159
920	 63.0461
904	 63.0318
888	 63.1917
872	 63.2223
856	 62.75
840	 63.0478
824	 63.0753
808	 62.9737
792	 63.1239
776	 63.3214
760	 62.6949
744	 62.9221
728	 62.7096
712	 63.0697
696	 62.6499
680	 63.493
664	 62.5116
648	 62.2808
632	 62.1857
616	 63.865
600	 62.3836
584	 62.5624
568	 62.0188
552	 63.5226
536	 61.3825
520	 62.4623
504	 63.37
488	 63.0807
472	 62.8188
456	 62.2787
440	 62.7075
424	 62.8759
408	 65.5776
392	 58.7748
376	 57.9672
370	 71.1083