File: Bakgrunnsmateriale/MATLAB/FTIR/ftir_data/subAa/Mapping_121/BZ1503107-1_t88.asc
PE IR       SPECTRUM    SPECTRUM    ASCII       PEDS        1.60
  -1
BZ2965~1.ASC
17/04/07
20:25:39.00
17/04/07
20:26:06.00
tln
$BZ1503107-1_t0088$<tbV0>[-13.0,5.2,8.0,0.0,27,1,0]
27.028
64

2002,4.07
MIRTGS : RIGHTBACK : INTERNAL 2
MIR : ON : INTERNAL 2
OPTKBR

0.200000
8
8.000000
FILLER
RATIO
SPECTRUM
UNLOCKED 256

DOUBLE
64
COMBINED
1
0
0

0.002000
RATIO

1
0
TRUE
51149
0
LEFT NOT FITTED RIGHT NOT FITTED 0
NONE
NONE
15600
12
4.427000
51148
TRUE
1 0 8 72 0 0 0 0

15798

#HDR
-1
-1
#GR
µM
%T
2.38419e-05
0.0
2.000000
0.002000
12515
8
71.3338
43.6634
#DATA
2.000000	 64.2308
2.084000	 64.9865
2.168000	 65.3416
2.252000	 51.9178
2.336000	 65.3605
2.420000	 65.1967
2.504000	 65.123
2.588000	 65.2721
2.672000	 65.3468
2.756000	 65.1787
2.840000	 65.1935
2.924000	 65.1971
3.008000	 65.344
3.092000	 65.0995
3.176000	 65.1431
3.260000	 65.1723
3.344000	 65.0354
3.428000	 64.7855
3.512000	 64.945
3.596000	 65.0792
3.680000	 64.9862
3.764000	 64.9176
3.848000	 64.8968
3.932000	 64.7903
4.016000	 64.8106
4.100000	 64.7942
4.184000	 64.662
4.268000	 64.6015
4.352000	 64.5145
4.436000	 64.6651
4.520000	 64.6304
4.604000	 64.5388
4.688000	 64.655
4.772000	 64.5104
4.856000	 64.4929
4.940000	 64.3509
5.024000	 64.3721
5.108000	 64.4365
5.192000	 64.3363
5.276000	 64.3543
5.359999	 64.2826
5.444000	 64.2207
5.528000	 64.2382
5.612000	 64.1377
5.696000	 63.9299
5.780000	 63.1243
5.864000	 63.8556
5.948000	 64.0298
6.032000	 63.9532
6.116000	 63.94
6.200000	 64.0907
6.284000	 63.8927
6.368000	 63.9901
6.452000	 63.8255
6.536000	 64.0091
6.620000	 63.9171
6.704000	 63.9015
6.788000	 63.8138
6.872000	 63.6425
6.956000	 63.7313
7.040000	 63.6804
7.124000	 63.6022
7.208000	 63.6966
7.292000	 63.5784
7.376000	 63.6251
7.460000	 63.7327
7.544000	 63.7884
7.628000	 63.5083
7.712000	 63.5479
7.796000	 63.414
7.880000	 63.35
7.964000	 63.1927
8.048000	 63.2501
8.132000	 63.2187
8.216000	 63.3184
8.300000	 63.3909
8.384000	 63.3408
8.468000	 63.0676
8.552000	 62.9918
8.635999	 63.0948
8.719999	 63.2126
8.804000	 63.4025
8.888000	 63.2052
8.972000	 63.4355
9.056000	 63.2691
9.140000	 63.2506
9.224000	 63.2321
9.308000	 63.1851
9.391999	 63.2151
9.475999	 63.1914
9.560000	 63.2349
9.644000	 63.0924
9.728000	 63.0638
9.812000	 63.0225
9.896000	 63.1701
9.980000	 63.245
10.064	63.2138
10.148	63.2603
10.232	63.3537
10.316	63.2245
10.4	63.3373
10.484	63.1196
10.568	63.156
10.652	63.3696
10.736	63.425
10.82	63.4079
10.904	63.3233
10.988	63.2651
11.072	63.2575
11.156	63.1999
11.24	63.3279
11.324	63.4524
11.408	63.2405
11.492	63.2037
11.576	63.2258
11.66	63.2178
11.744	63.2398
11.828	63.2436
11.912	63.2148
11.996	63.2106
12.08	63.2246
12.164	63.0028
12.248	63.0539
12.332	63.063
12.416	63.027
12.5	62.907
12.584	62.9586
12.668	63.2233
12.752	63.2845
12.836	63.3375
12.92	63.3566
13.004	63.1948
13.088	63.036
13.172	63.0511
13.256	63.1823
13.34	63.2236
13.424	63.1077
13.508	63.038
13.592	62.9909
13.676	62.8592
13.76	62.7672
13.844	62.7543
13.928	62.933
14.012	63.2004
14.096	63.0982
14.18	62.857
14.264	62.8583
14.348	62.9439
14.432	63.0273
14.516	63.1233
14.6	63.2472
14.684	63.4205
14.768	63.5655
14.852	63.4908
14.936	63.1708
15.02	62.9316
15.104	63.018
15.188	63.1618
15.272	63.0769
15.356	62.9045
15.44	62.8044
15.524	62.6536
15.608	62.3632
15.692	62.1404
15.776	62.2266
15.86	62.4849
15.944	62.5681
16.028	62.4888
16.112	62.5615
16.196	62.8807
16.28	63.2144
16.364	63.3558
16.448	63.4127
16.532	63.5285
16.616	63.4655
16.7	62.9772
16.784	62.3844
16.868	62.1552
16.952	62.2202
17.036	62.2657
17.12	62.3115
17.204	62.5469
17.288	62.9153
17.372	63.1354
17.456	63.0331
17.54	62.754
17.624	62.6112
17.708	62.7402
17.792	62.9496
17.876	62.8831
17.96	62.4507
18.044	61.9975
18.128	61.9498
18.212	62.3269
18.296	62.7651
18.38	62.9501
18.464	62.9014
18.548	62.8218
18.632	62.8371
18.716	62.9275
18.8	63.0225
18.884	63.044
18.968	62.9021
19.052	62.5876
19.136	62.293
19.22	62.288
19.304	62.5589
19.388	62.7156
19.472	62.366
19.556	61.5542
19.64	60.7456
19.724	60.3804
19.808	60.5393
19.892	61.0233
19.976	61.6002
20.06	62.1219
20.144	62.4932
20.228	62.6715
20.312	62.7004
20.396	62.6901
20.48	62.7074
20.564	62.7217
20.648	62.678
20.732	62.5976
20.816	62.5535
20.9	62.5639
20.984	62.5448
21.068	62.3871
21.152	62.0591
21.236	61.6393
21.32	61.26
21.404	61.0119
21.488	60.8973
21.572	60.8767
21.656	60.938
21.74	61.1109
21.824	61.4184
21.908	61.8094
21.992	62.1486
22.076	62.2828
22.16	62.1361
22.244	61.7748
22.328	61.3582
22.412	61.0484
22.496	60.9397
22.58	61.0556
22.664	61.3948
22.748	61.9408
22.832	62.6315
22.916	63.3445
23	63.9072
23.084	64.1787
23.168	64.1332
23.252	63.8822
23.336	63.6069
23.42	63.4397
23.504	63.3976
23.588	63.3906
23.672	63.3101
23.756	63.1048
23.84	62.7984
23.924	62.4809
24.008	62.2619
24.092	62.2388
24.176	62.486
24.26	63.0276
24.344	63.8036
24.428	64.6611
24.512	65.3673
24.596	65.6604
24.68	65.357
24.764	64.4649
24.848	63.1678
24.932	61.7721
25.016	60.5838
25.1	59.8179
25.184	59.5414
25.268	59.686
25.352	60.145
25.436	60.8333
25.52	61.7104
25.604	62.7536
25.688	63.9444
25.772	65.2258
25.856	66.4668
25.94	67.4921
26.024	68.0565
26.108	67.8807
26.192	66.7454
26.276	64.5375
26.36	61.3155
26.444	57.2958
26.528	52.8916
26.612	48.6674
26.696	45.3616
26.78	43.7357
26.864	44.3946
26.948	47.521
27.028	52.3396