File: Bakgrunnsmateriale/MATLAB/FTIR/ftir_data/subAa/Mapping_121/BZ1503107-1_t06_cm-1.asc
PE IR       SPECTRUM    SPECTRUM    ASCII       PEDS        1.60
  -1
BZ6E22~1.ASC
17/04/07
13:43:34.00
17/04/07
13:43:34.00
tln
$BZ1503107-1_t0006$<tbV0>[0.0,-13.0,8.0,0.0,27,1,0]
370
64

2002,4.07
MIRTGS : RIGHTBACK : INTERNAL 2
MIR : ON : INTERNAL 2
OPTKBR

0.200000
8
8.000000
FILLER
RATIO
SPECTRUM
UNLOCKED 256

DOUBLE
64
COMBINED
1
0
0

1.000000
RATIO

1
0
TRUE
51149
0
LEFT NOT FITTED RIGHT NOT FITTED 0
NONE
NONE
15600
12
4.427000
51148
TRUE
1 0 8 72 0 0 0 0

15798

#HDR
-1
-1
#GR
CM-1
%T
2.38419e-05
0.0
5000
-1.000000
4631
8
78.7668
52.3367
#DATA
5000	64.7307
4984	64.4747
4968	64.0967
4952	64.5669
4936	64.2093
4920	65.328
4904	64.1276
4888	63.7361
4872	63.5329
4856	65.2987
4840	65.4148
4824	65.3202
4808	65.1033
4792	65.4801
4776	64.5944
4760	65.3755
4744	64.9937
4728	64.7607
4712	64.2035
4696	64.1336
4680	65.178
4664	64.7351
4648	64.5622
4632	64.5269
4616	64.3222
4600	64.6252
4584	64.3938
4568	63.974
4552	63.3775
4536	63.9848
4520	64.2065
4504	64.8994
4488	67.7638
4472	64.5159
4456	62.9543
4440	61.9055
4424	64.4914
4408	64.4689
4392	64.2915
4376	64.3399
4360	64.0641
4344	64.6709
4328	64.6295
4312	64.8507
4296	64.3812
4280	64.5954
4264	64.8306
4248	64.7901
4232	64.9467
4216	64.7103
4200	64.8937
4184	65.1336
4168	64.9564
4152	64.8157
4136	65.1678
4120	65.0396
4104	65.2834
4088	65.1543
4072	64.8781
4056	65.4899
4040	64.8151
4024	64.9801
4008	64.9634
3992	64.8968
3976	65.1341
3960	65.0541
3944	65.148
3928	64.8895
3912	64.9972
3896	65.1054
3880	64.8845
3864	65.0479
3848	65.1633
3832	65.1182
3816	65.0911
3800	65.0694
3784	65.0048
3768	65.1884
3752	65.2848
3736	65.2017
3720	65.144
3704	65.1953
3688	65.3297
3672	65.3532
3656	65.0736
3640	65.2663
3624	65.0492
3608	65.1108
3592	64.9964
3576	65.1368
3560	65.1184
3544	65.0257
3528	64.8752
3512	65.0547
3496	65.0221
3480	64.8821
3464	64.7402
3448	64.9577
3432	64.9159
3416	65.0744
3400	64.9232
3384	64.9393
3368	64.8383
3352	64.9472
3336	64.8749
3320	65.1584
3304	65.1008
3288	65.0959
3272	65.0699
3256	64.9467
3240	64.9043
3224	64.9552
3208	65.0929
3192	65.0334
3176	64.9314
3160	65.0377
3144	64.8219
3128	64.9345
3112	64.9283
3096	65.1125
3080	64.8635
3064	64.9365
3048	65.0113
3032	64.9705
3016	65.0075
3000	65.0982
2984	64.7926
2968	65.0293
2952	64.882
2936	64.8341
2920	64.873
2904	64.8384
2888	64.9431
2872	64.9634
2856	64.9726
2840	65.0192
2824	65.0424
2808	64.9204
2792	64.9578
2776	64.8928
2760	64.9911
2744	64.9766
2728	65.0288
2712	64.8657
2696	65.0063
2680	64.906
2664	65.0301
2648	64.9334
2632	64.8883
2616	64.9806
2600	64.9343
2584	65.085
2568	65.025
2552	64.9267
2536	64.9928
2520	64.9316
2504	64.9432
2488	64.9798
2472	65.007
2456	64.9593
2440	64.9013
2424	64.7954
2408	64.9395
2392	64.9114
2376	64.9504
2360	64.9764
2344	64.9696
2328	64.9415
2312	64.9444
2296	64.8778
2280	64.894
2264	64.9372
2248	64.8213
2232	64.8034
2216	64.843
2200	64.9132
2184	64.7076
2168	64.8027
2152	64.682
2136	64.7157
2120	64.8544
2104	64.79
2088	64.7487
2072	64.7092
2056	64.814
2040	64.7953
2024	64.8005
2008	64.8641
1992	64.7545
1976	64.8204
1960	64.803
1944	64.7228
1928	64.7787
1912	64.7381
1896	64.7596
1880	64.6929
1864	64.7363
1848	64.7423
1832	64.6584
1816	64.7866
1800	64.7284
1784	64.7355
1768	64.7644
1752	64.6287
1736	64.451
1720	64.614
1704	64.692
1688	64.5042
1672	64.6843
1656	64.6681
1640	64.6063
1624	64.6438
1608	64.559
1592	64.5453
1576	64.5263
1560	64.5898
1544	64.5252
1528	64.4295
1512	64.5881
1496	64.5335
1480	64.5112
1464	64.4599
1448	64.4543
1432	64.5935
1416	64.446
1400	64.367
1384	64.3682
1368	64.2881
1352	64.4454
1336	64.3605
1320	64.3349
1304	64.2137
1288	64.3589
1272	64.2085
1256	64.1829
1240	64.2459
1224	64.1975
1208	64.2908
1192	64.2593
1176	64.132
1160	64.0934
1144	64.2032
1128	64.2683
1112	64.1522
1096	64.3526
1080	64.3773
1064	64.1168
1048	64.138
1032	64.1916
1016	64.0919
1000	64.1849
984	 64.0996
968	 64.182
952	 64.2291
936	 64.2662
920	 64.141
904	 64.1699
888	 64.1441
872	 64.272
856	 64.2443
840	 64.0484
824	 64.0367
808	 64.2483
792	 64.1131
776	 64.161
760	 64.0608
744	 63.9101
728	 64.2081
712	 64.0523
696	 63.6834
680	 64.0939
664	 64.0066
648	 64.0924
632	 64.2508
616	 64.1613
600	 63.7625
584	 64.2649
568	 64.0346
552	 64.3771
536	 64.3969
520	 64.6219
504	 63.902
488	 63.9359
472	 66.7983
456	 63.7285
440	 57.5857
424	 62.1816
408	 67.7815
392	 65.0687
376	 71.197
370	 69.4775