File: Bakgrunnsmateriale/MATLAB/FTIR/ftir_data/subAa/Mapping_121/BZ1503107-1_t87_cm-1.asc
PE IR       SPECTRUM    SPECTRUM    ASCII       PEDS        1.60
  -1
BZ6F26~1.ASC
17/04/07
20:21:02.00
17/04/07
20:21:02.00
tln
$BZ1503107-1_t0087$<tbV0>[-10.4,5.2,8.0,0.0,27,1,0]
370
64

2002,4.07
MIRTGS : RIGHTBACK : INTERNAL 2
MIR : ON : INTERNAL 2
OPTKBR

0.200000
8
8.000000
FILLER
RATIO
SPECTRUM
UNLOCKED 256

DOUBLE
64
COMBINED
1
0
0

1.000000
RATIO

1
0
TRUE
51149
0
LEFT NOT FITTED RIGHT NOT FITTED 0
NONE
NONE
15600
12
4.427000
51148
TRUE
1 0 8 72 0 0 0 0

15798

#HDR
-1
-1
#GR
CM-1
%T
2.38419e-05
0.0
5000
-1.000000
4631
8
68.7953
40.6827
#DATA
5000	63.8935
4984	62.9336
4968	62.6187
4952	65.2469
4936	63.7153
4920	63.3294
4904	64.3044
4888	64.0434
4872	64.139
4856	63.9044
4840	63.6662
4824	64.0025
4808	63.4392
4792	63.635
4776	64.0563
4760	64.1846
4744	64.0926
4728	64.0759
4712	64.1117
4696	64.356
4680	64.1999
4664	63.9218
4648	64.1185
4632	64.0209
4616	64.1106
4600	64.2261
4584	64.2056
4568	63.8962
4552	63.9384
4536	64.0543
4520	63.95
4504	64.1617
4488	64.4672
4472	63.999
4456	62.9016
4440	63.8115
4424	64.4819
4408	66.4014
4392	63.2143
4376	63.4998
4360	64.6222
4344	63.989
4328	64.0966
4312	64.3121
4296	64.2313
4280	63.7756
4264	64.2774
4248	64.4091
4232	64.0282
4216	64.5771
4200	64.175
4184	63.9066
4168	64.1794
4152	63.9828
4136	63.9792
4120	64.319
4104	64.329
4088	64.4855
4072	64.3206
4056	64.4949
4040	64.2352
4024	64.5005
4008	64.4851
3992	64.2801
3976	64.3897
3960	64.2418
3944	64.2908
3928	64.1241
3912	64.3055
3896	64.382
3880	64.2043
3864	64.5104
3848	64.336
3832	64.1807
3816	64.2874
3800	64.4295
3784	64.6191
3768	64.3453
3752	64.2991
3736	64.5351
3720	64.2759
3704	64.5527
3688	64.4339
3672	64.5895
3656	64.417
3640	64.4539
3624	64.2429
3608	64.4267
3592	64.4977
3576	64.3253
3560	64.4964
3544	64.3581
3528	64.4324
3512	64.4156
3496	64.3703
3480	64.3149
3464	64.4947
3448	64.5254
3432	64.1521
3416	64.3693
3400	64.3421
3384	64.3268
3368	64.3862
3352	64.3716
3336	64.3599
3320	64.2514
3304	64.3513
3288	64.1424
3272	64.3198
3256	64.2424
3240	64.3264
3224	64.3758
3208	64.4129
3192	64.2391
3176	64.3402
3160	64.4576
3144	64.3386
3128	64.2533
3112	64.4083
3096	64.1989
3080	64.3513
3064	64.5297
3048	64.4501
3032	64.3823
3016	64.3
3000	64.1418
2984	64.2899
2968	64.0469
2952	64.0709
2936	64.16
2920	64.1518
2904	64.2969
2888	64.2405
2872	64.2101
2856	64.2724
2840	64.2497
2824	64.2412
2808	64.3411
2792	64.2745
2776	64.3112
2760	64.4384
2744	64.2713
2728	64.3715
2712	64.2122
2696	64.1956
2680	64.3151
2664	64.0921
2648	64.1523
2632	64.1873
2616	64.2835
2600	64.1091
2584	64.1234
2568	64.1652
2552	64.1129
2536	64.1606
2520	64.204
2504	64.13
2488	64.2407
2472	64.1471
2456	64.1063
2440	64.0522
2424	64.1071
2408	64.1788
2392	63.9916
2376	63.9816
2360	64.0727
2344	64.0815
2328	64.0656
2312	64.1007
2296	63.9682
2280	64.0429
2264	64.1277
2248	64.0021
2232	64.0307
2216	63.977
2200	63.9603
2184	64.0305
2168	63.9134
2152	63.902
2136	63.8588
2120	63.8806
2104	63.9187
2088	63.8752
2072	63.8582
2056	63.8237
2040	63.8206
2024	63.806
2008	63.8088
1992	63.677
1976	63.6677
1960	63.8267
1944	63.831
1928	63.8061
1912	63.8475
1896	63.7214
1880	63.7461
1864	63.7237
1848	63.751
1832	63.6478
1816	63.6553
1800	63.7288
1784	63.6463
1768	63.679
1752	63.5147
1736	63.2655
1720	63.4509
1704	63.4336
1688	63.5163
1672	63.3208
1656	63.5623
1640	63.5544
1624	63.573
1608	63.3306
1592	63.3718
1576	63.329
1560	63.3243
1544	63.3419
1528	63.3088
1512	63.3478
1496	63.3096
1480	63.3196
1464	63.32
1448	63.1494
1432	63.4033
1416	63.2625
1400	63.3097
1384	63.1395
1368	63.3107
1352	63.1965
1336	63.2304
1320	63.1866
1304	63.0737
1288	62.9988
1272	63.0572
1256	62.932
1240	62.8337
1224	63.0039
1208	63.0192
1192	62.8602
1176	62.8889
1160	62.9375
1144	62.9666
1128	62.8513
1112	62.9592
1096	62.7766
1080	62.9044
1064	62.8855
1048	62.9317
1032	62.873
1016	63.1129
1000	62.8181
984	 62.953
968	 62.8813
952	 62.903
936	 62.9283
920	 62.8401
904	 62.9565
888	 62.9831
872	 63.006
856	 62.7912
840	 62.9065
824	 62.9541
808	 62.6412
792	 62.6837
776	 62.9063
760	 62.6604
744	 62.4344
728	 62.3919
712	 62.807
696	 62.4686
680	 62.8635
664	 62.2632
648	 62.3379
632	 61.7138
616	 62.6755
600	 62.3363
584	 62.1001
568	 63.0172
552	 62.8761
536	 62.0699
520	 63.0883
504	 62.796
488	 63.2419
472	 62.1384
456	 62.675
440	 62.9651
424	 62.6722
408	 58.0617
392	 57.4841
376	 40.6827
370	 47.4088