File: Bakgrunnsmateriale/MATLAB/FTIR/ftir_data/subAa/Mapping_121/BZ1503107-1_t99_cm-1.asc
PE IR       SPECTRUM    SPECTRUM    ASCII       PEDS        1.60
  -1
BZ61B5~1.ASC
17/04/07
21:22:58.00
17/04/07
21:22:58.00
tln
$BZ1503107-1_t0099$<tbV0>[-13.0,7.8,8.0,0.0,27,1,0]
370
64

2002,4.07
MIRTGS : RIGHTBACK : INTERNAL 2
MIR : ON : INTERNAL 2
OPTKBR

0.200000
8
8.000000
FILLER
RATIO
SPECTRUM
UNLOCKED 256

DOUBLE
64
COMBINED
1
0
0

1.000000
RATIO

1
0
TRUE
51149
0
LEFT NOT FITTED RIGHT NOT FITTED 0
NONE
NONE
15600
12
4.427000
51148
TRUE
1 0 8 72 0 0 0 0

15798

#HDR
-1
-1
#GR
CM-1
%T
2.38419e-05
0.0
5000
-1.000000
4631
8
85.1066
26.0184
#DATA
5000	65.2714
4984	64.2206
4968	64.6262
4952	65.9846
4936	64.6058
4920	64.4959
4904	65.0602
4888	64.7574
4872	64.5544
4856	64.3846
4840	64.5658
4824	65.1276
4808	64.7356
4792	64.7943
4776	65.1823
4760	64.7965
4744	65.121
4728	64.8801
4712	64.9312
4696	64.611
4680	65.2011
4664	65.1207
4648	65.0064
4632	65.0747
4616	64.5986
4600	64.6997
4584	64.4749
4568	64.3772
4552	64.1328
4536	64.5189
4520	64.5938
4504	64.4313
4488	63.9209
4472	63.1062
4456	66.1082
4440	75.5602
4424	67.11
4408	64.4937
4392	64.3891
4376	64.2116
4360	64.3228
4344	64.3231
4328	64.2129
4312	64.1068
4296	64.5983
4280	64.5686
4264	64.2229
4248	65.0726
4232	64.5991
4216	64.8436
4200	64.5133
4184	64.8662
4168	65.2549
4152	65.0453
4136	64.9231
4120	65.0458
4104	65.1611
4088	65.0027
4072	64.8397
4056	65.0009
4040	64.7637
4024	64.8636
4008	64.8665
3992	64.9771
3976	64.8046
3960	64.9737
3944	64.4308
3928	64.8535
3912	64.7843
3896	64.852
3880	64.8776
3864	65.1881
3848	64.861
3832	64.9372
3816	65.0485
3800	64.9055
3784	64.8847
3768	65.0549
3752	64.7876
3736	64.8552
3720	65.1637
3704	65.3056
3688	65.1619
3672	64.9429
3656	64.9181
3640	64.958
3624	64.9527
3608	65.0024
3592	65.2471
3576	64.9389
3560	64.8916
3544	64.8
3528	64.8781
3512	64.8999
3496	65.0038
3480	64.7771
3464	64.9815
3448	64.8751
3432	64.8381
3416	64.8591
3400	64.8093
3384	64.9299
3368	64.7392
3352	64.8352
3336	64.8516
3320	64.8829
3304	64.9723
3288	64.906
3272	64.8793
3256	65.0674
3240	64.9759
3224	64.8564
3208	64.8571
3192	64.8426
3176	64.9135
3160	64.9322
3144	64.864
3128	64.8974
3112	64.892
3096	64.9286
3080	64.8178
3064	64.7611
3048	65.0025
3032	64.6991
3016	64.7382
3000	64.8108
2984	64.7071
2968	64.6998
2952	64.544
2936	64.7151
2920	64.6436
2904	64.7768
2888	64.5185
2872	64.6545
2856	64.6363
2840	64.5456
2824	64.6586
2808	64.6699
2792	64.6768
2776	64.8046
2760	64.71
2744	64.6504
2728	64.7322
2712	64.6676
2696	64.6066
2680	64.6413
2664	64.6303
2648	64.7397
2632	64.6784
2616	64.661
2600	64.5662
2584	64.6639
2568	64.6475
2552	64.6318
2536	64.589
2520	64.6678
2504	64.4893
2488	64.7404
2472	64.686
2456	64.6667
2440	64.4711
2424	64.6703
2408	64.5478
2392	64.5727
2376	64.6059
2360	64.5833
2344	64.5133
2328	64.4863
2312	64.5785
2296	64.4095
2280	64.4626
2264	64.4421
2248	64.5471
2232	64.348
2216	64.356
2200	64.3025
2184	64.3768
2168	64.3247
2152	64.2353
2136	64.3358
2120	64.3492
2104	64.3608
2088	64.188
2072	64.1908
2056	64.3589
2040	64.2356
2024	64.1841
2008	64.235
1992	64.2508
1976	64.2341
1960	64.2563
1944	64.1062
1928	64.1223
1912	64.1956
1896	64.0671
1880	64.0625
1864	64.1874
1848	64.0436
1832	64.0935
1816	64.0463
1800	64.1145
1784	63.8868
1768	63.9542
1752	63.7022
1736	63.6715
1720	63.7037
1704	63.8406
1688	63.8114
1672	63.786
1656	63.8882
1640	63.8323
1624	63.8316
1608	63.7887
1592	63.7542
1576	63.7182
1560	63.7279
1544	63.729
1528	63.6805
1512	63.729
1496	63.7743
1480	63.6636
1464	63.6708
1448	63.5503
1432	63.7314
1416	63.5521
1400	63.5365
1384	63.4576
1368	63.4995
1352	63.4716
1336	63.4204
1320	63.4565
1304	63.5125
1288	63.3857
1272	63.3441
1256	63.3308
1240	63.3485
1224	63.3538
1208	63.335
1192	63.3013
1176	63.2036
1160	63.1503
1144	63.1887
1128	63.1236
1112	63.1214
1096	63.2111
1080	62.8442
1064	62.9958
1048	63.0048
1032	63.025
1016	62.8416
1000	63.0685
984	 63.3516
968	 63.1089
952	 63.1776
936	 63.1362
920	 62.926
904	 62.875
888	 62.9711
872	 62.8097
856	 62.8045
840	 62.8591
824	 63.0257
808	 62.936
792	 63.0274
776	 63.0206
760	 62.8079
744	 63.0081
728	 62.9128
712	 62.5933
696	 62.4823
680	 62.2571
664	 62.5215
648	 62.3972
632	 62.4971
616	 62.0264
600	 62.495
584	 61.8334
568	 62.4414
552	 62.6281
536	 62.2091
520	 62.5325
504	 62.0535
488	 63.9248
472	 62.5708
456	 62.6546
440	 60.144
424	 61.6676
408	 59.8582
392	 51.8658
376	 41.0813
370	 26.0184