File: Bakgrunnsmateriale/MATLAB/FTIR/ftir_data/subAa/Mapping_121/BZ1503107-1_t07_cm-1.asc
PE IR       SPECTRUM    SPECTRUM    ASCII       PEDS        1.60
  -1
BZ6F22~1.ASC
17/04/07
13:48:11.00
17/04/07
13:48:11.00
tln
$BZ1503107-1_t0007$<tbV0>[-2.6,-13.0,8.0,0.0,27,1,0]
370
64

2002,4.07
MIRTGS : RIGHTBACK : INTERNAL 2
MIR : ON : INTERNAL 2
OPTKBR

0.200000
8
8.000000
FILLER
RATIO
SPECTRUM
UNLOCKED 256

DOUBLE
64
COMBINED
1
0
0

1.000000
RATIO

1
0
TRUE
51149
0
LEFT NOT FITTED RIGHT NOT FITTED 0
NONE
NONE
15600
12
4.427000
51148
TRUE
1 0 8 72 0 0 0 0

15798

#HDR
-1
-1
#GR
CM-1
%T
2.38419e-05
0.0
5000
-1.000000
4631
8
80.3834
47.9481
#DATA
5000	64.4937
4984	64.7114
4968	64.4324
4952	64.3665
4936	63.9696
4920	65.3401
4904	65.1226
4888	64.5775
4872	64.0021
4856	64.413
4840	64.4852
4824	64.8053
4808	64.5835
4792	65.0592
4776	64.4494
4760	65.0864
4744	64.639
4728	64.532
4712	64.5777
4696	64.9465
4680	64.8137
4664	64.6606
4648	64.4823
4632	64.4159
4616	64.562
4600	64.5556
4584	64.8153
4568	64.3734
4552	64.4414
4536	64.4118
4520	64.6512
4504	65.1126
4488	68.0189
4472	64.1776
4456	59.9856
4440	72.9539
4424	64.8384
4408	64.6506
4392	64.8057
4376	64.5108
4360	64.8711
4344	64.8884
4328	64.8924
4312	64.7195
4296	64.8928
4280	64.7973
4264	64.8345
4248	64.5681
4232	64.7876
4216	64.857
4200	64.9186
4184	64.8995
4168	64.7071
4152	64.6398
4136	64.8258
4120	64.793
4104	65.0358
4088	65.1553
4072	65.0982
4056	65.0553
4040	64.7222
4024	64.8129
4008	64.8602
3992	64.992
3976	64.7726
3960	64.9657
3944	65.1307
3928	64.753
3912	64.9706
3896	64.881
3880	64.9905
3864	64.889
3848	64.9412
3832	64.9498
3816	64.8699
3800	65.1981
3784	64.9641
3768	64.7389
3752	65.0905
3736	65.0954
3720	64.9543
3704	65.09
3688	65.0853
3672	65.2705
3656	64.9974
3640	65.2121
3624	65.2457
3608	65.2072
3592	64.893
3576	64.8335
3560	64.9763
3544	65.045
3528	64.9335
3512	64.9812
3496	64.9147
3480	64.9438
3464	64.8804
3448	64.8657
3432	64.9192
3416	64.8517
3400	64.9406
3384	65.0314
3368	65.0579
3352	65.0801
3336	65.11
3320	64.9806
3304	65.0257
3288	65.0473
3272	64.9312
3256	65.0646
3240	64.7132
3224	64.8376
3208	64.9958
3192	64.9444
3176	64.9404
3160	64.9413
3144	64.8466
3128	64.9268
3112	64.8603
3096	64.9878
3080	64.9003
3064	64.9314
3048	64.7928
3032	65.0157
3016	64.98
3000	65.0267
2984	64.8751
2968	64.9422
2952	64.8756
2936	64.7913
2920	64.6866
2904	64.8899
2888	64.8169
2872	64.8757
2856	64.9721
2840	64.9699
2824	64.8463
2808	64.7733
2792	64.9316
2776	64.8638
2760	64.9002
2744	64.8195
2728	64.8646
2712	64.8496
2696	64.8906
2680	64.8155
2664	64.7412
2648	64.9136
2632	64.9158
2616	64.8739
2600	64.8024
2584	64.8969
2568	64.933
2552	64.9339
2536	65.0686
2520	64.8427
2504	64.9208
2488	64.9683
2472	64.9288
2456	64.9559
2440	64.7883
2424	64.8589
2408	64.7869
2392	64.9193
2376	64.8423
2360	64.8118
2344	64.8477
2328	64.9033
2312	64.8418
2296	64.8149
2280	64.8059
2264	64.8605
2248	64.905
2232	64.9007
2216	64.889
2200	64.8504
2184	64.8263
2168	64.8581
2152	64.5751
2136	64.6569
2120	64.9327
2104	64.7897
2088	64.8933
2072	64.7921
2056	64.7655
2040	64.8223
2024	64.7665
2008	64.7921
1992	64.7005
1976	64.8002
1960	64.7149
1944	64.7074
1928	64.7286
1912	64.7377
1896	64.7847
1880	64.7495
1864	64.695
1848	64.865
1832	64.6452
1816	64.7894
1800	64.7524
1784	64.7367
1768	64.7648
1752	64.6285
1736	64.5541
1720	64.6217
1704	64.6781
1688	64.6327
1672	64.6428
1656	64.7661
1640	64.6017
1624	64.6838
1608	64.6476
1592	64.6718
1576	64.5823
1560	64.5952
1544	64.6361
1528	64.5074
1512	64.5527
1496	64.7534
1480	64.5816
1464	64.5703
1448	64.4965
1432	64.5693
1416	64.42
1400	64.51
1384	64.4207
1368	64.372
1352	64.3719
1336	64.355
1320	64.3618
1304	64.2262
1288	64.3195
1272	64.2542
1256	64.2708
1240	64.2584
1224	64.1903
1208	64.2194
1192	64.3376
1176	64.0322
1160	64.1961
1144	64.2008
1128	64.1785
1112	64.3403
1096	64.1992
1080	64.3381
1064	64.1116
1048	64.1794
1032	64.1807
1016	64.0731
1000	64.3013
984	 64.2711
968	 64.3168
952	 64.1553
936	 64.2735
920	 64.0244
904	 64.0949
888	 64.0407
872	 64.1303
856	 64.1941
840	 64.1981
824	 63.9937
808	 63.9705
792	 64.1013
776	 64.1078
760	 64.0603
744	 64.3815
728	 64.221
712	 63.9642
696	 64.1128
680	 64.0379
664	 64.2478
648	 63.9729
632	 63.776
616	 64.0776
600	 63.6554
584	 64.0663
568	 63.885
552	 64.1434
536	 64.1866
520	 63.9807
504	 64.1668
488	 63.3012
472	 65.4207
456	 63.3861
440	 62.8478
424	 65.5305
408	 67.1206
392	 59.8036
376	 80.3834
370	 78.1386