File: Bakgrunnsmateriale/MATLAB/FTIR/ftir_data/subAa/Mapping_121/BZ1503107-1_t24.asc
PE IR       SPECTRUM    SPECTRUM    ASCII       PEDS        1.60
  -1
BZ2959~1.ASC
17/04/07
15:14:28.00
17/04/07
15:14:54.00
tln
$BZ1503107-1_t0024$<tbV0>[10.4,-7.8,8.0,0.0,27,1,0]
27.028
64

2002,4.07
MIRTGS : RIGHTBACK : INTERNAL 2
MIR : ON : INTERNAL 2
OPTKBR

0.200000
8
8.000000
FILLER
RATIO
SPECTRUM
UNLOCKED 256

DOUBLE
64
COMBINED
1
0
0

0.002000
RATIO

1
0
TRUE
51149
0
LEFT NOT FITTED RIGHT NOT FITTED 0
NONE
NONE
15600
12
4.427000
51148
TRUE
1 0 8 72 0 0 0 0

15798

#HDR
-1
-1
#GR
µM
%T
2.38419e-05
0.0
2.000000
0.002000
12515
8
89.7631
39.9932
#DATA
2.000000	 65.632
2.084000	 65.1138
2.168000	 64.6508
2.252000	 64.1654
2.336000	 65.1641
2.420000	 65.402
2.504000	 65.3577
2.588000	 65.0558
2.672000	 65.2261
2.756000	 65.1355
2.840000	 65.1309
2.924000	 65.203
3.008000	 65.2206
3.092000	 65.0838
3.176000	 64.9157
3.260000	 65.1306
3.344000	 65.0476
3.428000	 64.9919
3.512000	 64.9308
3.596000	 65.0597
3.680000	 65.0951
3.764000	 65.0784
3.848000	 65.0309
3.932000	 64.8447
4.016000	 64.903
4.100000	 65.0336
4.184000	 65.1165
4.268000	 64.9838
4.352000	 64.9367
4.436000	 64.8771
4.520000	 64.7798
4.604000	 64.8391
4.688000	 64.857
4.772000	 64.8633
4.856000	 64.7969
4.940000	 64.833
5.024000	 64.7122
5.108000	 64.6823
5.192000	 64.756
5.276000	 64.7339
5.359999	 64.6719
5.444000	 64.7024
5.528000	 64.6866
5.612000	 64.5771
5.696000	 64.5206
5.780000	 64.5076
5.864000	 64.633
5.948000	 64.5292
6.032000	 64.5669
6.116000	 64.3769
6.200000	 64.5441
6.284000	 64.4319
6.368000	 64.5236
6.452000	 64.4059
6.536000	 64.4797
6.620000	 64.6441
6.704000	 64.6261
6.788000	 64.4853
6.872000	 64.6532
6.956000	 64.5449
7.040000	 64.4114
7.124000	 64.3336
7.208000	 64.3381
7.292000	 64.3503
7.376000	 64.3216
7.460000	 64.3463
7.544000	 64.3504
7.628000	 64.3356
7.712000	 64.4309
7.796000	 64.2507
7.880000	 64.2721
7.964000	 64.2644
8.048000	 64.3569
8.132000	 64.3192
8.216000	 64.1482
8.300000	 64.1941
8.384000	 64.2364
8.468000	 64.2332
8.552000	 64.0746
8.635999	 64.2712
8.719999	 64.131
8.804000	 64.0573
8.888000	 64.0524
8.972000	 64.2185
9.056000	 64.1401
9.140000	 64.1741
9.224000	 64.1643
9.308000	 64.28
9.391999	 64.1869
9.475999	 64.2075
9.560000	 63.9797
9.644000	 64.0287
9.728000	 64.1048
9.812000	 64.2818
9.896000	 64.0002
9.980000	 63.9804
10.064	64.199
10.148	64.1527
10.232	64.2024
10.316	64.2915
10.4	64.2206
10.484	64.2143
10.568	64.2969
10.652	64.2043
10.736	64.1773
10.82	64.1655
10.904	64.1394
10.988	64.0315
11.072	64.1529
11.156	64.3294
11.24	64.2265
11.324	64.3127
11.408	64.2879
11.492	64.2775
11.576	64.1803
11.66	64.1123
11.744	64.1648
11.828	63.9923
11.912	64.1441
11.996	64.0901
12.08	64.1004
12.164	64.1294
12.248	63.9565
12.332	63.9543
12.416	63.9736
12.5	63.8848
12.584	63.9573
12.668	63.9686
12.752	64.076
12.836	64.2962
12.92	64.2655
13.004	64.0743
13.088	64.0307
13.172	63.9459
13.256	63.8782
13.34	63.9701
13.424	63.9803
13.508	63.9069
13.592	63.8257
13.676	63.8309
13.76	64.0019
13.844	64.2
13.928	64.176
14.012	63.97
14.096	63.9639
14.18	64.0934
14.264	63.9865
14.348	63.8693
14.432	64.2016
14.516	64.6039
14.6	64.493
14.684	64.2444
14.768	64.1833
14.852	63.9273
14.936	63.5154
15.02	63.3982
15.104	63.6043
15.188	64.0103
15.272	64.3251
15.356	64.2029
15.44	64.071
15.524	64.1515
15.608	63.8394
15.692	63.4971
15.776	64.1772
15.86	65.2931
15.944	65.435
16.028	64.6803
16.112	63.936
16.196	63.5407
16.28	63.6072
16.364	64.1837
16.448	64.8513
16.532	65.1477
16.616	64.9833
16.7	64.4717
16.784	63.9093
16.868	63.6691
16.952	63.7895
17.036	64.034
17.12	64.2593
17.204	64.4153
17.288	64.4885
17.372	64.5583
17.456	64.6115
17.54	64.4429
17.624	64.0181
17.708	63.6588
17.792	63.622
17.876	63.7986
17.96	63.9982
18.044	64.1981
18.128	64.3563
18.212	64.3067
18.296	63.9716
18.38	63.4859
18.464	63.0858
18.548	62.9436
18.632	63.0769
18.716	63.3699
18.8	63.6791
18.884	63.9182
18.968	64.0424
19.052	63.9984
19.136	63.782
19.22	63.5121
19.304	63.358
19.388	63.3831
19.472	63.5126
19.556	63.6229
19.64	63.6606
19.724	63.6698
19.808	63.7202
19.892	63.8196
19.976	63.9073
20.06	63.923
20.144	63.85
20.228	63.6991
20.312	63.48
20.396	63.2235
20.48	63.0174
20.564	62.9905
20.648	63.2224
20.732	63.6513
20.816	64.0911
20.9	64.3465
20.984	64.34
21.068	64.142
21.152	63.8899
21.236	63.6885
21.32	63.5754
21.404	63.5552
21.488	63.6447
21.572	63.8653
21.656	64.1869
21.74	64.5036
21.824	64.6686
21.908	64.5803
21.992	64.2559
22.076	63.8212
22.16	63.4443
22.244	63.2479
22.328	63.2494
22.412	63.3813
22.496	63.5321
22.58	63.616
22.664	63.6044
22.748	63.5436
22.832	63.5326
22.916	63.6793
23	64.0289
23.084	64.536
23.168	65.0677
23.252	65.465
23.336	65.5874
23.42	65.3822
23.504	64.8901
23.588	64.2203
23.672	63.5075
23.756	62.8899
23.84	62.435
23.924	62.1668
24.008	62.0486
24.092	61.985
24.176	61.9044
24.26	61.8182
24.344	61.8163
24.428	61.9968
24.512	62.414
24.596	62.9666
24.68	63.4315
24.764	63.5837
24.848	63.2764
24.932	62.5543
25.016	61.6804
25.1	60.9979
25.184	60.8899
25.268	61.6433
25.352	63.3815
25.436	66.1216
25.52	69.7587
25.604	74.0713
25.688	78.6999
25.772	83.1429
25.856	86.8156
25.94	89.1578
26.024	89.7234
26.108	88.3187
26.192	85.0721
26.276	80.3385
26.36	74.6547
26.444	68.556
26.528	62.4834
26.612	56.7625
26.696	51.6234
26.78	47.2384
26.864	43.7668
26.948	41.333
27.028	39.9932