File: Bakgrunnsmateriale/MATLAB/FTIR/ftir_data/subAa/Mapping_121/BZ1503107-1_t83.asc
PE IR       SPECTRUM    SPECTRUM    ASCII       PEDS        1.60
  -1
BZ2555~1.ASC
17/04/07
20:02:34.00
17/04/07
20:03:00.00
tln
$BZ1503107-1_t0083$<tbV0>[0.0,5.2,8.0,0.0,27,1,0]
27.028
64

2002,4.07
MIRTGS : RIGHTBACK : INTERNAL 2
MIR : ON : INTERNAL 2
OPTKBR

0.200000
8
8.000000
FILLER
RATIO
SPECTRUM
UNLOCKED 256

DOUBLE
64
COMBINED
1
0
0

0.002000
RATIO

1
0
TRUE
51149
0
LEFT NOT FITTED RIGHT NOT FITTED 0
NONE
NONE
15600
12
4.427000
51148
TRUE
1 0 8 72 0 0 0 0

15798

#HDR
-1
-1
#GR
µM
%T
2.38419e-05
0.0
2.000000
0.002000
12515
8
77.4987
47.3621
#DATA
2.000000	 64.054
2.084000	 64.7489
2.168000	 64.817
2.252000	 66.4475
2.336000	 64.7778
2.420000	 64.9492
2.504000	 64.6111
2.588000	 65.053
2.672000	 65.0234
2.756000	 64.9211
2.840000	 65.148
2.924000	 64.8863
3.008000	 64.8307
3.092000	 65.0535
3.176000	 65.0855
3.260000	 64.9401
3.344000	 64.821
3.428000	 64.7659
3.512000	 64.5503
3.596000	 64.8174
3.680000	 64.8616
3.764000	 64.7621
3.848000	 64.7767
3.932000	 64.6803
4.016000	 64.6006
4.100000	 64.5513
4.184000	 64.4885
4.268000	 64.5154
4.352000	 64.4145
4.436000	 64.514
4.520000	 64.4222
4.604000	 64.413
4.688000	 64.3508
4.772000	 64.2827
4.856000	 64.2169
4.940000	 64.3943
5.024000	 64.1797
5.108000	 64.3303
5.192000	 64.2611
5.276000	 64.2851
5.359999	 64.1832
5.444000	 64.1572
5.528000	 64.1927
5.612000	 64.108
5.696000	 63.9896
5.780000	 63.8514
5.864000	 63.8234
5.948000	 63.8451
6.032000	 63.9082
6.116000	 63.7617
6.200000	 63.8966
6.284000	 63.7367
6.368000	 63.8773
6.452000	 63.7545
6.536000	 63.8124
6.620000	 63.8996
6.704000	 63.6762
6.788000	 63.651
6.872000	 63.6467
6.956000	 63.8009
7.040000	 63.7419
7.124000	 63.4923
7.208000	 63.5751
7.292000	 63.579
7.376000	 63.4388
7.460000	 63.6181
7.544000	 63.6646
7.628000	 63.4574
7.712000	 63.4885
7.796000	 63.3859
7.880000	 63.4091
7.964000	 63.3277
8.048000	 63.4823
8.132000	 63.4146
8.216000	 63.495
8.300000	 63.3421
8.384000	 63.3814
8.468000	 63.3102
8.552000	 63.3169
8.635999	 63.2802
8.719999	 63.3535
8.804000	 63.3602
8.888000	 63.4114
8.972000	 63.2819
9.056000	 63.193
9.140000	 63.2481
9.224000	 63.3411
9.308000	 63.3152
9.391999	 63.3677
9.475999	 63.3364
9.560000	 63.1733
9.644000	 63.0572
9.728000	 63.1096
9.812000	 63.2117
9.896000	 63.2239
9.980000	 63.3758
10.064	63.3097
10.148	63.3453
10.232	63.4095
10.316	63.0106
10.4	63.1765
10.484	63.1878
10.568	63.1161
10.652	63.3
10.736	63.1599
10.82	63.3506
10.904	63.2567
10.988	63.1907
11.072	63.2757
11.156	63.1736
11.24	63.2705
11.324	63.2559
11.408	63.2532
11.492	63.5115
11.576	63.3448
11.66	63.1628
11.744	63.0281
11.828	63.1011
11.912	63.1072
11.996	63.1748
12.08	63.0981
12.164	63.1602
12.248	63.0671
12.332	62.9944
12.416	62.9314
12.5	62.7695
12.584	62.7599
12.668	62.8545
12.752	62.8778
12.836	62.9541
12.92	63.0559
13.004	63.0152
13.088	62.8896
13.172	62.8662
13.256	62.9479
13.34	63.0179
13.424	63.0392
13.508	62.987
13.592	62.8529
13.676	62.861
13.76	62.8781
13.844	62.7776
13.928	62.8017
14.012	63.0009
14.096	62.9539
14.18	62.7606
14.264	62.7832
14.348	62.845
14.432	62.9659
14.516	63.1128
14.6	63.076
14.684	63.106
14.768	63.2039
14.852	63.0745
14.936	62.7082
15.02	62.4989
15.104	62.777
15.188	63.0247
15.272	62.8135
15.356	62.489
15.44	62.3354
15.524	62.3575
15.608	62.4199
15.692	62.3765
15.776	62.4036
15.86	62.62
15.944	62.704
16.028	62.5363
16.112	62.4317
16.196	62.5295
16.28	62.7042
16.364	62.8765
16.448	62.9985
16.532	63.046
16.616	62.9821
16.7	62.7053
16.784	62.3183
16.868	62.2005
16.952	62.5296
17.036	62.9811
17.12	63.1444
17.204	62.9859
17.288	62.7264
17.372	62.5094
17.456	62.3893
17.54	62.4143
17.624	62.5024
17.708	62.5256
17.792	62.5531
17.876	62.721
17.96	62.9204
18.044	62.8934
18.128	62.5888
18.212	62.2722
18.296	62.2866
18.38	62.7356
18.464	63.3197
18.548	63.5306
18.632	63.0952
18.716	62.1921
18.8	61.2351
18.884	60.5781
18.968	60.3811
19.052	60.5546
19.136	60.8241
19.22	60.9441
19.304	60.9465
19.388	61.0905
19.472	61.5455
19.556	62.1918
19.64	62.7531
19.724	63.0564
19.808	63.1314
19.892	63.1146
19.976	63.1138
20.06	63.1572
20.144	63.224
20.228	63.2816
20.312	63.3051
20.396	63.2894
20.48	63.2725
20.564	63.3172
20.648	63.4688
20.732	63.7043
20.816	63.921
20.9	63.9768
20.984	63.7576
21.068	63.2441
21.152	62.5608
21.236	61.9481
21.32	61.6618
21.404	61.8341
21.488	62.3734
21.572	63.001
21.656	63.4073
21.74	63.4213
21.824	63.1003
21.908	62.6849
21.992	62.4377
22.076	62.5008
22.16	62.8254
22.244	63.2026
22.328	63.4022
22.412	63.3009
22.496	62.9581
22.58	62.5671
22.664	62.3397
22.748	62.3844
22.832	62.6493
22.916	62.974
23	63.1968
23.084	63.2428
23.168	63.1562
23.252	63.0467
23.336	63.0062
23.42	63.0444
23.504	63.0986
23.588	63.0778
23.672	62.9276
23.756	62.6657
23.84	62.358
23.924	62.0809
24.008	61.8741
24.092	61.7266
24.176	61.6052
24.26	61.4717
24.344	61.2914
24.428	61.0432
24.512	60.7249
24.596	60.321
24.68	59.8262
24.764	59.2805
24.848	58.7602
24.932	58.367
25.016	58.1857
25.1	58.261
25.184	58.5544
25.268	58.9562
25.352	59.3457
25.436	59.6354
25.52	59.8316
25.604	60.036
25.688	60.4267
25.772	61.1609
25.856	62.2615
25.94	63.5687
26.024	64.7207
26.108	65.258
26.192	64.7493
26.276	62.9592
26.36	59.9763
26.444	56.2386
26.528	52.439
26.612	49.339
26.696	47.6002
26.78	47.579
26.864	49.2863
26.948	52.396
27.028	56.0812