File: Bakgrunnsmateriale/MATLAB/FTIR/ftir_data/subAa/Mapping_121/BZ1503107-1_t96_cm-1.asc
PE IR       SPECTRUM    SPECTRUM    ASCII       PEDS        1.60
  -1
BZ6EA5~1.ASC
17/04/07
21:09:06.00
17/04/07
21:09:06.00
tln
$BZ1503107-1_t0096$<tbV0>[-5.2,7.8,8.0,0.0,27,1,0]
370
64

2002,4.07
MIRTGS : RIGHTBACK : INTERNAL 2
MIR : ON : INTERNAL 2
OPTKBR

0.200000
8
8.000000
FILLER
RATIO
SPECTRUM
UNLOCKED 256

DOUBLE
64
COMBINED
1
0
0

1.000000
RATIO

1
0
TRUE
51149
0
LEFT NOT FITTED RIGHT NOT FITTED 0
NONE
NONE
15600
12
4.427000
51148
TRUE
1 0 8 72 0 0 0 0

15798

#HDR
-1
-1
#GR
CM-1
%T
2.38419e-05
0.0
5000
-1.000000
4631
8
80.3418
42.7619
#DATA
5000	64.4557
4984	64.0643
4968	64.5787
4952	66.8055
4936	64.4013
4920	65.9428
4904	65.3797
4888	64.4455
4872	64.8753
4856	65.0113
4840	64.8904
4824	64.6492
4808	65.0051
4792	64.9395
4776	65.1835
4760	64.7303
4744	65.203
4728	64.6014
4712	65.1029
4696	64.6524
4680	65.2474
4664	65.0573
4648	65.2706
4632	65.0712
4616	64.9911
4600	64.9971
4584	64.9928
4568	64.608
4552	64.8731
4536	64.7226
4520	64.6625
4504	64.4723
4488	63.5276
4472	64.3068
4456	63.2197
4440	75.5864
4424	65.1735
4408	64.2871
4392	64.5764
4376	64.6073
4360	64.9329
4344	64.5719
4328	64.9124
4312	64.3015
4296	64.8604
4280	64.7407
4264	64.6698
4248	65.3578
4232	64.7325
4216	64.5322
4200	64.6673
4184	64.7867
4168	64.917
4152	65.2174
4136	64.91
4120	64.5733
4104	64.8576
4088	65.0122
4072	65.0918
4056	64.7899
4040	65.0659
4024	64.9452
4008	64.6487
3992	64.9746
3976	64.865
3960	65.16
3944	64.6503
3928	64.8845
3912	64.7487
3896	65.0177
3880	64.8998
3864	64.9512
3848	64.8488
3832	64.9468
3816	64.8607
3800	64.9155
3784	65.0848
3768	64.991
3752	65.0613
3736	65.0378
3720	65.174
3704	65.1687
3688	65.1055
3672	65.2226
3656	65.0346
3640	65.0117
3624	64.9516
3608	64.9047
3592	65.091
3576	64.8026
3560	64.9874
3544	64.9417
3528	64.9386
3512	64.7987
3496	65.0418
3480	65.1103
3464	64.9502
3448	64.8177
3432	65.0204
3416	64.9318
3400	64.9426
3384	64.8733
3368	64.8107
3352	64.7801
3336	64.975
3320	64.7873
3304	64.8366
3288	65.0302
3272	64.9902
3256	64.9467
3240	64.9617
3224	64.6826
3208	64.7159
3192	64.9178
3176	64.8797
3160	64.8368
3144	64.914
3128	64.681
3112	64.8249
3096	64.8036
3080	64.6952
3064	64.7973
3048	64.8756
3032	64.8616
3016	64.8487
3000	64.8949
2984	64.6224
2968	64.5549
2952	64.6564
2936	64.6192
2920	64.6976
2904	64.7194
2888	64.602
2872	64.6391
2856	64.6621
2840	64.6912
2824	64.7736
2808	64.7192
2792	64.7148
2776	64.7656
2760	64.7927
2744	64.7238
2728	64.7645
2712	64.6253
2696	64.6635
2680	64.5288
2664	64.6717
2648	64.8204
2632	64.5687
2616	64.6614
2600	64.5836
2584	64.6939
2568	64.6404
2552	64.6044
2536	64.6488
2520	64.641
2504	64.5584
2488	64.641
2472	64.5223
2456	64.6317
2440	64.4584
2424	64.6267
2408	64.3809
2392	64.5031
2376	64.501
2360	64.6116
2344	64.4647
2328	64.5725
2312	64.4957
2296	64.484
2280	64.3557
2264	64.4685
2248	64.3657
2232	64.3919
2216	64.366
2200	64.2862
2184	64.3136
2168	64.2461
2152	64.3172
2136	64.3486
2120	64.2584
2104	64.3835
2088	64.2406
2072	64.1902
2056	64.2304
2040	64.1445
2024	64.1683
2008	64.1634
1992	64.2736
1976	64.2111
1960	64.187
1944	64.0489
1928	64.021
1912	64.0354
1896	64.1343
1880	64.0696
1864	64.0902
1848	64.0352
1832	64.1376
1816	63.9979
1800	63.9726
1784	63.911
1768	63.9533
1752	63.7564
1736	63.4346
1720	63.7609
1704	63.7446
1688	63.7536
1672	63.7002
1656	63.8927
1640	63.6962
1624	63.7573
1608	63.7566
1592	63.8461
1576	63.5833
1560	63.5869
1544	63.6311
1528	63.6704
1512	63.6551
1496	63.6079
1480	63.5191
1464	63.5809
1448	63.5352
1432	63.5208
1416	63.526
1400	63.47
1384	63.3566
1368	63.3742
1352	63.4073
1336	63.2579
1320	63.3599
1304	63.2921
1288	63.1732
1272	63.1471
1256	63.1813
1240	63.0889
1224	63.1837
1208	63.2061
1192	63.1602
1176	63.0265
1160	63.0586
1144	63.0562
1128	62.9246
1112	62.9761
1096	63.0838
1080	62.8992
1064	62.8658
1048	62.9806
1032	62.9022
1016	62.7221
1000	62.8416
984	 63.0353
968	 62.9944
952	 62.9791
936	 62.9833
920	 63.0287
904	 62.9591
888	 62.7524
872	 62.7666
856	 62.7177
840	 62.895
824	 62.9988
808	 62.9909
792	 62.8183
776	 62.5686
760	 62.668
744	 62.5536
728	 62.728
712	 62.5025
696	 62.6066
680	 62.1217
664	 62.4752
648	 62.2546
632	 62.1173
616	 62.2162
600	 61.7315
584	 62.4882
568	 62.7406
552	 61.7907
536	 61.8703
520	 60.9612
504	 60.2609
488	 61.311
472	 61.3879
456	 61.2792
440	 61.1272
424	 61.1109
408	 59.4187
392	 62.1869
376	 58.144
370	 70.243