File: Bakgrunnsmateriale/MATLAB/FTIR/ftir_data/subAa/Mapping_121/BZ1503107-1_t39.asc
PE IR       SPECTRUM    SPECTRUM    ASCII       PEDS        1.60
  -1
BZ2D67~1.ASC
17/04/07
16:24:22.00
17/04/07
16:24:49.00
tln
$BZ1503107-1_t0039$<tbV0>[0.0,-5.2,8.0,0.0,27,1,0]
27.028
64

2002,4.07
MIRTGS : RIGHTBACK : INTERNAL 2
MIR : ON : INTERNAL 2
OPTKBR

0.200000
8
8.000000
FILLER
RATIO
SPECTRUM
UNLOCKED 256

DOUBLE
64
COMBINED
1
0
0

0.002000
RATIO

1
0
TRUE
51149
0
LEFT NOT FITTED RIGHT NOT FITTED 0
NONE
NONE
15600
12
4.427000
51148
TRUE
1 0 8 72 0 0 0 0

15798

#HDR
-1
-1
#GR
µM
%T
2.38419e-05
0.0
2.000000
0.002000
12515
8
77.5648
36.1422
#DATA
2.000000	 65.7692
2.084000	 64.9027
2.168000	 64.5585
2.252000	 66.4866
2.336000	 64.8031
2.420000	 65.0789
2.504000	 65.1615
2.588000	 64.9772
2.672000	 65.0263
2.756000	 65.261
2.840000	 64.9976
2.924000	 65.2655
3.008000	 65.2798
3.092000	 65.0148
3.176000	 65.1395
3.260000	 65.0754
3.344000	 65.0546
3.428000	 65.007
3.512000	 64.9677
3.596000	 65.0106
3.680000	 64.9736
3.764000	 65.0289
3.848000	 64.9694
3.932000	 64.8204
4.016000	 64.8025
4.100000	 64.88
4.184000	 64.8666
4.268000	 64.905
4.352000	 64.8125
4.436000	 64.7767
4.520000	 64.7318
4.604000	 64.802
4.688000	 64.8013
4.772000	 64.7522
4.856000	 64.7852
4.940000	 64.6446
5.024000	 64.6956
5.108000	 64.6821
5.192000	 64.5969
5.276000	 64.5282
5.359999	 64.5947
5.444000	 64.5751
5.528000	 64.4963
5.612000	 64.5219
5.696000	 64.3161
5.780000	 64.1557
5.864000	 64.3675
5.948000	 64.3703
6.032000	 64.2707
6.116000	 64.3758
6.200000	 64.1883
6.284000	 64.3295
6.368000	 64.1836
6.452000	 64.2968
6.536000	 64.2875
6.620000	 64.3673
6.704000	 64.3355
6.788000	 64.2562
6.872000	 64.1902
6.956000	 64.2744
7.040000	 64.2273
7.124000	 64.1025
7.208000	 64.1508
7.292000	 64.1915
7.376000	 64.1121
7.460000	 64.1823
7.544000	 64.0819
7.628000	 64.0445
7.712000	 64.075
7.796000	 64.1163
7.880000	 63.9843
7.964000	 64.0776
8.048000	 64.0356
8.132000	 63.9365
8.216000	 64.0263
8.300000	 63.7393
8.384000	 63.9607
8.468000	 64.0385
8.552000	 63.8254
8.635999	 63.8982
8.719999	 63.864
8.804000	 63.8642
8.888000	 63.8721
8.972000	 63.8851
9.056000	 63.8827
9.140000	 63.756
9.224000	 63.81
9.308000	 64.025
9.391999	 64.0078
9.475999	 63.8637
9.560000	 63.7208
9.644000	 63.8363
9.728000	 64.1748
9.812000	 63.8999
9.896000	 63.8092
9.980000	 63.952
10.064	63.8504
10.148	63.9063
10.232	63.9728
10.316	63.9182
10.4	63.9823
10.484	63.7905
10.568	63.8329
10.652	63.9083
10.736	64.0182
10.82	64.1056
10.904	64.1587
10.988	63.873
11.072	63.9323
11.156	63.9293
11.24	63.8483
11.324	63.9542
11.408	63.9914
11.492	64.0283
11.576	64.1653
11.66	63.9036
11.744	63.7923
11.828	63.8498
11.912	63.7685
11.996	63.8263
12.08	64.0088
12.164	63.7706
12.248	63.6847
12.332	63.8839
12.416	63.8902
12.5	63.7784
12.584	64.0075
12.668	63.8526
12.752	63.8197
12.836	63.7879
12.92	63.7729
13.004	63.7166
13.088	63.5835
13.172	63.6715
13.256	63.5685
13.34	63.4324
13.424	63.4389
13.508	63.5517
13.592	63.6839
13.676	63.796
13.76	63.8425
13.844	63.7224
13.928	63.5671
14.012	63.4527
14.096	63.4759
14.18	63.4494
14.264	63.2778
14.348	63.1717
14.432	63.6128
14.516	64.1168
14.6	63.9203
14.684	63.6828
14.768	63.7965
14.852	63.7884
14.936	63.6875
15.02	63.642
15.104	63.4758
15.188	63.2006
15.272	63.1997
15.356	63.4326
15.44	63.3415
15.524	63.2087
15.608	63.6268
15.692	64.2041
15.776	64.2499
15.86	63.7012
15.944	63.2247
16.028	63.3213
16.112	63.6121
16.196	63.6723
16.28	63.6105
16.364	63.5181
16.448	63.456
16.532	63.6516
16.616	64.1119
16.7	64.4769
16.784	64.4752
16.868	64.2429
16.952	64.0574
17.036	63.956
17.12	63.8197
17.204	63.6906
17.288	63.6947
17.372	63.8168
17.456	63.9168
17.54	63.857
17.624	63.6234
17.708	63.3715
17.792	63.3093
17.876	63.4926
17.96	63.8046
18.044	64.1011
18.128	64.2698
18.212	64.2456
18.296	64.0362
18.38	63.711
18.464	63.3802
18.548	63.1704
18.632	63.1647
18.716	63.3331
18.8	63.5549
18.884	63.735
18.968	63.8489
19.052	63.8804
19.136	63.7919
19.22	63.581
19.304	63.3168
19.388	63.1075
19.472	63.0497
19.556	63.1882
19.64	63.4843
19.724	63.8047
19.808	63.9774
19.892	63.9134
19.976	63.6789
20.06	63.4463
20.144	63.3567
20.228	63.428
20.312	63.5688
20.396	63.6804
20.48	63.7431
20.564	63.8088
20.648	63.9074
20.732	63.9844
20.816	63.9263
20.9	63.6639
20.984	63.2438
21.068	62.8002
21.152	62.4598
21.236	62.2672
21.32	62.1928
21.404	62.1889
21.488	62.2345
21.572	62.3231
21.656	62.4406
21.74	62.56
21.824	62.6635
21.908	62.7614
21.992	62.8787
22.076	63.0253
22.16	63.1776
22.244	63.2876
22.328	63.328
22.412	63.3002
22.496	63.2298
22.58	63.1209
22.664	62.9428
22.748	62.6581
22.832	62.269
22.916	61.8389
23	61.4769
23.084	61.2568
23.168	61.1881
23.252	61.2176
23.336	61.2592
23.42	61.2826
23.504	61.3334
23.588	61.5
23.672	61.8527
23.756	62.4075
23.84	63.1026
23.924	63.8381
24.008	64.5088
24.092	65.0244
24.176	65.3455
24.26	65.4628
24.344	65.3739
24.428	65.0589
24.512	64.4657
24.596	63.514
24.68	62.1363
24.764	60.3571
24.848	58.31
24.932	56.3381
25.016	54.912
25.1	54.3944
25.184	55.037
25.268	56.8378
25.352	59.4993
25.436	62.5554
25.52	65.5586
25.604	68.2326
25.688	70.5171
25.772	72.5104
25.856	74.3112
25.94	75.8937
26.024	77.0689
26.108	77.5627
26.192	77.1697
26.276	75.85
26.36	73.8418
26.444	71.5074
26.528	69.0922
26.612	66.6374
26.696	63.7541
26.78	59.7185
26.864	53.7841
26.948	45.6075
27.028	36.1422