File: Bakgrunnsmateriale/MATLAB/FTIR/ftir_data/subAa/Mapping_121/BZ1503107-1_t08.asc
PE IR       SPECTRUM    SPECTRUM    ASCII       PEDS        1.60
  -1
BZ1965~1.ASC
17/04/07
13:52:49.00
17/04/07
13:53:15.00
tln
$BZ1503107-1_t0008$<tbV0>[-5.2,-13.0,8.0,0.0,27,1,0]
27.028
64

2002,4.07
MIRTGS : RIGHTBACK : INTERNAL 2
MIR : ON : INTERNAL 2
OPTKBR

0.200000
8
8.000000
FILLER
RATIO
SPECTRUM
UNLOCKED 256

DOUBLE
64
COMBINED
1
0
0

0.002000
RATIO

1
0
TRUE
51149
0
LEFT NOT FITTED RIGHT NOT FITTED 0
NONE
NONE
15600
12
4.427000
51148
TRUE
1 0 8 72 0 0 0 0

15798

#HDR
-1
-1
#GR
µM
%T
2.38419e-05
0.0
2.000000
0.002000
12515
8
85.573
44.0173
#DATA
2.000000	 61.9254
2.084000	 64.4306
2.168000	 62.6968
2.252000	 76.5923
2.336000	 62.9621
2.420000	 63.4971
2.504000	 63.4203
2.588000	 63.3369
2.672000	 63.8764
2.756000	 63.7837
2.840000	 63.5102
2.924000	 63.7779
3.008000	 63.6886
3.092000	 63.7684
3.176000	 63.828
3.260000	 63.9683
3.344000	 63.7856
3.428000	 63.5935
3.512000	 63.8421
3.596000	 63.9659
3.680000	 63.9558
3.764000	 64.0002
3.848000	 64.0079
3.932000	 63.995
4.016000	 64.0258
4.100000	 64.0144
4.184000	 64.0037
4.268000	 64.0644
4.352000	 64.0205
4.436000	 64.1267
4.520000	 63.9723
4.604000	 64.1521
4.688000	 64.0883
4.772000	 64.0846
4.856000	 64.0612
4.940000	 64.045
5.024000	 64.1258
5.108000	 64.2231
5.192000	 64.0106
5.276000	 64.1271
5.359999	 64.1405
5.444000	 64.0793
5.528000	 64.1333
5.612000	 64.0305
5.696000	 64.0147
5.780000	 63.7707
5.864000	 64.0182
5.948000	 64.0827
6.032000	 63.9944
6.116000	 63.8942
6.200000	 63.9841
6.284000	 64.0653
6.368000	 64.016
6.452000	 64.1003
6.536000	 63.9604
6.620000	 64.1555
6.704000	 64.1089
6.788000	 64.0126
6.872000	 63.9963
6.956000	 64.1462
7.040000	 64.0366
7.124000	 63.8677
7.208000	 63.8513
7.292000	 63.8668
7.376000	 64.0198
7.460000	 64.0708
7.544000	 63.9546
7.628000	 63.7569
7.712000	 63.8198
7.796000	 63.8216
7.880000	 63.7415
7.964000	 63.6841
8.048000	 63.5867
8.132000	 63.6972
8.216000	 63.6882
8.300000	 63.734
8.384000	 63.7106
8.468000	 63.7193
8.552000	 63.7845
8.635999	 63.6029
8.719999	 63.7343
8.804000	 63.8943
8.888000	 63.8622
8.972000	 64.0617
9.056000	 63.72
9.140000	 64.0118
9.224000	 64.0024
9.308000	 63.7759
9.391999	 63.7629
9.475999	 63.968
9.560000	 63.8342
9.644000	 63.7845
9.728000	 63.8582
9.812000	 63.8137
9.896000	 63.796
9.980000	 63.7345
10.064	63.78
10.148	63.8605
10.232	63.7741
10.316	63.8035
10.4	63.8613
10.484	63.9965
10.568	64.0909
10.652	64.1419
10.736	64.0501
10.82	63.914
10.904	64.0714
10.988	64.1226
11.072	63.98
11.156	63.9338
11.24	63.7155
11.324	63.8404
11.408	63.9645
11.492	64.0668
11.576	64.0813
11.66	63.8798
11.744	63.9503
11.828	64.1168
11.912	64.1147
11.996	63.9831
12.08	63.7271
12.164	63.7936
12.248	63.8305
12.332	63.8676
12.416	63.8584
12.5	63.8275
12.584	63.8401
12.668	63.7911
12.752	63.9721
12.836	64.0616
12.92	64.0078
13.004	63.9484
13.088	63.8885
13.172	63.7902
13.256	63.7443
13.34	63.8491
13.424	63.872
13.508	63.7612
13.592	63.6663
13.676	63.7915
13.76	64.0123
13.844	64.0407
13.928	64.0285
14.012	64.0137
14.096	63.9105
14.18	63.8882
14.264	63.9254
14.348	63.8578
14.432	63.7346
14.516	63.6251
14.6	63.5229
14.684	63.4393
14.768	63.4221
14.852	63.561
14.936	63.7522
15.02	63.853
15.104	63.8571
15.188	63.7239
15.272	63.5443
15.356	63.55
15.44	63.7346
15.524	63.8487
15.608	63.8028
15.692	63.738
15.776	63.7297
15.86	63.7927
15.944	63.9161
16.028	64.004
16.112	63.9963
16.196	63.9128
16.28	63.7662
16.364	63.6122
16.448	63.5759
16.532	63.6924
16.616	63.8205
16.7	63.8388
16.784	63.8179
16.868	63.8371
16.952	63.8379
17.036	63.8045
17.12	63.8894
17.204	64.1627
17.288	64.3507
17.372	64.1211
17.456	63.6116
17.54	63.3921
17.624	63.8022
17.708	64.5429
17.792	65.0737
17.876	65.1887
17.96	65.0563
18.044	64.8088
18.128	64.4026
18.212	63.8758
18.296	63.4766
18.38	63.425
18.464	63.7109
18.548	64.1983
18.632	64.7676
18.716	65.2633
18.8	65.4133
18.884	65.0041
18.968	64.1016
19.052	63.0609
19.136	62.3021
19.22	62.0834
19.304	62.3738
19.388	62.9265
19.472	63.4822
19.556	63.9098
19.64	64.1953
19.724	64.3322
19.808	64.2807
19.892	64.0289
19.976	63.6952
20.06	63.5155
20.144	63.6434
20.228	63.993
20.312	64.2948
20.396	64.3261
20.48	64.0602
20.564	63.6546
20.648	63.359
20.732	63.3851
20.816	63.798
20.9	64.4306
20.984	64.9286
21.068	64.9473
21.152	64.4035
21.236	63.5686
21.32	62.899
21.404	62.7414
21.488	63.1326
21.572	63.841
21.656	64.5383
21.74	64.9682
21.824	65.0281
21.908	64.7581
21.992	64.2683
22.076	63.6816
22.16	63.12
22.244	62.6898
22.328	62.465
22.412	62.4767
22.496	62.6866
22.58	63.0111
22.664	63.3605
22.748	63.6726
22.832	63.9383
22.916	64.1926
23	64.4748
23.084	64.7979
23.168	65.1451
23.252	65.4825
23.336	65.7716
23.42	65.9973
23.504	66.1604
23.588	66.2545
23.672	66.2479
23.756	66.0863
23.84	65.7431
23.924	65.2285
24.008	64.6117
24.092	64.0278
24.176	63.6265
24.26	63.5368
24.344	63.8194
24.428	64.4187
24.512	65.1616
24.596	65.823
24.68	66.1727
24.764	66.0499
24.848	65.4804
24.932	64.6587
25.016	63.8565
25.1	63.3319
25.184	63.1407
25.268	63.069
25.352	62.747
25.436	61.7432
25.52	59.8534
25.604	57.2499
25.688	54.2563
25.772	51.2924
25.856	48.7306
25.94	47.1882
26.024	46.7409
26.108	46.3797
26.192	45.4148
26.276	44.1568
26.36	44.7578
26.444	48.5538
26.528	55.2239
26.612	61.105
26.696	63.4075
26.78	62.6926
26.864	63.8745
26.948	72.2566
27.028	85.573