File: Bakgrunnsmateriale/MATLAB/FTIR/ftir_data/subAa/Mapping_121/BZ1503107-1_t97.asc
PE IR       SPECTRUM    SPECTRUM    ASCII       PEDS        1.60
  -1
BZ356B~1.ASC
17/04/07
21:13:43.00
17/04/07
21:14:09.00
tln
$BZ1503107-1_t0097$<tbV0>[-7.8,7.8,8.0,0.0,27,1,0]
27.028
64

2002,4.07
MIRTGS : RIGHTBACK : INTERNAL 2
MIR : ON : INTERNAL 2
OPTKBR

0.200000
8
8.000000
FILLER
RATIO
SPECTRUM
UNLOCKED 256

DOUBLE
64
COMBINED
1
0
0

0.002000
RATIO

1
0
TRUE
51149
0
LEFT NOT FITTED RIGHT NOT FITTED 0
NONE
NONE
15600
12
4.427000
51148
TRUE
1 0 8 72 0 0 0 0

15798

#HDR
-1
-1
#GR
µM
%T
2.38419e-05
0.0
2.000000
0.002000
12515
8
71.0618
40.1491
#DATA
2.000000	 63.5048
2.084000	 64.0937
2.168000	 64.1578
2.252000	 62.3768
2.336000	 63.972
2.420000	 64.2085
2.504000	 63.9885
2.588000	 64.162
2.672000	 64.0499
2.756000	 64.1365
2.840000	 64.0338
2.924000	 64.1444
3.008000	 63.9713
3.092000	 64.0223
3.176000	 63.9855
3.260000	 64.0346
3.344000	 63.938
3.428000	 63.8674
3.512000	 63.8764
3.596000	 64.1057
3.680000	 64.0115
3.764000	 63.969
3.848000	 63.9183
3.932000	 63.7752
4.016000	 63.9203
4.100000	 63.8219
4.184000	 63.7551
4.268000	 63.6698
4.352000	 63.8279
4.436000	 63.8816
4.520000	 63.7157
4.604000	 63.7184
4.688000	 63.6578
4.772000	 63.7603
4.856000	 63.706
4.940000	 63.5124
5.024000	 63.5884
5.108000	 63.5506
5.192000	 63.3986
5.276000	 63.4838
5.359999	 63.4716
5.444000	 63.477
5.528000	 63.4593
5.612000	 63.3683
5.696000	 63.2029
5.780000	 62.9739
5.864000	 63.2075
5.948000	 63.1268
6.032000	 63.254
6.116000	 63.2056
6.200000	 63.1505
6.284000	 63.2612
6.368000	 63.1831
6.452000	 63.1348
6.536000	 63.0554
6.620000	 63.1129
6.704000	 63.1003
6.788000	 63.0349
6.872000	 62.9318
6.956000	 63.0206
7.040000	 62.9584
7.124000	 62.9319
7.208000	 62.9345
7.292000	 62.8109
7.376000	 62.8422
7.460000	 62.8476
7.544000	 62.9136
7.628000	 62.9334
7.712000	 62.728
7.796000	 62.654
7.880000	 62.6468
7.964000	 62.7675
8.048000	 62.7932
8.132000	 62.699
8.216000	 62.8231
8.300000	 62.7167
8.384000	 62.713
8.468000	 62.6592
8.552000	 62.6246
8.635999	 62.5695
8.719999	 62.698
8.804000	 62.6571
8.888000	 62.6
8.972000	 62.597
9.056000	 62.6043
9.140000	 62.7595
9.224000	 62.4455
9.308000	 62.4022
9.391999	 62.5546
9.475999	 62.52
9.560000	 62.4781
9.644000	 62.6204
9.728000	 62.5345
9.812000	 62.5241
9.896000	 62.4419
9.980000	 62.4876
10.064	62.4022
10.148	62.6794
10.232	62.7913
10.316	62.6529
10.4	62.585
10.484	62.4603
10.568	62.4226
10.652	62.581
10.736	62.556
10.82	62.6673
10.904	62.5502
10.988	62.5231
11.072	62.5718
11.156	62.4813
11.24	62.3849
11.324	62.3729
11.408	62.4372
11.492	62.5232
11.576	62.6167
11.66	62.6321
11.744	62.5208
11.828	62.3447
11.912	62.4329
11.996	62.4826
12.08	62.5288
12.164	62.4843
12.248	62.5331
12.332	62.6056
12.416	62.4933
12.5	62.418
12.584	62.6499
12.668	62.7529
12.752	62.4603
12.836	62.2257
12.92	62.286
13.004	62.3159
13.088	62.2579
13.172	62.3137
13.256	62.4225
13.34	62.4982
13.424	62.479
13.508	62.3137
13.592	62.2626
13.676	62.2895
13.76	62.2385
13.844	62.1903
13.928	62.2327
14.012	62.2324
14.096	62.1704
14.18	62.1876
14.264	62.2687
14.348	62.1756
14.432	62.0232
14.516	62.0237
14.6	62.0832
14.684	62.0295
14.768	61.9196
14.852	61.9266
14.936	62.0093
15.02	62.015
15.104	61.9784
15.188	62.0233
15.272	62.044
15.356	61.96
15.44	61.9495
15.524	62.0369
15.608	62.0614
15.692	61.9974
15.776	61.951
15.86	61.969
15.944	61.9437
16.028	61.816
16.112	61.7206
16.196	61.7325
16.28	61.8001
16.364	61.9519
16.448	62.1718
16.532	62.293
16.616	62.2866
16.7	62.2719
16.784	62.2246
16.868	62.0801
16.952	61.9131
17.036	61.7831
17.12	61.6532
17.204	61.5281
17.288	61.4724
17.372	61.5085
17.456	61.6211
17.54	61.7958
17.624	61.9973
17.708	62.1765
17.792	62.3333
17.876	62.4949
17.96	62.5969
18.044	62.4911
18.128	62.1469
18.212	61.7668
18.296	61.5971
18.38	61.676
18.464	61.8852
18.548	62.1643
18.632	62.5255
18.716	62.8897
18.8	63.0537
18.884	62.8993
18.968	62.5321
19.052	62.1761
19.136	61.9498
19.22	61.806
19.304	61.6484
19.388	61.5028
19.472	61.5262
19.556	61.8475
19.64	62.381
19.724	62.8078
19.808	62.8001
19.892	62.2755
19.976	61.4527
20.06	60.6767
20.144	60.2357
20.228	60.2812
20.312	60.7678
20.396	61.4373
20.48	61.9367
20.564	62.0442
20.648	61.8287
20.732	61.5933
20.816	61.6368
20.9	62.0225
20.984	62.5382
21.068	62.8558
21.152	62.7553
21.236	62.2518
21.32	61.5636
21.404	60.975
21.488	60.6731
21.572	60.6854
21.656	60.9135
21.74	61.2086
21.824	61.4564
21.908	61.6077
21.992	61.648
22.076	61.5724
22.16	61.3913
22.244	61.1486
22.328	60.9274
22.412	60.7818
22.496	60.7046
22.58	60.6505
22.664	60.5913
22.748	60.5543
22.832	60.5911
22.916	60.7214
23	60.8909
23.084	61.0013
23.168	60.971
23.252	60.8096
23.336	60.6283
23.42	60.5997
23.504	60.8729
23.588	61.5184
23.672	62.5171
23.756	63.765
23.84	65.1141
23.924	66.3965
24.008	67.4582
24.092	68.1769
24.176	68.4849
24.26	68.3593
24.344	67.8391
24.428	67.0325
24.512	66.1175
24.596	65.2781
24.68	64.6644
24.764	64.3512
24.848	64.2729
24.932	64.271
25.016	64.1762
25.1	63.8524
25.184	63.2881
25.268	62.6118
25.352	62.0209
25.436	61.6873
25.52	61.6684
25.604	61.9101
25.688	62.369
25.772	63.056
25.856	64.02
25.94	65.3005
26.024	66.8607
26.108	68.5338
26.192	70.0216
26.276	70.9342
26.36	70.9107
26.444	69.6865
26.528	67.1632
26.612	63.4674
26.696	58.8688
26.78	53.7092
26.864	48.4477
26.948	43.6514
27.028	40.1491