File: Bakgrunnsmateriale/MATLAB/FTIR/ftir_data/subAa/Mapping_121/BZ1503107-1_t103.asc
PE IR       SPECTRUM    SPECTRUM    ASCII       PEDS        1.60
  -1
BZD6BE~1.ASC
17/04/07
21:42:04.00
17/04/07
21:42:30.00
tln
$BZ1503107-1_t0103$<tbV0>[5.2,10.4,8.0,0.0,27,1,0]
27.028
64

2002,4.07
MIRTGS : RIGHTBACK : INTERNAL 2
MIR : ON : INTERNAL 2
OPTKBR

0.200000
8
8.000000
FILLER
RATIO
SPECTRUM
UNLOCKED 256

DOUBLE
64
COMBINED
1
0
0

0.002000
RATIO

1
0
TRUE
51149
0
LEFT NOT FITTED RIGHT NOT FITTED 0
NONE
NONE
15600
12
4.427000
51148
TRUE
1 0 8 72 0 0 0 0

15798

#HDR
-1
-1
#GR
µM
%T
2.38419e-05
0.0
2.000000
0.002000
12515
8
78.0134
50.2427
#DATA
2.000000	 66.379
2.084000	 65.1413
2.168000	 65.0365
2.252000	 74.8561
2.336000	 64.818
2.420000	 64.9277
2.504000	 64.9165
2.588000	 64.8948
2.672000	 65.0536
2.756000	 64.7964
2.840000	 64.9235
2.924000	 64.9511
3.008000	 64.8015
3.092000	 64.9403
3.176000	 64.7498
3.260000	 64.7444
3.344000	 64.6802
3.428000	 64.7214
3.512000	 64.6135
3.596000	 64.6852
3.680000	 64.6594
3.764000	 64.6141
3.848000	 64.4647
3.932000	 64.5461
4.016000	 64.5649
4.100000	 64.4687
4.184000	 64.433
4.268000	 64.4327
4.352000	 64.415
4.436000	 64.4209
4.520000	 64.3157
4.604000	 64.2577
4.688000	 64.2865
4.772000	 64.2267
4.856000	 64.1875
4.940000	 64.0724
5.024000	 64.1183
5.108000	 63.9911
5.192000	 64.0054
5.276000	 64.0241
5.359999	 63.9276
5.444000	 63.9577
5.528000	 63.8685
5.612000	 63.7556
5.696000	 63.736
5.780000	 63.5391
5.864000	 63.7118
5.948000	 63.5171
6.032000	 63.712
6.116000	 63.5531
6.200000	 63.6178
6.284000	 63.6912
6.368000	 63.5929
6.452000	 63.5723
6.536000	 63.4613
6.620000	 63.4565
6.704000	 63.592
6.788000	 63.406
6.872000	 63.2951
6.956000	 63.313
7.040000	 63.3639
7.124000	 63.4209
7.208000	 63.3181
7.292000	 63.3049
7.376000	 63.2704
7.460000	 63.1779
7.544000	 63.1921
7.628000	 63.2321
7.712000	 63.1718
7.796000	 63.1546
7.880000	 63.0273
7.964000	 62.9858
8.048000	 63.0469
8.132000	 63.0322
8.216000	 63.1182
8.300000	 63.0183
8.384000	 62.9634
8.468000	 62.9534
8.552000	 62.9391
8.635999	 62.9158
8.719999	 62.9956
8.804000	 62.8418
8.888000	 62.8928
8.972000	 62.9544
9.056000	 62.973
9.140000	 63.0438
9.224000	 62.8113
9.308000	 62.7615
9.391999	 62.88
9.475999	 62.8011
9.560000	 62.781
9.644000	 62.7568
9.728000	 62.948
9.812000	 62.8419
9.896000	 62.8039
9.980000	 62.7657
10.064	62.845
10.148	62.8045
10.232	62.7925
10.316	62.6881
10.4	62.655
10.484	62.7722
10.568	62.8978
10.652	62.8091
10.736	62.8901
10.82	63.0411
10.904	62.9805
10.988	62.8963
11.072	62.6639
11.156	62.5903
11.24	62.5663
11.324	62.6805
11.408	62.5957
11.492	62.9142
11.576	62.9275
11.66	62.8526
11.744	62.646
11.828	62.4824
11.912	62.5873
11.996	62.609
12.08	62.5469
12.164	62.7467
12.248	62.769
12.332	62.6289
12.416	62.5882
12.5	62.5769
12.584	62.5321
12.668	62.5555
12.752	62.6269
12.836	62.5475
12.92	62.4994
13.004	62.4146
13.088	62.4434
13.172	62.5822
13.256	62.5452
13.34	62.4828
13.424	62.5859
13.508	62.7288
13.592	62.6014
13.676	62.4884
13.76	62.5259
13.844	62.4574
13.928	62.263
14.012	62.0259
14.096	61.959
14.18	62.1164
14.264	62.2551
14.348	62.3471
14.432	62.417
14.516	62.444
14.6	62.4408
14.684	62.2797
14.768	62.0679
14.852	62.0948
14.936	62.2311
15.02	62.2371
15.104	62.1493
15.188	62.0982
15.272	62.1175
15.356	62.1151
15.44	62.0808
15.524	62.0722
15.608	62.0008
15.692	61.8583
15.776	61.8307
15.86	61.9432
15.944	61.9273
16.028	61.6774
16.112	61.4419
16.196	61.3604
16.28	61.4156
16.364	61.7476
16.448	62.3106
16.532	62.7236
16.616	62.7807
16.7	62.5489
16.784	62.1726
16.868	62.0043
16.952	62.2897
17.036	62.6452
17.12	62.4974
17.204	61.9411
17.288	61.5789
17.372	61.6451
17.456	61.7869
17.54	61.6935
17.624	61.5677
17.708	61.75
17.792	62.1643
17.876	62.436
17.96	62.4246
18.044	62.285
18.128	62.1316
18.212	61.966
18.296	61.8905
18.38	62.0268
18.464	62.2907
18.548	62.4477
18.632	62.3763
18.716	62.1252
18.8	61.7529
18.884	61.2996
18.968	60.9223
19.052	60.8991
19.136	61.3314
19.22	61.9678
19.304	62.4037
19.388	62.4588
19.472	62.2682
19.556	62.0804
19.64	62.0026
19.724	61.9226
19.808	61.6374
19.892	61.041
19.976	60.2432
20.06	59.5384
20.144	59.2504
20.228	59.5435
20.312	60.3126
20.396	61.2256
20.48	61.9048
20.564	62.1285
20.648	61.9337
20.732	61.5582
20.816	61.2604
20.9	61.1624
20.984	61.2016
21.068	61.2177
21.152	61.0886
21.236	60.8165
21.32	60.5076
21.404	60.2886
21.488	60.2262
21.572	60.3089
21.656	60.4871
21.74	60.7135
21.824	60.9683
21.908	61.2386
21.992	61.4783
22.076	61.6082
22.16	61.5545
22.244	61.3068
22.328	60.955
22.412	60.6357
22.496	60.4605
22.58	60.4421
22.664	60.4992
22.748	60.5137
22.832	60.4215
22.916	60.2367
23	60.0321
23.084	59.8808
23.168	59.8152
23.252	59.8216
23.336	59.8808
23.42	60.0207
23.504	60.3026
23.588	60.7879
23.672	61.4921
23.756	62.3525
23.84	63.244
23.924	64.0205
24.008	64.5521
24.092	64.7431
24.176	64.5635
24.26	64.061
24.344	63.3599
24.428	62.6392
24.512	62.1534
24.596	62.1056
24.68	62.5409
24.764	63.2882
24.848	64.0283
24.932	64.4026
25.016	64.2038
25.1	63.4714
25.184	62.4598
25.268	61.5248
25.352	60.9811
25.436	61.0579
25.52	61.8227
25.604	63.1885
25.688	64.9806
25.772	66.9208
25.856	68.6318
25.94	69.6763
26.024	69.6248
26.108	68.2103
26.192	65.484
26.276	61.8584
26.36	58.0855
26.444	54.9764
26.528	53.1472
26.612	52.8102
26.696	53.8441
26.78	55.8954
26.864	58.523
26.948	61.3261
27.028	63.8644