File: Bakgrunnsmateriale/MATLAB/FTIR/ftir_data/subAa/Mapping_121/BZ1503107-1_t02.asc
PE IR       SPECTRUM    SPECTRUM    ASCII       PEDS        1.60
  -1
BZ1155~1.ASC
17/04/07
13:25:07.00
17/04/07
13:25:33.00
tln
$BZ1503107-1_t0002$<tbV0>[10.4,-13.0,8.0,0.0,27,1,0]
27.028
64

2002,4.07
MIRTGS : RIGHTBACK : INTERNAL 2
MIR : ON : INTERNAL 2
OPTKBR

0.200000
8
8.000000
FILLER
RATIO
SPECTRUM
UNLOCKED 256

DOUBLE
64
COMBINED
1
0
0

0.002000
RATIO

1
0
TRUE
51149
0
LEFT NOT FITTED RIGHT NOT FITTED 0
NONE
NONE
15600
12
4.427000
51148
TRUE
1 0 8 72 0 0 0 0

15798

#HDR
-1
-1
#GR
µM
%T
2.38419e-05
0.0
2.000000
0.002000
12515
8
69.6666
6.861902
#DATA
2.000000	 65.1864
2.084000	 65.3343
2.168000	 64.5598
2.252000	 65.8879
2.336000	 64.8928
2.420000	 65.1748
2.504000	 65.2117
2.588000	 65.0368
2.672000	 65.3659
2.756000	 65.3246
2.840000	 65.0592
2.924000	 65.2015
3.008000	 65.2492
3.092000	 65.0922
3.176000	 65.2731
3.260000	 65.0322
3.344000	 65.0503
3.428000	 65.1041
3.512000	 65.0368
3.596000	 65.1863
3.680000	 65.0709
3.764000	 65.0852
3.848000	 65.1017
3.932000	 65.015
4.016000	 64.9047
4.100000	 65.1033
4.184000	 64.927
4.268000	 65.0164
4.352000	 64.9146
4.436000	 64.9977
4.520000	 64.9937
4.604000	 64.9484
4.688000	 64.9412
4.772000	 64.9599
4.856000	 64.801
4.940000	 64.9205
5.024000	 64.8518
5.108000	 64.9435
5.192000	 64.8182
5.276000	 64.8905
5.359999	 64.9199
5.444000	 64.8419
5.528000	 64.8072
5.612000	 64.7434
5.696000	 64.7834
5.780000	 64.5522
5.864000	 64.6552
5.948000	 64.8453
6.032000	 64.7167
6.116000	 64.7481
6.200000	 64.6508
6.284000	 64.6944
6.368000	 64.675
6.452000	 64.6837
6.536000	 64.7139
6.620000	 64.6749
6.704000	 64.591
6.788000	 64.7437
6.872000	 64.5264
6.956000	 64.7113
7.040000	 64.5915
7.124000	 64.5171
7.208000	 64.4841
7.292000	 64.43
7.376000	 64.5595
7.460000	 64.5339
7.544000	 64.4918
7.628000	 64.3668
7.712000	 64.4803
7.796000	 64.4007
7.880000	 64.2663
7.964000	 64.3513
8.048000	 64.2363
8.132000	 64.3177
8.216000	 64.3916
8.300000	 64.44
8.384000	 64.4196
8.468000	 64.1816
8.552000	 64.348
8.635999	 64.3025
8.719999	 64.3202
8.804000	 64.3144
8.888000	 64.3489
8.972000	 64.4822
9.056000	 64.2497
9.140000	 64.482
9.224000	 64.4486
9.308000	 64.5104
9.391999	 64.1352
9.475999	 64.2094
9.560000	 64.1067
9.644000	 64.1486
9.728000	 64.1947
9.812000	 64.2136
9.896000	 64.1429
9.980000	 64.2356
10.064	64.3343
10.148	64.2019
10.232	63.979
10.316	64.1454
10.4	64.2776
10.484	64.2082
10.568	64.3976
10.652	64.3063
10.736	64.3543
10.82	64.3595
10.904	64.4289
10.988	64.4839
11.072	64.2953
11.156	64.3232
11.24	64.2317
11.324	64.2221
11.408	64.2632
11.492	64.1758
11.576	64.1491
11.66	64.1727
11.744	64.4504
11.828	64.555
11.912	64.2346
11.996	64.009
12.08	64.033
12.164	64.0718
12.248	64.1901
12.332	64.3652
12.416	64.3922
12.5	64.2628
12.584	64.3175
12.668	64.225
12.752	64.1885
12.836	64.2301
12.92	64.3541
13.004	64.4098
13.088	64.2036
13.172	64.0336
13.256	63.937
13.34	63.8682
13.424	63.9622
13.508	64.2141
13.592	64.2672
13.676	64.2372
13.76	64.3526
13.844	64.3577
13.928	64.2433
14.012	64.1981
14.096	64.2658
14.18	64.1938
14.264	64.0178
14.348	63.9013
14.432	63.9389
14.516	64.1711
14.6	64.2596
14.684	64.1294
14.768	64.0547
14.852	64.11
14.936	64.2068
15.02	64.2829
15.104	64.3803
15.188	64.3719
15.272	64.1612
15.356	64.0512
15.44	64.1593
15.524	64.2063
15.608	64.0997
15.692	64.0114
15.776	64.0622
15.86	64.2042
15.944	64.2814
16.028	64.2215
16.112	64.1235
16.196	64.1077
16.28	64.1619
16.364	64.1459
16.448	63.9779
16.532	63.7911
16.616	63.7658
16.7	63.8737
16.784	63.963
16.868	63.9928
16.952	64.0362
17.036	64.155
17.12	64.3396
17.204	64.5156
17.288	64.6023
17.372	64.538
17.456	64.3013
17.54	63.9794
17.624	63.7626
17.708	63.7825
17.792	63.9908
17.876	64.2417
17.96	64.4001
18.044	64.3891
18.128	64.2476
18.212	64.1069
18.296	64.0862
18.38	64.2337
18.464	64.5053
18.548	64.762
18.632	64.8508
18.716	64.7491
18.8	64.5968
18.884	64.5447
18.968	64.5929
19.052	64.6147
19.136	64.5398
19.22	64.4359
19.304	64.3974
19.388	64.4218
19.472	64.4387
19.556	64.4031
19.64	64.3334
19.724	64.2895
19.808	64.3251
19.892	64.4385
19.976	64.571
20.06	64.6487
20.144	64.6234
20.228	64.4922
20.312	64.2974
20.396	64.1036
20.48	63.9624
20.564	63.8906
20.648	63.8965
20.732	64.0104
20.816	64.2726
20.9	64.6689
20.984	65.0809
21.068	65.3256
21.152	65.2905
21.236	65.0352
21.32	64.7534
21.404	64.6209
21.488	64.6732
21.572	64.7977
21.656	64.8223
21.74	64.6484
21.824	64.3436
21.908	64.1003
21.992	64.0679
22.076	64.2259
22.16	64.384
22.244	64.3598
22.328	64.1348
22.412	63.8391
22.496	63.6422
22.58	63.5824
22.664	63.5508
22.748	63.3946
22.832	63.0733
22.916	62.6937
23	62.452
23.084	62.458
23.168	62.6341
23.252	62.7439
23.336	62.5048
23.42	61.7887
23.504	60.6842
23.588	59.5114
23.672	58.6785
23.756	58.5328
23.84	59.2624
23.924	60.8072
24.008	62.8734
24.092	64.9911
24.176	66.615
24.26	67.3487
24.344	67.0038
24.428	65.6529
24.512	63.6305
24.596	61.3522
24.68	59.1901
24.764	57.3818
24.848	56.0458
24.932	55.1423
25.016	54.4997
25.1	53.9228
25.184	53.2214
25.268	52.2751
25.352	51.049
25.436	49.5739
25.52	47.9127
25.604	46.1133
25.688	44.2754
25.772	42.4366
25.856	40.4852
25.94	37.9822
26.024	34.5022
26.108	29.9956
26.192	24.9656
26.276	20.0505
26.36	14.9438
26.444	10.1252
26.528	6.984092
26.612	8.683415
26.696	16.9408
26.78	30.2569
26.864	43.0535
26.948	49.1672
27.028	47.5534