File: Bakgrunnsmateriale/MATLAB/FTIR/ftir_data/subAa/Mapping_121/BZ1503107-1_t27_cm-1.asc
PE IR       SPECTRUM    SPECTRUM    ASCII       PEDS        1.60
  -1
BZ6F23~1.ASC
17/04/07
15:28:19.00
17/04/07
15:28:19.00
tln
$BZ1503107-1_t0027$<tbV0>[2.6,-7.8,8.0,0.0,27,1,0]
370
64

2002,4.07
MIRTGS : RIGHTBACK : INTERNAL 2
MIR : ON : INTERNAL 2
OPTKBR

0.200000
8
8.000000
FILLER
RATIO
SPECTRUM
UNLOCKED 256

DOUBLE
64
COMBINED
1
0
0

1.000000
RATIO

1
0
TRUE
51149
0
LEFT NOT FITTED RIGHT NOT FITTED 0
NONE
NONE
15600
12
4.427000
51148
TRUE
1 0 8 72 0 0 0 0

15798

#HDR
-1
-1
#GR
CM-1
%T
2.38419e-05
0.0
5000
-1.000000
4631
8
81.2448
24.9181
#DATA
5000	64.9051
4984	64.5679
4968	64.5431
4952	64.2942
4936	64.5668
4920	64.2093
4904	64.395
4888	64.5779
4872	65.0011
4856	65.1852
4840	64.8802
4824	65.0328
4808	65.0378
4792	64.959
4776	64.9218
4760	65.1349
4744	65.2709
4728	65.2765
4712	65.4479
4696	65.1149
4680	64.989
4664	64.9277
4648	65.3782
4632	64.4964
4616	64.6898
4600	64.448
4584	64.2965
4568	64.7004
4552	64.1619
4536	64.5915
4520	64.0583
4504	64.1158
4488	63.9126
4472	64.0639
4456	65.1448
4440	64.6539
4424	73.6128
4408	62.9941
4392	65.4367
4376	64.8367
4360	64.2663
4344	64.3934
4328	64.0509
4312	64.369
4296	64.774
4280	64.5472
4264	64.4504
4248	64.8113
4232	64.925
4216	64.7743
4200	65.0784
4184	64.663
4168	64.7992
4152	65.0136
4136	65.2509
4120	65.0057
4104	65.3422
4088	65.0946
4072	65.0522
4056	65.1968
4040	65.1828
4024	65.2363
4008	65.1223
3992	65.1607
3976	65.2972
3960	65.2468
3944	65.0744
3928	65.0572
3912	65.0857
3896	65.2504
3880	64.9795
3864	64.9869
3848	65.0391
3832	64.9962
3816	64.7971
3800	65.3549
3784	64.8945
3768	65.3307
3752	65.1198
3736	65.0128
3720	65.0988
3704	65.2256
3688	65.2077
3672	65.379
3656	65.4847
3640	65.015
3624	65.2299
3608	65.1498
3592	65.3412
3576	65.0148
3560	65.0659
3544	64.9493
3528	65.1062
3512	65.155
3496	64.9663
3480	64.9902
3464	65.1266
3448	64.897
3432	65.0115
3416	65.0472
3400	65.1586
3384	65.2677
3368	65.0818
3352	65.1477
3336	65.1999
3320	65.2216
3304	64.9958
3288	65.0369
3272	65.0864
3256	65.019
3240	65.1727
3224	65.1732
3208	65.0448
3192	65.0295
3176	65.1166
3160	65.189
3144	64.9562
3128	65.2473
3112	65.1197
3096	65.1185
3080	65.1831
3064	65.2388
3048	65.083
3032	64.8654
3016	65.0033
3000	65.1159
2984	65.01
2968	64.779
2952	64.9732
2936	64.8088
2920	64.947
2904	64.9026
2888	64.9562
2872	65.024
2856	65.059
2840	64.9129
2824	65.0558
2808	64.9117
2792	65.2187
2776	65.0406
2760	65.0468
2744	65.0805
2728	65.0732
2712	65.0642
2696	65.05
2680	65.0757
2664	65.0006
2648	64.9384
2632	64.9929
2616	64.9122
2600	64.9268
2584	64.9918
2568	64.9444
2552	65.0661
2536	65.0393
2520	64.9504
2504	64.8185
2488	65.049
2472	64.8783
2456	64.8203
2440	64.8883
2424	65.1498
2408	65.0717
2392	64.944
2376	64.7861
2360	64.958
2344	64.872
2328	64.9046
2312	64.9142
2296	64.8283
2280	64.8231
2264	64.8616
2248	64.8059
2232	64.9365
2216	64.9263
2200	64.9313
2184	64.9387
2168	64.8448
2152	64.7727
2136	64.7165
2120	64.8472
2104	64.8263
2088	64.7385
2072	64.7749
2056	64.7853
2040	64.8693
2024	64.8263
2008	64.8853
1992	64.7693
1976	64.7751
1960	64.7525
1944	64.7527
1928	64.6517
1912	64.7298
1896	64.5671
1880	64.6079
1864	64.6323
1848	64.6904
1832	64.659
1816	64.7395
1800	64.6683
1784	64.4936
1768	64.5209
1752	64.4707
1736	64.0934
1720	64.1806
1704	64.5561
1688	64.5805
1672	64.5785
1656	64.409
1640	64.441
1624	64.3625
1608	64.4914
1592	64.4217
1576	64.4958
1560	64.5254
1544	64.352
1528	64.5542
1512	64.5788
1496	64.3996
1480	64.4727
1464	64.254
1448	64.2545
1432	64.4372
1416	64.3407
1400	64.2489
1384	64.2185
1368	64.282
1352	64.2873
1336	64.3839
1320	64.2277
1304	64.1399
1288	64.248
1272	64.0708
1256	64.0895
1240	64.1119
1224	64.0358
1208	64.0227
1192	64.0906
1176	64.0321
1160	64.0359
1144	63.9573
1128	63.9274
1112	63.9996
1096	64.0499
1080	64.0532
1064	64.0278
1048	64.0631
1032	64.0838
1016	64.0822
1000	64.0033
984	 63.9668
968	 64.1022
952	 64.2735
936	 63.9433
920	 64.0757
904	 63.96
888	 64.041
872	 64.0912
856	 63.917
840	 64.0442
824	 63.9476
808	 63.8729
792	 64.337
776	 63.8932
760	 64.1614
744	 63.9821
728	 63.9862
712	 63.383
696	 63.8925
680	 63.2961
664	 64.1939
648	 63.1865
632	 64.7679
616	 64.0033
600	 64.5669
584	 63.7021
568	 63.5644
552	 64.3809
536	 63.72
520	 63.4142
504	 64.1581
488	 63.6822
472	 63.4745
456	 64.3272
440	 60.1548
424	 63.765
408	 63.7562
392	 76.7252
376	 60.0569
370	 24.9181