File: Bakgrunnsmateriale/MATLAB/FTIR/ftir_data/subAa/Mapping_121/BZ1503107-1_t99.asc
PE IR       SPECTRUM    SPECTRUM    ASCII       PEDS        1.60
  -1
BZ3D6B~1.ASC
17/04/07
21:22:58.00
17/04/07
21:23:24.00
tln
$BZ1503107-1_t0099$<tbV0>[-13.0,7.8,8.0,0.0,27,1,0]
27.028
64

2002,4.07
MIRTGS : RIGHTBACK : INTERNAL 2
MIR : ON : INTERNAL 2
OPTKBR

0.200000
8
8.000000
FILLER
RATIO
SPECTRUM
UNLOCKED 256

DOUBLE
64
COMBINED
1
0
0

0.002000
RATIO

1
0
TRUE
51149
0
LEFT NOT FITTED RIGHT NOT FITTED 0
NONE
NONE
15600
12
4.427000
51148
TRUE
1 0 8 72 0 0 0 0

15798

#HDR
-1
-1
#GR
µM
%T
2.38419e-05
0.0
2.000000
0.002000
12515
8
84.6274
26.0184
#DATA
2.000000	 65.2714
2.084000	 64.8806
2.168000	 64.5557
2.252000	 77.7235
2.336000	 64.5791
2.420000	 64.8568
2.504000	 64.987
2.588000	 65.1885
2.672000	 64.8126
2.756000	 65.0783
2.840000	 64.8489
2.924000	 64.8324
3.008000	 64.7906
3.092000	 65.008
3.176000	 64.7698
3.260000	 64.7524
3.344000	 64.6694
3.428000	 64.6148
3.512000	 64.5858
3.596000	 64.7659
3.680000	 64.6223
3.764000	 64.697
3.848000	 64.5811
3.932000	 64.5009
4.016000	 64.7531
4.100000	 64.4821
4.184000	 64.5488
4.268000	 64.5095
4.352000	 64.3573
4.436000	 64.5701
4.520000	 64.3833
4.604000	 64.3294
4.688000	 64.3244
4.772000	 64.2518
4.856000	 64.33
4.940000	 64.1833
5.024000	 64.2301
5.108000	 64.2347
5.192000	 64.1398
5.276000	 64.0755
5.359999	 64.1888
5.444000	 64.0416
5.528000	 64.1023
5.612000	 63.8846
5.696000	 63.7669
5.780000	 63.6531
5.864000	 63.8222
5.948000	 63.8271
6.032000	 63.9131
6.116000	 63.7859
6.200000	 63.8313
6.284000	 63.7564
6.368000	 63.7705
6.452000	 63.7674
6.536000	 63.6893
6.620000	 63.7387
6.704000	 63.7937
6.788000	 63.6818
6.872000	 63.5709
6.956000	 63.7133
7.040000	 63.6293
7.124000	 63.5654
7.208000	 63.4211
7.292000	 63.4809
7.376000	 63.4719
7.460000	 63.5079
7.544000	 63.5313
7.628000	 63.5115
7.712000	 63.4528
7.796000	 63.3696
7.880000	 63.3106
7.964000	 63.3291
8.048000	 63.3793
8.132000	 63.2038
8.216000	 63.4099
8.300000	 63.3119
8.384000	 63.3094
8.468000	 63.208
8.552000	 63.1481
8.635999	 63.1758
8.719999	 63.2062
8.804000	 63.1337
8.888000	 63.1748
8.972000	 63.2092
9.056000	 63.0786
9.140000	 63.2045
9.224000	 62.9845
9.308000	 62.9042
9.391999	 62.99
9.475999	 63.0106
9.560000	 63.0527
9.644000	 63.0492
9.728000	 63.1091
9.812000	 62.8996
9.896000	 62.8977
9.980000	 63.0413
10.064	63.15
10.148	63.312
10.232	63.3455
10.316	63.144
10.4	63.0536
10.484	63.1802
10.568	63.0408
10.652	63.0671
10.736	63.1936
10.82	63.0868
10.904	62.8422
10.988	62.9841
11.072	62.8496
11.156	62.9563
11.24	62.9997
11.324	62.8787
11.408	62.7587
11.492	62.8609
11.576	63.057
11.66	62.8709
11.744	62.7635
11.828	62.7416
11.912	62.873
11.996	62.8808
12.08	62.8786
12.164	63.1092
12.248	63.125
12.332	62.9727
12.416	62.8887
12.5	62.8166
12.584	62.961
12.668	63.0459
12.752	63.0408
12.836	63.092
12.92	62.9191
13.004	62.6892
13.088	62.6953
13.172	62.8326
13.256	62.9633
13.34	63.0142
13.424	63.0014
13.508	63.0781
13.592	63.1459
13.676	63.0641
13.76	62.8518
13.844	62.7561
13.928	62.7627
14.012	62.6384
14.096	62.5784
14.18	62.6181
14.264	62.5823
14.348	62.5055
14.432	62.399
14.516	62.3602
14.6	62.3764
14.684	62.2853
14.768	62.2304
14.852	62.3483
14.936	62.5026
15.02	62.5414
15.104	62.4883
15.188	62.4139
15.272	62.3619
15.356	62.3666
15.44	62.4023
15.524	62.5004
15.608	62.6157
15.692	62.5847
15.776	62.4962
15.86	62.5214
15.944	62.55
16.028	62.437
16.112	62.2424
16.196	62.0658
16.28	62.0545
16.364	62.3854
16.448	62.8454
16.532	62.9443
16.616	62.6621
16.7	62.4344
16.784	62.4601
16.868	62.5819
16.952	62.5461
17.036	62.2348
17.12	61.8452
17.204	61.6977
17.288	61.8522
17.372	62.0972
17.456	62.2705
17.54	62.3806
17.624	62.4539
17.708	62.4859
17.792	62.5172
17.876	62.5948
17.96	62.6685
18.044	62.6657
18.128	62.6228
18.212	62.597
18.296	62.5264
18.38	62.3316
18.464	62.1127
18.548	62.0638
18.632	62.1767
18.716	62.2229
18.8	62.0353
18.884	61.7182
18.968	61.5344
19.052	61.6777
19.136	62.0888
19.22	62.4957
19.304	62.652
19.388	62.5909
19.472	62.5906
19.556	62.8405
19.64	63.1604
19.724	63.1153
19.808	62.4532
19.892	61.3971
19.976	60.5256
20.06	60.3586
20.144	61.0034
20.228	62.1329
20.312	63.228
20.396	63.8762
20.48	63.9528
20.564	63.6127
20.648	63.1477
20.732	62.8203
20.816	62.7524
20.9	62.8939
20.984	63.0667
21.068	63.059
21.152	62.7639
21.236	62.2551
21.32	61.7399
21.404	61.4425
21.488	61.4742
21.572	61.7854
21.656	62.2138
21.74	62.5695
21.824	62.7322
21.908	62.693
21.992	62.4914
22.076	62.1467
22.16	61.6472
22.244	60.9924
22.328	60.267
22.412	59.6389
22.496	59.2904
22.58	59.3214
22.664	59.7085
22.748	60.297
22.832	60.8857
22.916	61.2981
23	61.4513
23.084	61.3639
23.168	61.1356
23.252	60.8888
23.336	60.7408
23.42	60.8012
23.504	61.1279
23.588	61.6911
23.672	62.3723
23.756	62.9709
23.84	63.2633
23.924	63.1124
24.008	62.5254
24.092	61.6503
24.176	60.7341
24.26	60.0096
24.344	59.6246
24.428	59.596
24.512	59.8679
24.596	60.3098
24.68	60.7278
24.764	60.9002
24.848	60.5826
24.932	59.5779
25.016	57.8562
25.1	55.5754
25.184	53.1451
25.268	51.1317
25.352	50.0921
25.436	50.4077
25.52	52.1327
25.604	55.0256
25.688	58.5634
25.772	62.0873
25.856	64.9876
25.94	66.7604
26.024	67.0623
26.108	65.7788
26.192	63.0283
26.276	59.0968
26.36	54.41
26.444	49.4507
26.528	44.6493
26.612	40.2775
26.696	36.4347
26.78	33.0852
26.864	30.1528
26.948	27.6865
27.028	26.0184