File: Bakgrunnsmateriale/MATLAB/FTIR/ftir_data/subAa/Mapping_121/BZ1503107-1_e122.asc
PE IR       SPECTRUM    SPECTRUM    ASCII       PEDS        1.60
  -1
BZ1503~2.ASC
17/04/07
13:14:34.00
17/04/07
13:15:00.00
tln
$BZ1503107-1_e0122$<ebV0>[-23.3,12.1,10.0,0.0,27,1,0]
27.028
64

2002,4.07
MIRTGS : RIGHTBACK : INTERNAL 2
MIR : ON : INTERNAL 2
OPTKBR

0.200000
8
8.000000
FILLER
SINGLE
SPECTRUM
UNLOCKED 256

DOUBLE

COMBINED
1
0
0

0.002000
BACKG

1
0
TRUE
51149
0
LEFT NOT FITTED RIGHT NOT FITTED 0
NONE
NONE
15600
12
4.427000
51148
TRUE
1 0 8 72 0 0 0 0

15798

#HDR
-1
-1
#GR
µM
EGY
2.38419e-05
0.0
2.000000
0.002000
12515
8
2.461703
0.006914
#DATA
2.000000	 0.774073
2.084000	 0.859805
2.168000	 0.939778
2.252000	 1.027130
2.336000	 1.145221
2.420000	 1.239739
2.504000	 1.403046
2.588000	 1.456228
2.672000	 1.552460
2.756000	 1.576728
2.840000	 1.635946
2.924000	 1.592360
3.008000	 1.693002
3.092000	 1.793467
3.176000	 1.820612
3.260000	 1.939567
3.344000	 2.039597
3.428000	 1.844940
3.512000	 2.020231
3.596000	 2.224137
3.680000	 2.261773
3.764000	 2.226119
3.848000	 2.233545
3.932000	 2.302508
4.016000	 2.331327
4.100000	 2.294304
4.184000	 2.254422
4.268000	 2.268182
4.352000	 2.348056
4.436000	 2.383918
4.520000	 2.374344
4.604000	 2.343059
4.688000	 2.340467
4.772000	 2.344390
4.856000	 2.389520
4.940000	 2.446037
5.024000	 2.460592
5.108000	 2.431829
5.192000	 2.406908
5.276000	 2.374192
5.359999	 2.382285
5.444000	 2.409395
5.528000	 2.431746
5.612000	 2.430956
5.696000	 2.398250
5.780000	 2.324084
5.864000	 2.279296
5.948000	 2.234878
6.032000	 2.186608
6.116000	 2.137427
6.200000	 2.007381
6.284000	 2.015974
6.368000	 1.978467
6.452000	 1.955841
6.536000	 2.097560
6.620000	 2.078302
6.704000	 1.687991
6.788000	 1.970350
6.872000	 1.788349
6.956000	 1.859457
7.040000	 1.854818
7.124000	 1.727623
7.208000	 1.788394
7.292000	 1.815921
7.376000	 1.815489
7.460000	 1.814866
7.544000	 1.849852
7.628000	 1.857896
7.712000	 1.856933
7.796000	 1.851612
7.880000	 1.775865
7.964000	 1.760831
8.048000	 1.836523
8.132000	 1.828058
8.216000	 1.785574
8.300000	 1.744862
8.384000	 1.740538
8.468000	 1.714402
8.552000	 1.673147
8.635999	 1.623251
8.719999	 1.605667
8.804000	 1.571720
8.888000	 1.523692
8.972000	 1.468754
9.056000	 1.434301
9.140000	 1.421886
9.224000	 1.424804
9.308000	 1.427248
9.391999	 1.439372
9.475999	 1.358927
9.560000	 1.326338
9.644000	 1.386803
9.728000	 1.368719
9.812000	 1.361142
9.896000	 1.381150
9.980000	 1.398964
10.064	1.398427
10.148	1.386374
10.232	1.370809
10.316	1.348380
10.4	1.319696
10.484	1.292336
10.568	1.269631
10.652	1.256872
10.736	1.241732
10.82	1.225297
10.904	1.204845
10.988	1.177730
11.072	1.160828
11.156	1.150113
11.24	1.131309
11.324	1.079436
11.408	1.031812
11.492	1.047350
11.576	1.084814
11.66	1.094524
11.744	1.086219
11.828	1.075770
11.912	1.056558
11.996	0.993163
12.08	0.883926
12.164	0.853434
12.248	0.915573
12.332	0.947685
12.416	0.948536
12.5	0.947451
12.584	0.953879
12.668	0.967066
12.752	0.977345
12.836	0.979226
12.92	0.976033
13.004	0.972410
13.088	0.968769
13.172	0.963999
13.256	0.958682
13.34	0.952508
13.424	0.945138
13.508	0.935478
13.592	0.924649
13.676	0.911986
13.76	0.897603
13.844	0.885156
13.928	0.874008
14.012	0.861927
14.096	0.848704
14.18	0.834356
14.264	0.818082
14.348	0.797611
14.432	0.768719
14.516	0.740332
14.6	0.730584
14.684	0.734387
14.768	0.734480
14.852	0.727630
14.936	0.718696
15.02	0.710483
15.104	0.701995
15.188	0.692940
15.272	0.684109
15.356	0.674750
15.44	0.664272
15.524	0.653784
15.608	0.644353
15.692	0.635799
15.776	0.627539
15.86	0.619064
15.944	0.610473
16.028	0.602155
16.112	0.593296
16.196	0.582211
16.28	0.568052
16.364	0.551713
16.448	0.536415
16.532	0.526906
16.616	0.524388
16.7	0.524843
16.784	0.523771
16.868	0.520211
16.952	0.515689
17.036	0.511516
17.12	0.507847
17.204	0.504541
17.288	0.501719
17.372	0.499681
17.456	0.498377
17.54	0.496684
17.624	0.493480
17.708	0.488413
17.792	0.482434
17.876	0.476697
17.96	0.471864
18.044	0.468018
18.128	0.464790
18.212	0.461374
18.296	0.457173
18.38	0.452279
18.464	0.447174
18.548	0.442365
18.632	0.437879
18.716	0.433302
18.8	0.428046
18.884	0.422080
18.968	0.415693
19.052	0.409482
19.136	0.403816
19.22	0.398460
19.304	0.393121
19.388	0.387777
19.472	0.382674
19.556	0.377940
19.64	0.373275
19.724	0.368157
19.808	0.362149
19.892	0.355342
19.976	0.348185
20.06	0.341038
20.144	0.333889
20.228	0.326641
20.312	0.319390
20.396	0.312310
20.48	0.305453
20.564	0.298700
20.648	0.291695
20.732	0.284183
20.816	0.276398
20.9	0.268796
20.984	0.261861
21.068	0.255914
21.152	0.250956
21.236	0.246552
21.32	0.242173
21.404	0.237305
21.488	0.231673
21.572	0.225261
21.656	0.218249
21.74	0.211117
21.824	0.204135
21.908	0.197502
21.992	0.191238
22.076	0.185306
22.16	0.179794
22.244	0.174793
22.328	0.170354
22.412	0.166353
22.496	0.162533
22.58	0.158556
22.664	0.154284
22.748	0.149650
22.832	0.144783
22.916	0.139835
23	0.134830
23.084	0.129756
23.168	0.124616
23.252	0.119398
23.336	0.114190
23.42	0.109100
23.504	0.104266
23.588	0.099685
23.672	0.095343
23.756	0.091188
23.84	0.087052
23.924	0.082918
24.008	0.078693
24.092	0.074397
24.176	0.070104
24.26	0.065906
24.344	0.061876
24.428	0.058151
24.512	0.054775
24.596	0.051663
24.68	0.048718
24.764	0.045891
24.848	0.043082
24.932	0.040245
25.016	0.037421
25.1	0.034694
25.184	0.032183
25.268	0.029914
25.352	0.028002
25.436	0.026408
25.52	0.025087
25.604	0.024058
25.688	0.023153
25.772	0.022327
25.856	0.021470
25.94	0.020400
26.024	0.019050
26.108	0.017508
26.192	0.015834
26.276	0.014173
26.36	0.012695
26.444	0.011507
26.528	0.010582
26.612	0.009866
26.696	0.009292
26.78	0.008721
26.864	0.008117
26.948	0.007484
27.028	0.006914