File: Bakgrunnsmateriale/MATLAB/FTIR/ftir_data/subAa/Mapping_121/BZ1503107-1_t74.asc
PE IR       SPECTRUM    SPECTRUM    ASCII       PEDS        1.60
  -1
BZ295F~1.ASC
17/04/07
19:20:23.00
17/04/07
19:20:49.00
tln
$BZ1503107-1_t0074$<tbV0>[-5.2,2.6,8.0,0.0,27,1,0]
27.028
64

2002,4.07
MIRTGS : RIGHTBACK : INTERNAL 2
MIR : ON : INTERNAL 2
OPTKBR

0.200000
8
8.000000
FILLER
RATIO
SPECTRUM
UNLOCKED 256

DOUBLE
64
COMBINED
1
0
0

0.002000
RATIO

1
0
TRUE
51149
0
LEFT NOT FITTED RIGHT NOT FITTED 0
NONE
NONE
15600
12
4.427000
51148
TRUE
1 0 8 72 0 0 0 0

15798

#HDR
-1
-1
#GR
µM
%T
2.38419e-05
0.0
2.000000
0.002000
12515
8
136.645
54.6658
#DATA
2.000000	 65.3928
2.084000	 64.3941
2.168000	 65.2918
2.252000	 64.5812
2.336000	 64.866
2.420000	 64.7976
2.504000	 64.7756
2.588000	 65.1914
2.672000	 65.3168
2.756000	 65.0457
2.840000	 65.1254
2.924000	 64.8919
3.008000	 65.1522
3.092000	 66.1028
3.176000	 65.0472
3.260000	 64.8853
3.344000	 64.919
3.428000	 64.9194
3.512000	 64.9652
3.596000	 65.0364
3.680000	 64.7882
3.764000	 64.9109
3.848000	 64.6044
3.932000	 64.7822
4.016000	 64.5894
4.100000	 64.5708
4.184000	 64.5406
4.268000	 64.5471
4.352000	 64.5021
4.436000	 64.6542
4.520000	 64.4201
4.604000	 65.1693
4.688000	 64.6074
4.772000	 64.4604
4.856000	 64.4409
4.940000	 64.3465
5.024000	 64.3499
5.108000	 64.4147
5.192000	 64.3305
5.276000	 64.2448
5.359999	 64.3949
5.444000	 64.0293
5.528000	 64.2234
5.612000	 64.166
5.696000	 64.0508
5.780000	 63.852
5.864000	 63.9003
5.948000	 64.0501
6.032000	 63.9576
6.116000	 63.829
6.200000	 64.2302
6.284000	 63.9493
6.368000	 63.9397
6.452000	 64.0463
6.536000	 63.9406
6.620000	 63.8946
6.704000	 63.5749
6.788000	 63.6341
6.872000	 63.8001
6.956000	 63.8463
7.040000	 63.7895
7.124000	 63.7174
7.208000	 63.7076
7.292000	 63.718
7.376000	 63.565
7.460000	 63.5968
7.544000	 63.9062
7.628000	 63.5333
7.712000	 63.4636
7.796000	 63.5416
7.880000	 63.6269
7.964000	 63.7234
8.048000	 63.6802
8.132000	 63.6508
8.216000	 63.5317
8.300000	 63.6195
8.384000	 63.5709
8.468000	 63.4437
8.552000	 63.4397
8.635999	 63.4479
8.719999	 63.2454
8.804000	 63.5706
8.888000	 63.5283
8.972000	 63.7705
9.056000	 63.8583
9.140000	 63.896
9.224000	 61.1471
9.308000	 61.2691
9.391999	 63.4938
9.475999	 63.1994
9.560000	 63.271
9.644000	 63.3442
9.728000	 63.2541
9.812000	 63.5593
9.896000	 63.893
9.980000	 63.5771
10.064	63.1049
10.148	63.5615
10.232	63.4535
10.316	63.1239
10.4	63.1049
10.484	63.4298
10.568	63.4723
10.652	63.3781
10.736	63.4257
10.82	63.2907
10.904	63.0007
10.988	63.2921
11.072	63.2038
11.156	63.0134
11.24	63.2332
11.324	63.1219
11.408	63.4549
11.492	63.6373
11.576	63.3456
11.66	63.2858
11.744	63.3642
11.828	63.1862
11.912	63.0997
11.996	63.0555
12.08	63.4493
12.164	63.4459
12.248	63.2689
12.332	63.1347
12.416	62.9205
12.5	63.0119
12.584	63.1905
12.668	63.1124
12.752	63.3349
12.836	63.4672
12.92	63.514
13.004	63.1797
13.088	62.9527
13.172	62.9298
13.256	63.1543
13.34	63.4246
13.424	63.227
13.508	63.1826
13.592	63.4472
13.676	63.4971
13.76	63.242
13.844	62.9439
13.928	63.0459
14.012	63.0202
14.096	63.0053
14.18	63.2427
14.264	62.7108
14.348	61.7019
14.432	61.2865
14.516	61.5471
14.6	62.4127
14.684	63.4938
14.768	63.7765
14.852	63.0681
14.936	62.0263
15.02	61.5283
15.104	62.1538
15.188	63.0323
15.272	63.0676
15.356	62.7122
15.44	62.7882
15.524	63.0048
15.608	62.7238
15.692	62.2081
15.776	62.0293
15.86	62.1068
15.944	62.1367
16.028	62.2253
16.112	62.5074
16.196	62.7703
16.28	62.8404
16.364	62.8885
16.448	63.1501
16.532	63.6048
16.616	63.879
16.7	63.6388
16.784	63.0672
16.868	62.5527
16.952	62.2295
17.036	62.1052
17.12	62.1948
17.204	62.3758
17.288	62.4893
17.372	62.5313
17.456	62.5536
17.54	62.5584
17.624	62.5715
17.708	62.7054
17.792	63.028
17.876	63.3898
17.96	63.5378
18.044	63.4018
18.128	63.1435
18.212	62.9067
18.296	62.6942
18.38	62.5201
18.464	62.4686
18.548	62.5453
18.632	62.6266
18.716	62.5883
18.8	62.4249
18.884	62.2487
18.968	62.1743
19.052	62.219
19.136	62.3148
19.22	62.3935
19.304	62.4396
19.388	62.4672
19.472	62.4735
19.556	62.4504
19.64	62.4117
19.724	62.3701
19.808	62.3173
19.892	62.2511
19.976	62.198
20.06	62.184
20.144	62.1977
20.228	62.2031
20.312	62.1841
20.396	62.1555
20.48	62.1366
20.564	62.1205
20.648	62.0975
20.732	62.0868
20.816	62.1235
20.9	62.2172
20.984	62.3251
21.068	62.3806
21.152	62.3429
21.236	62.2299
21.32	62.085
21.404	61.9358
21.488	61.762
21.572	61.5133
21.656	61.1628
21.74	60.7466
21.824	60.3704
21.908	60.1701
21.992	60.2273
22.076	60.5152
22.16	60.9075
22.244	61.2436
22.328	61.4421
22.412	61.5524
22.496	61.7299
22.58	62.1059
22.664	62.6884
22.748	63.3174
22.832	63.7596
22.916	63.8219
23	63.4866
23.084	62.9056
23.168	62.3605
23.252	62.119
23.336	62.3517
23.42	63.0508
23.504	64.0639
23.588	65.147
23.672	66.0565
23.756	66.6156
23.84	66.7831
23.924	66.6463
24.008	66.3496
24.092	66.0195
24.176	65.7175
24.26	65.4045
24.344	64.9703
24.428	64.3075
24.512	63.3357
24.596	62.1329
24.68	60.898
24.764	59.8488
24.848	59.236
24.932	59.2303
25.016	59.8066
25.1	60.7677
25.184	61.7132
25.268	62.2029
25.352	61.9477
25.436	60.9187
25.52	59.446
25.604	58.0992
25.688	57.4684
25.772	57.8095
25.856	58.923
25.94	60.4381
26.024	62.0256
26.108	63.6056
26.192	65.5314
26.276	68.52
26.36	73.33
26.444	80.5116
26.528	90.062
26.612	101.53
26.696	113.7
26.78	124.696
26.864	132.634
26.948	136.385
27.028	136.274