File: Bakgrunnsmateriale/MATLAB/FTIR/ftir_data/subAa/Mapping_121/BZ1503107-1_t92.asc
PE IR       SPECTRUM    SPECTRUM    ASCII       PEDS        1.60
  -1
BZ315B~1.ASC
17/04/07
20:50:37.00
17/04/07
20:51:03.00
tln
$BZ1503107-1_t0092$<tbV0>[5.2,7.8,8.0,0.0,27,1,0]
27.028
64

2002,4.07
MIRTGS : RIGHTBACK : INTERNAL 2
MIR : ON : INTERNAL 2
OPTKBR

0.200000
8
8.000000
FILLER
RATIO
SPECTRUM
UNLOCKED 256

DOUBLE
64
COMBINED
1
0
0

0.002000
RATIO

1
0
TRUE
51149
0
LEFT NOT FITTED RIGHT NOT FITTED 0
NONE
NONE
15600
12
4.427000
51148
TRUE
1 0 8 72 0 0 0 0

15798

#HDR
-1
-1
#GR
µM
%T
2.38419e-05
0.0
2.000000
0.002000
12515
8
78.5294
60.0703
#DATA
2.000000	 64.8235
2.084000	 64.7721
2.168000	 65.302
2.252000	 68.3599
2.336000	 64.9885
2.420000	 65.2058
2.504000	 65.1096
2.588000	 65.1978
2.672000	 65.1729
2.756000	 65.2011
2.840000	 65.1949
2.924000	 65.0368
3.008000	 64.8212
3.092000	 65.0184
3.176000	 64.8228
3.260000	 64.7729
3.344000	 64.7784
3.428000	 64.8696
3.512000	 64.7547
3.596000	 64.9445
3.680000	 64.854
3.764000	 64.7954
3.848000	 64.6638
3.932000	 64.5593
4.016000	 64.7714
4.100000	 64.5967
4.184000	 64.5237
4.268000	 64.5416
4.352000	 64.5319
4.436000	 64.4923
4.520000	 64.4706
4.604000	 64.4086
4.688000	 64.3921
4.772000	 64.3956
4.856000	 64.4507
4.940000	 64.2516
5.024000	 64.4083
5.108000	 64.2005
5.192000	 64.1266
5.276000	 64.2521
5.359999	 64.117
5.444000	 64.2058
5.528000	 64.1234
5.612000	 64.0115
5.696000	 63.8799
5.780000	 63.7039
5.864000	 63.9097
5.948000	 63.8518
6.032000	 63.8634
6.116000	 63.8918
6.200000	 63.9001
6.284000	 63.9476
6.368000	 63.8089
6.452000	 63.6118
6.536000	 63.6243
6.620000	 63.7667
6.704000	 63.7048
6.788000	 63.7372
6.872000	 63.5311
6.956000	 63.6346
7.040000	 63.6055
7.124000	 63.732
7.208000	 63.4205
7.292000	 63.5633
7.376000	 63.6377
7.460000	 63.4195
7.544000	 63.5033
7.628000	 63.5259
7.712000	 63.5186
7.796000	 63.4268
7.880000	 63.2956
7.964000	 63.3623
8.048000	 63.3476
8.132000	 63.2982
8.216000	 63.4393
8.300000	 63.2637
8.384000	 63.2942
8.468000	 63.082
8.552000	 63.0272
8.635999	 63.0892
8.719999	 63.2048
8.804000	 63.1818
8.888000	 63.1823
8.972000	 63.2359
9.056000	 63.0678
9.140000	 63.102
9.224000	 63.1068
9.308000	 63.2308
9.391999	 63.1487
9.475999	 63.1011
9.560000	 63.0371
9.644000	 63.1431
9.728000	 63.1368
9.812000	 62.9727
9.896000	 63.0557
9.980000	 62.9817
10.064	62.986
10.148	63.1827
10.232	63.3308
10.316	63.0892
10.4	63.0547
10.484	63.0142
10.568	63.0489
10.652	63.0855
10.736	63.0387
10.82	63.0424
10.904	62.9892
10.988	62.9864
11.072	62.9728
11.156	62.8288
11.24	62.7864
11.324	62.8906
11.408	62.8783
11.492	63.0912
11.576	63.0032
11.66	62.8875
11.744	63.0006
11.828	62.987
11.912	62.9513
11.996	62.9194
12.08	62.8606
12.164	62.8654
12.248	62.8627
12.332	62.8781
12.416	62.9131
12.5	63.0117
12.584	63.206
12.668	63.1671
12.752	63.0795
12.836	62.845
12.92	62.5648
13.004	62.66
13.088	62.7467
13.172	62.666
13.256	62.6859
13.34	62.7417
13.424	62.8066
13.508	62.9757
13.592	63.0604
13.676	62.9846
13.76	62.8595
13.844	62.7259
13.928	62.6899
14.012	62.6852
14.096	62.6603
14.18	62.7175
14.264	62.7122
14.348	62.5533
14.432	62.5507
14.516	62.6712
14.6	62.6038
14.684	62.3833
14.768	62.2652
14.852	62.3885
14.936	62.4497
15.02	62.2738
15.104	62.1603
15.188	62.1518
15.272	62.1333
15.356	62.2661
15.44	62.5966
15.524	62.8667
15.608	62.8984
15.692	62.7798
15.776	62.593
15.86	62.3641
15.944	62.2288
16.028	62.2316
16.112	62.2418
16.196	62.2129
16.28	62.2428
16.364	62.4183
16.448	62.6469
16.532	62.6961
16.616	62.5465
16.7	62.4302
16.784	62.4375
16.868	62.4946
16.952	62.5853
17.036	62.6636
17.12	62.5848
17.204	62.3369
17.288	62.1383
17.372	62.2032
17.456	62.5098
17.54	62.81
17.624	62.8505
17.708	62.6304
17.792	62.3993
17.876	62.3782
17.96	62.5599
18.044	62.7989
18.128	62.9449
18.212	62.8913
18.296	62.6027
18.38	62.1554
18.464	61.7
18.548	61.3613
18.632	61.1961
18.716	61.2215
18.8	61.417
18.884	61.6872
18.968	61.8694
19.052	61.8395
19.136	61.5948
19.22	61.26
19.304	61.0254
19.388	61.0457
19.472	61.3293
19.556	61.7217
19.64	61.9949
19.724	61.9613
19.808	61.5787
19.892	60.9808
19.976	60.4323
20.06	60.1967
20.144	60.4173
20.228	61.057
20.312	61.8931
20.396	62.5967
20.48	62.8743
20.564	62.6292
20.648	62.029
20.732	61.425
20.816	61.1549
20.9	61.3505
20.984	61.8826
21.068	62.4472
21.152	62.7376
21.236	62.6182
21.32	62.1973
21.404	61.7556
21.488	61.5538
21.572	61.6743
21.656	62.0106
21.74	62.3727
21.824	62.6286
21.908	62.761
21.992	62.7967
22.076	62.7342
22.16	62.5465
22.244	62.2576
22.328	61.9839
22.412	61.868
22.496	61.9659
22.58	62.2068
22.664	62.4494
22.748	62.5744
22.832	62.5653
22.916	62.4867
23	62.4098
23.084	62.3613
23.168	62.3202
23.252	62.2591
23.336	62.1832
23.42	62.1379
23.504	62.1738
23.588	62.2998
23.672	62.4754
23.756	62.6319
23.84	62.6819
23.924	62.5624
24.008	62.2476
24.092	61.7534
24.176	61.1581
24.26	60.5817
24.344	60.1786
24.428	60.0803
24.512	60.3629
24.596	60.9757
24.68	61.748
24.764	62.4506
24.848	62.8782
24.932	62.9414
25.016	62.7335
25.1	62.4819
25.184	62.5055
25.268	63.0705
25.352	64.288
25.436	66.0867
25.52	68.2289
25.604	70.4191
25.688	72.4144
25.772	74.1168
25.856	75.5567
25.94	76.7732
26.024	77.7464
26.108	78.3782
26.192	78.4943
26.276	77.9054
26.36	76.5199
26.444	74.4
26.528	71.7698
26.612	68.9122
26.696	66.1584
26.78	63.84
26.864	62.1969
26.948	61.326
27.028	61.1791