File: Bakgrunnsmateriale/MATLAB/FTIR/ftir_data/subAa/Mapping_121/BZ1503107-1_t110.asc
PE IR       SPECTRUM    SPECTRUM    ASCII       PEDS        1.60
  -1
BZCAB2~1.ASC
17/04/07
22:14:24.00
17/04/07
22:14:50.00
tln
$BZ1503107-1_t0110$<tbV0>[-13.0,10.4,8.0,0.0,27,1,0]
27.028
64

2002,4.07
MIRTGS : RIGHTBACK : INTERNAL 2
MIR : ON : INTERNAL 2
OPTKBR

0.200000
8
8.000000
FILLER
RATIO
SPECTRUM
UNLOCKED 256

DOUBLE
64
COMBINED
1
0
0

0.002000
RATIO

1
0
TRUE
51149
0
LEFT NOT FITTED RIGHT NOT FITTED 0
NONE
NONE
15600
12
4.427000
51148
TRUE
1 0 8 72 0 0 0 0

15798

#HDR
-1
-1
#GR
µM
%T
2.38419e-05
0.0
2.000000
0.002000
12515
8
91.0606
57.6791
#DATA
2.000000	 64.329
2.084000	 64.8944
2.168000	 64.527
2.252000	 91.0606
2.336000	 64.4396
2.420000	 65.106
2.504000	 64.8663
2.588000	 65.006
2.672000	 64.8249
2.756000	 65.1451
2.840000	 64.9047
2.924000	 65.0231
3.008000	 64.9344
3.092000	 64.8948
3.176000	 64.7228
3.260000	 64.7066
3.344000	 64.7948
3.428000	 64.627
3.512000	 64.4526
3.596000	 64.7323
3.680000	 64.8319
3.764000	 64.6157
3.848000	 64.5621
3.932000	 64.4459
4.016000	 64.6491
4.100000	 64.506
4.184000	 64.5469
4.268000	 64.3776
4.352000	 64.506
4.436000	 64.4045
4.520000	 64.3605
4.604000	 64.3609
4.688000	 64.2734
4.772000	 64.305
4.856000	 64.3313
4.940000	 64.1817
5.024000	 64.2123
5.108000	 64.208
5.192000	 64.0361
5.276000	 64.095
5.359999	 64.0569
5.444000	 64.0932
5.528000	 64.0155
5.612000	 63.7716
5.696000	 63.7288
5.780000	 63.5418
5.864000	 63.74
5.948000	 63.7496
6.032000	 63.741
6.116000	 63.7105
6.200000	 63.7447
6.284000	 63.7331
6.368000	 63.5433
6.452000	 63.4588
6.536000	 63.5526
6.620000	 63.5179
6.704000	 63.6681
6.788000	 63.4366
6.872000	 63.36
6.956000	 63.4126
7.040000	 63.3824
7.124000	 63.4226
7.208000	 63.3354
7.292000	 63.2292
7.376000	 63.2905
7.460000	 63.2954
7.544000	 63.3195
7.628000	 63.2717
7.712000	 63.0955
7.796000	 63.1763
7.880000	 63.0683
7.964000	 63.2112
8.048000	 63.1388
8.132000	 63.0454
8.216000	 63.1778
8.300000	 63.073
8.384000	 63.0783
8.468000	 63.0079
8.552000	 62.8728
8.635999	 63.0644
8.719999	 63.09
8.804000	 63.0093
8.888000	 63.0419
8.972000	 62.9752
9.056000	 63.0464
9.140000	 63.0357
9.224000	 62.8893
9.308000	 62.8892
9.391999	 63.0059
9.475999	 62.9431
9.560000	 62.8674
9.644000	 62.8964
9.728000	 62.9518
9.812000	 62.8275
9.896000	 62.8388
9.980000	 62.8994
10.064	62.9277
10.148	62.9035
10.232	62.9162
10.316	62.8915
10.4	62.746
10.484	62.8781
10.568	63.0161
10.652	63.0192
10.736	62.9611
10.82	63.0717
10.904	63.0151
10.988	62.8833
11.072	62.6115
11.156	62.479
11.24	62.6703
11.324	62.7096
11.408	62.7497
11.492	62.9936
11.576	62.8348
11.66	62.6456
11.744	62.6824
11.828	62.7125
11.912	62.6639
11.996	62.6889
12.08	62.7442
12.164	62.9679
12.248	63.0397
12.332	62.8502
12.416	62.8129
12.5	62.9298
12.584	63.0536
12.668	63.0023
12.752	62.9073
12.836	62.694
12.92	62.5903
13.004	62.5993
13.088	62.6341
13.172	62.688
13.256	62.7103
13.34	62.8211
13.424	62.8857
13.508	62.7487
13.592	62.6193
13.676	62.6364
13.76	62.6773
13.844	62.6587
13.928	62.4738
14.012	62.2373
14.096	62.2145
14.18	62.2148
14.264	62.1459
14.348	62.0711
14.432	62.1153
14.516	62.2415
14.6	62.2635
14.684	62.2127
14.768	62.2998
14.852	62.4925
14.936	62.5139
15.02	62.4357
15.104	62.4853
15.188	62.5432
15.272	62.5036
15.356	62.4769
15.44	62.5436
15.524	62.6773
15.608	62.7693
15.692	62.697
15.776	62.4556
15.86	62.1512
15.944	61.9365
16.028	61.9279
16.112	62.0183
16.196	61.9401
16.28	61.7135
16.364	61.7222
16.448	62.0648
16.532	62.2973
16.616	62.2165
16.7	62.2128
16.784	62.4527
16.868	62.578
16.952	62.4648
17.036	62.3964
17.12	62.4145
17.204	62.3192
17.288	62.2187
17.372	62.381
17.456	62.7019
17.54	62.8589
17.624	62.8196
17.708	62.7814
17.792	62.7692
17.876	62.6281
17.96	62.3739
18.044	62.236
18.128	62.319
18.212	62.439
18.296	62.3515
18.38	62.03
18.464	61.7023
18.548	61.6509
18.632	61.9582
18.716	62.4324
18.8	62.7762
18.884	62.8324
18.968	62.6754
19.052	62.505
19.136	62.4174
19.22	62.3341
19.304	62.1559
19.388	61.9452
19.472	61.8828
19.556	62.0602
19.64	62.3487
19.724	62.4982
19.808	62.3524
19.892	61.9575
19.976	61.5115
20.06	61.232
20.144	61.2226
20.228	61.4432
20.312	61.7727
20.396	62.098
20.48	62.3363
20.564	62.424
20.648	62.3337
20.732	62.1203
20.816	61.9112
20.9	61.8137
20.984	61.8082
21.068	61.7343
21.152	61.4162
21.236	60.8301
21.32	60.1553
21.404	59.6697
21.488	59.5524
21.572	59.7783
21.656	60.1702
21.74	60.5352
21.824	60.7818
21.908	60.9273
21.992	60.9966
22.076	60.9552
22.16	60.7352
22.244	60.3357
22.328	59.8804
22.412	59.5561
22.496	59.5016
22.58	59.7277
22.664	60.1388
22.748	60.5914
22.832	60.9804
22.916	61.2503
23	61.382
23.084	61.3746
23.168	61.2391
23.252	61.008
23.336	60.7496
23.42	60.5529
23.504	60.5041
23.588	60.6366
23.672	60.9139
23.756	61.2398
23.84	61.4932
23.924	61.5599
24.008	61.3601
24.092	60.8669
24.176	60.1257
24.26	59.258
24.344	58.4513
24.428	57.8885
24.512	57.7116
24.596	57.9381
24.68	58.4674
24.764	59.1318
24.848	59.7717
24.932	60.3117
25.016	60.7939
25.1	61.334
25.184	62.0192
25.268	62.8332
25.352	63.6693
25.436	64.3635
25.52	64.7783
25.604	64.8655
25.688	64.716
25.772	64.5079
25.856	64.3953
25.94	64.444
26.024	64.6053
26.108	64.7412
26.192	64.7035
26.276	64.3797
26.36	63.7363
26.444	62.8025
26.528	61.6679
26.612	60.3915
26.696	59.119
26.78	58.0975
26.864	57.6791
26.948	58.2034
27.028	59.7376