File: Bakgrunnsmateriale/MATLAB/FTIR/ftir_data/subAa/Mapping_121/BZ1503107-1_t69_cm-1.asc
PE IR       SPECTRUM    SPECTRUM    ASCII       PEDS        1.60
  -1
BZ6131~1.ASC
17/04/07
18:57:17.00
17/04/07
18:57:17.00
tln
$BZ1503107-1_t0069$<tbV0>[7.8,2.6,8.0,0.0,27,1,0]
370
64

2002,4.07
MIRTGS : RIGHTBACK : INTERNAL 2
MIR : ON : INTERNAL 2
OPTKBR

0.200000
8
8.000000
FILLER
RATIO
SPECTRUM
UNLOCKED 256

DOUBLE
64
COMBINED
1
0
0

1.000000
RATIO

1
0
TRUE
51149
0
LEFT NOT FITTED RIGHT NOT FITTED 0
NONE
NONE
15600
12
4.427000
51148
TRUE
1 0 8 72 0 0 0 0

15798

#HDR
-1
-1
#GR
CM-1
%T
2.38419e-05
0.0
5000
-1.000000
4631
8
66.3816
46.2795
#DATA
5000	65.3958
4984	65.5225
4968	65.304
4952	64.8978
4936	64.9723
4920	64.7635
4904	65.2567
4888	64.8805
4872	65.3219
4856	64.6807
4840	64.7123
4824	64.9781
4808	64.4945
4792	64.3352
4776	64.4634
4760	64.8029
4744	64.8533
4728	64.7181
4712	64.8298
4696	64.6881
4680	64.49
4664	65.0096
4648	64.453
4632	64.9786
4616	65.3117
4600	64.9858
4584	64.9966
4568	65.1917
4552	65.0123
4536	65.0499
4520	65.5443
4504	65.6651
4488	65.957
4472	65.59
4456	64.2301
4440	64.5971
4424	54.8779
4408	65.8991
4392	66.0928
4376	65.8689
4360	65.7739
4344	65.4416
4328	65.7457
4312	65.2721
4296	64.9617
4280	65.2212
4264	65.3458
4248	65.1486
4232	64.9005
4216	64.8898
4200	65.0756
4184	64.7049
4168	65.1437
4152	64.9257
4136	64.5597
4120	65.0025
4104	65.1337
4088	64.948
4072	64.787
4056	65.0681
4040	65.0736
4024	64.8375
4008	65.0613
3992	64.8925
3976	65.3436
3960	64.8931
3944	65.066
3928	64.7784
3912	64.9527
3896	65.2463
3880	64.8771
3864	65.1603
3848	65.0311
3832	65.1119
3816	65.2724
3800	65.2529
3784	65.2068
3768	64.9994
3752	65.1813
3736	64.9844
3720	65.0462
3704	65.0183
3688	65.0514
3672	65.3499
3656	64.9477
3640	65.093
3624	65.021
3608	65.1181
3592	65.1316
3576	65.0354
3560	64.9861
3544	65.1554
3528	65.2197
3512	65.2338
3496	64.9959
3480	64.9265
3464	65.0604
3448	65.1452
3432	64.8772
3416	65.0608
3400	65.0321
3384	65.0635
3368	65.1052
3352	65.0501
3336	64.8746
3320	64.8733
3304	65.1172
3288	64.8641
3272	64.8636
3256	64.9566
3240	64.768
3224	65.0214
3208	64.9193
3192	65.1445
3176	64.885
3160	64.9531
3144	65.1188
3128	64.8943
3112	64.9266
3096	64.9822
3080	64.8977
3064	65.0578
3048	65.0299
3032	64.7376
3016	64.8223
3000	65.0334
2984	64.8839
2968	64.7423
2952	64.7525
2936	64.8644
2920	64.7984
2904	64.8887
2888	64.8359
2872	64.83
2856	64.7733
2840	64.782
2824	64.8555
2808	64.9673
2792	64.8424
2776	64.9156
2760	64.9732
2744	64.8665
2728	64.9814
2712	64.8527
2696	64.8441
2680	64.9002
2664	64.82
2648	64.8253
2632	64.8631
2616	64.8632
2600	64.7213
2584	64.7503
2568	64.8441
2552	64.6597
2536	64.804
2520	64.8505
2504	64.7867
2488	64.7825
2472	64.7871
2456	64.8716
2440	64.7746
2424	64.8011
2408	64.6853
2392	64.5739
2376	64.7319
2360	64.6053
2344	64.7018
2328	64.7173
2312	64.7124
2296	64.6077
2280	64.6168
2264	64.7287
2248	64.5658
2232	64.6557
2216	64.6051
2200	64.578
2184	64.6045
2168	64.5779
2152	64.6487
2136	64.6415
2120	64.5326
2104	64.533
2088	64.5047
2072	64.4732
2056	64.5189
2040	64.4781
2024	64.5158
2008	64.4522
1992	64.3717
1976	64.4533
1960	64.4502
1944	64.4373
1928	64.4088
1912	64.4173
1896	64.233
1880	64.4149
1864	64.3452
1848	64.4195
1832	64.22
1816	64.3176
1800	64.2482
1784	64.2542
1768	64.3311
1752	64.0952
1736	64.1479
1720	64.1748
1704	64.0711
1688	64.0864
1672	64.1004
1656	64.0914
1640	64.0834
1624	64.1927
1608	64.0007
1592	63.9984
1576	63.9438
1560	63.8687
1544	64.0246
1528	63.9226
1512	64.0318
1496	63.8529
1480	63.8643
1464	63.8453
1448	63.9397
1432	64.0816
1416	63.9265
1400	63.9031
1384	63.8464
1368	63.8877
1352	63.7465
1336	63.8812
1320	63.8114
1304	63.7875
1288	63.8101
1272	63.659
1256	63.7256
1240	63.6856
1224	63.8034
1208	63.6643
1192	63.6671
1176	63.4856
1160	63.6468
1144	63.6253
1128	63.585
1112	63.7909
1096	63.6117
1080	63.6117
1064	63.6382
1048	63.8254
1032	63.5559
1016	63.4763
1000	63.7432
984	 63.6698
968	 63.5798
952	 63.3954
936	 63.4824
920	 63.4803
904	 63.6211
888	 63.6766
872	 63.7354
856	 63.4893
840	 63.4064
824	 63.6337
808	 63.4598
792	 63.4202
776	 63.5422
760	 63.2856
744	 63.0545
728	 62.8351
712	 63.4064
696	 62.5191
680	 63.0627
664	 63.0525
648	 63.166
632	 62.9311
616	 62.8097
600	 63.4848
584	 62.6587
568	 63.1213
552	 63.0475
536	 63.2231
520	 62.7482
504	 62.8545
488	 62.6533
472	 61.9726
456	 61.5569
440	 63.1568
424	 62.4949
408	 62.8314
392	 54.8205
376	 50.0652
370	 66.3275