File: Bakgrunnsmateriale/MATLAB/FTIR/ftir_data/subAa/Mapping_121/BZ1503107-1_t01_cm-1.asc
PE IR       SPECTRUM    SPECTRUM    ASCII       PEDS        1.60
  -1
BZ1503~3.ASC
17/04/07
13:20:30.00
17/04/07
13:20:30.00
tln
$BZ1503107-1_t0001$<tbV0>[13.0,-13.0,8.0,0.0,27,1,0]
370
64

2002,4.07
MIRTGS : RIGHTBACK : INTERNAL 2
MIR : ON : INTERNAL 2
OPTKBR

0.200000
8
8.000000
FILLER
RATIO
SPECTRUM
UNLOCKED 256

DOUBLE
64
COMBINED
1
0
0

1.000000
RATIO

1
0
TRUE
51149
0
LEFT NOT FITTED RIGHT NOT FITTED 0
NONE
NONE
15600
12
4.427000
51148
TRUE
1 0 8 72 0 0 0 0

15798

#HDR
-1
-1
#GR
CM-1
%T
2.38419e-05
0.0
5000
-1.000000
4631
8
109.6
41.8679
#DATA
5000	65.3366
4984	64.5979
4968	64.3287
4952	65.0338
4936	64.8546
4920	65.3629
4904	65.0283
4888	64.5375
4872	64.1431
4856	64.2826
4840	65.5128
4824	63.7036
4808	65.4245
4792	64.2516
4776	65.3901
4760	64.9213
4744	64.6391
4728	64.6293
4712	64.2423
4696	64.4834
4680	64.8527
4664	64.9813
4648	64.9414
4632	64.9333
4616	64.6528
4600	65.3401
4584	65.6537
4568	65.241
4552	64.7901
4536	65.0983
4520	64.9369
4504	65.6779
4488	67.7379
4472	62.5103
4456	58.9083
4440	65.7604
4424	65.3414
4408	65.9009
4392	65.2709
4376	65.0345
4360	65.0255
4344	65.3696
4328	64.9877
4312	65.3794
4296	65.0169
4280	65.0591
4264	65.0306
4248	65.0322
4232	65.2667
4216	64.9779
4200	65.1531
4184	65.1557
4168	64.7509
4152	64.8537
4136	64.9303
4120	64.9854
4104	65.1808
4088	65.3153
4072	65.2694
4056	65.0735
4040	65.034
4024	64.899
4008	65.1112
3992	65.0142
3976	65.2442
3960	65.0978
3944	65.5681
3928	65.1638
3912	65.1501
3896	65.1967
3880	65.0788
3864	65.0453
3848	65.1539
3832	65.2929
3816	65.0486
3800	65.2665
3784	65.0874
3768	65.0506
3752	65.2855
3736	65.2924
3720	65.1728
3704	65.0913
3688	65.1016
3672	65.5644
3656	65.153
3640	65.0956
3624	65.3239
3608	65.1866
3592	65.1443
3576	65.2285
3560	65.0001
3544	64.9982
3528	65.0423
3512	65.1344
3496	65.0365
3480	65.1145
3464	65.0327
3448	65.0621
3432	65.328
3416	65.195
3400	64.9707
3384	65.1309
3368	65.1345
3352	64.915
3336	65.1979
3320	65.2506
3304	65.0617
3288	65.0103
3272	65.0439
3256	65.019
3240	64.993
3224	65.0525
3208	65.1381
3192	65.0569
3176	65.0285
3160	65.1148
3144	65.0635
3128	65.2155
3112	65.128
3096	65.1999
3080	65.133
3064	65.2108
3048	65.1155
3032	65.2068
3016	65.1721
3000	65.0868
2984	65.2277
2968	65.1475
2952	65.1343
2936	64.9368
2920	64.8575
2904	64.9528
2888	65.057
2872	65.0454
2856	64.9829
2840	65.0358
2824	65.0572
2808	65.0569
2792	65.0312
2776	65.1074
2760	65.0721
2744	65.1246
2728	65.0842
2712	65.082
2696	65.125
2680	65.1419
2664	64.8967
2648	65.1265
2632	65.1021
2616	64.9726
2600	64.9802
2584	65.1191
2568	65.0835
2552	65.027
2536	65.0694
2520	65.1101
2504	65.0058
2488	65.0633
2472	65.0644
2456	65.0262
2440	65.0091
2424	64.9782
2408	65.0647
2392	65.1108
2376	65.0573
2360	65.0717
2344	65.0271
2328	64.8868
2312	64.972
2296	64.9293
2280	64.9138
2264	65.0196
2248	64.9524
2232	64.8616
2216	64.8684
2200	64.9254
2184	64.9032
2168	65.0945
2152	64.665
2136	64.977
2120	64.9444
2104	64.8215
2088	64.9355
2072	64.8742
2056	64.9133
2040	64.7933
2024	64.9523
2008	64.9605
1992	64.8212
1976	64.88
1960	64.9313
1944	64.8475
1928	64.8187
1912	64.8472
1896	64.9172
1880	64.7922
1864	64.9103
1848	64.8461
1832	64.7655
1816	64.948
1800	64.783
1784	64.7502
1768	64.8089
1752	64.6638
1736	64.6415
1720	64.6007
1704	64.7435
1688	64.5388
1672	64.6993
1656	64.718
1640	64.5475
1624	64.6873
1608	64.6002
1592	64.6001
1576	64.7858
1560	64.6843
1544	64.6253
1528	64.6335
1512	64.5847
1496	64.7485
1480	64.6668
1464	64.5945
1448	64.5458
1432	64.7139
1416	64.4794
1400	64.5309
1384	64.5183
1368	64.5684
1352	64.5111
1336	64.6291
1320	64.4141
1304	64.4
1288	64.5041
1272	64.3491
1256	64.2921
1240	64.1863
1224	64.3833
1208	64.3301
1192	64.3131
1176	64.1408
1160	64.3256
1144	64.132
1128	64.4162
1112	64.2002
1096	64.4091
1080	64.3871
1064	64.2494
1048	64.2186
1032	64.3136
1016	64.1458
1000	64.3376
984	 64.2698
968	 64.2524
952	 64.2998
936	 64.1911
920	 64.4055
904	 64.0976
888	 64.327
872	 64.2815
856	 64.1825
840	 64.3981
824	 64.1284
808	 64.1895
792	 64.2424
776	 64.348
760	 64.1042
744	 63.9797
728	 64.1309
712	 64.1124
696	 64.1065
680	 64.151
664	 64.137
648	 64.2478
632	 64.1686
616	 63.9766
600	 63.7863
584	 64.1206
568	 64.2176
552	 64.0429
536	 64.302
520	 64.5154
504	 64.5401
488	 64.6669
472	 64.3912
456	 63.6216
440	 64.0683
424	 63.925
408	 68.3642
392	 67.3865
376	 55.7326
370	 109.6