File: Bakgrunnsmateriale/MATLAB/FTIR/ftir_data/subAa/Mapping_121/BZ1503107-1_t26_cm-1.asc
PE IR       SPECTRUM    SPECTRUM    ASCII       PEDS        1.60
  -1
BZ6E23~1.ASC
17/04/07
15:23:42.00
17/04/07
15:23:42.00
tln
$BZ1503107-1_t0026$<tbV0>[5.2,-7.8,8.0,0.0,27,1,0]
370
64

2002,4.07
MIRTGS : RIGHTBACK : INTERNAL 2
MIR : ON : INTERNAL 2
OPTKBR

0.200000
8
8.000000
FILLER
RATIO
SPECTRUM
UNLOCKED 256

DOUBLE
64
COMBINED
1
0
0

1.000000
RATIO

1
0
TRUE
51149
0
LEFT NOT FITTED RIGHT NOT FITTED 0
NONE
NONE
15600
12
4.427000
51148
TRUE
1 0 8 72 0 0 0 0

15798

#HDR
-1
-1
#GR
CM-1
%T
2.38419e-05
0.0
5000
-1.000000
4631
8
83.3973
41.6247
#DATA
5000	66.1422
4984	64.9889
4968	64.3999
4952	64.6713
4936	64.2865
4920	65.4585
4904	65.2072
4888	64.6235
4872	64.8214
4856	65.0988
4840	64.7674
4824	64.9641
4808	64.6814
4792	64.7953
4776	64.5243
4760	64.8147
4744	64.7686
4728	64.8746
4712	65.2853
4696	64.9669
4680	65.1511
4664	64.7142
4648	64.8419
4632	64.7975
4616	64.7352
4600	64.9343
4584	64.7747
4568	65.4653
4552	65.057
4536	65.7961
4520	65.6137
4504	65.8799
4488	65.6463
4472	65.3671
4456	65.7736
4440	65.1745
4424	41.6247
4408	67.4942
4392	65.9714
4376	65.7782
4360	64.8254
4344	65.5297
4328	64.9164
4312	65.449
4296	65.2967
4280	65.0876
4264	65.2575
4248	65.0223
4232	65.0663
4216	64.9348
4200	65.1859
4184	64.9541
4168	65.4192
4152	65.0425
4136	64.6941
4120	64.9264
4104	65.173
4088	64.7104
4072	64.96
4056	64.9136
4040	65.3328
4024	64.9464
4008	65.3055
3992	65.5057
3976	65.0831
3960	65.1234
3944	65.0575
3928	64.9919
3912	65.4866
3896	65.0971
3880	65.0558
3864	64.9625
3848	65.1541
3832	65.0208
3816	65.2975
3800	65.1654
3784	64.9975
3768	65.0581
3752	65.0553
3736	65.1118
3720	65.354
3704	65.1073
3688	65.0462
3672	65.0828
3656	65.1744
3640	65.0815
3624	65.2495
3608	65.401
3592	65.2745
3576	65.0685
3560	65.0118
3544	65.3113
3528	65.0695
3512	65.1955
3496	65.1095
3480	65.158
3464	65.0675
3448	65.0854
3432	65.2233
3416	65.1817
3400	65.3484
3384	65.3289
3368	65.0871
3352	65.3792
3336	65.2959
3320	65.1219
3304	64.9916
3288	65.0246
3272	65.0165
3256	65.0505
3240	65.1375
3224	65.1014
3208	65.0992
3192	64.9435
3176	65.0581
3160	65.2691
3144	64.9518
3128	64.9475
3112	65.077
3096	65.221
3080	65.2051
3064	65.1869
3048	65.1168
3032	64.9768
3016	65.2131
3000	65.1093
2984	65.0308
2968	64.9127
2952	65.1044
2936	64.9305
2920	64.9826
2904	65.1498
2888	65.0454
2872	65.0936
2856	64.9682
2840	65.0311
2824	65.189
2808	65.0514
2792	65.1037
2776	65.0535
2760	65.0672
2744	65.0552
2728	64.9628
2712	64.9265
2696	65.0942
2680	65.0213
2664	65.0641
2648	65.1022
2632	64.9849
2616	64.9772
2600	64.9979
2584	64.9606
2568	65.029
2552	65.094
2536	65.0851
2520	64.947
2504	65.1408
2488	64.9328
2472	64.9359
2456	64.8784
2440	64.908
2424	64.8588
2408	64.8804
2392	65.0508
2376	64.8055
2360	64.9441
2344	64.9146
2328	64.8802
2312	64.9565
2296	64.8444
2280	64.8691
2264	64.8704
2248	64.9562
2232	64.9247
2216	64.9009
2200	65.0227
2184	64.8897
2168	65.0203
2152	64.8929
2136	64.8995
2120	64.8941
2104	64.7737
2088	64.8133
2072	64.9351
2056	64.7199
2040	64.7085
2024	64.8493
2008	64.8613
1992	64.7433
1976	64.8201
1960	64.7283
1944	64.831
1928	64.7437
1912	64.7784
1896	64.7367
1880	64.6831
1864	64.8135
1848	64.773
1832	64.7405
1816	64.6641
1800	64.7581
1784	64.7291
1768	64.5631
1752	64.5416
1736	64.1788
1720	64.4127
1704	64.603
1688	64.7526
1672	64.6335
1656	64.4935
1640	64.4679
1624	64.4447
1608	64.5339
1592	64.421
1576	64.5365
1560	64.6796
1544	64.4447
1528	64.4158
1512	64.5133
1496	64.4725
1480	64.5354
1464	64.3341
1448	64.4713
1432	64.2778
1416	64.4205
1400	64.3109
1384	64.2668
1368	64.2764
1352	64.2493
1336	64.3524
1320	64.4509
1304	64.2512
1288	64.3186
1272	64.1851
1256	64.1535
1240	64.1574
1224	63.9676
1208	64.172
1192	64.161
1176	64.145
1160	64.0326
1144	64.0474
1128	63.8727
1112	64.2135
1096	63.9705
1080	64.0371
1064	64.1315
1048	64.2927
1032	64.0449
1016	64.1834
1000	64.258
984	 64.2524
968	 64.2691
952	 64.2786
936	 64.3608
920	 64.1017
904	 64.0507
888	 64.1461
872	 64.2171
856	 64.4098
840	 64.1264
824	 64.2818
808	 63.8015
792	 64.2049
776	 64.1092
760	 63.7132
744	 63.799
728	 64.2185
712	 63.7659
696	 63.5612
680	 63.5832
664	 63.622
648	 62.7597
632	 64.4327
616	 62.9373
600	 63.6469
584	 63.8394
568	 64.5642
552	 63.9965
536	 63.1599
520	 63.45
504	 64.5252
488	 64.3897
472	 63.9306
456	 63.8206
440	 62.5307
424	 64.3603
408	 64.8359
392	 81.2775
376	 80.723
370	 70.744