File: Bakgrunnsmateriale/MATLAB/FTIR/ftir_data/subAa/Mapping_121/BZ1503107-1_t55_cm-1.asc
PE IR       SPECTRUM    SPECTRUM    ASCII       PEDS        1.60
  -1
BZ6DA3~1.ASC
17/04/07
17:45:15.00
17/04/07
17:45:15.00
tln
$BZ1503107-1_t0055$<tbV0>[-13.0,-2.6,8.0,0.0,27,1,0]
370
64

2002,4.07
MIRTGS : RIGHTBACK : INTERNAL 2
MIR : ON : INTERNAL 2
OPTKBR

0.200000
8
8.000000
FILLER
RATIO
SPECTRUM
UNLOCKED 256

DOUBLE
64
COMBINED
1
0
0

1.000000
RATIO

1
0
TRUE
51149
0
LEFT NOT FITTED RIGHT NOT FITTED 0
NONE
NONE
15600
12
4.427000
51148
TRUE
1 0 8 72 0 0 0 0

15798

#HDR
-1
-1
#GR
CM-1
%T
2.38419e-05
0.0
5000
-1.000000
4631
8
78.6662
51.7392
#DATA
5000	66.8718
4984	67.1125
4968	66.3814
4952	63.9601
4936	65.6295
4920	65.1974
4904	64.8433
4888	65.2371
4872	64.9536
4856	64.7757
4840	65.0927
4824	64.5685
4808	64.6842
4792	64.8351
4776	64.7665
4760	64.9316
4744	64.8085
4728	64.9148
4712	65.054
4696	65.0716
4680	65.1431
4664	64.7464
4648	65.1747
4632	65.1437
4616	64.6153
4600	64.798
4584	64.7449
4568	64.6989
4552	65.4459
4536	65.034
4520	65.3741
4504	64.5705
4488	64.2684
4472	65.1954
4456	64.5226
4440	53.6063
4424	65.4846
4408	65.625
4392	65.4819
4376	65.2136
4360	65.3545
4344	65.1035
4328	65.1865
4312	64.69
4296	65.2038
4280	65.2116
4264	65.0345
4248	64.9695
4232	65.1526
4216	64.9034
4200	65.3333
4184	64.9554
4168	64.6471
4152	64.8771
4136	64.9487
4120	65.2091
4104	65.0131
4088	65.0835
4072	64.852
4056	65.1555
4040	65.0354
4024	65.2256
4008	64.877
3992	65.0996
3976	65.1346
3960	65.1505
3944	65.0464
3928	64.7203
3912	65.1506
3896	64.9306
3880	65.0184
3864	65.2483
3848	65.1764
3832	65.3989
3816	65.2336
3800	65.113
3784	65.0335
3768	65.0702
3752	65.115
3736	64.9726
3720	65.004
3704	65.0684
3688	65.1813
3672	65.0061
3656	65.1243
3640	65.2967
3624	65.1755
3608	65.3166
3592	65.0776
3576	65.0164
3560	65.1238
3544	65.1309
3528	65.1105
3512	65.3485
3496	65.2324
3480	65.167
3464	65.0851
3448	65.1495
3432	65.0857
3416	65.2012
3400	65.0531
3384	65.1033
3368	65.1671
3352	64.9107
3336	65.116
3320	65.0691
3304	65.1013
3288	65.0812
3272	65.0598
3256	65.0696
3240	65.0846
3224	65.0357
3208	65.1281
3192	65.2198
3176	65.137
3160	65.0428
3144	64.9991
3128	65.1131
3112	65.0175
3096	65.2343
3080	64.942
3064	65.0446
3048	64.9248
3032	65.0387
3016	65.0929
3000	64.9891
2984	64.9632
2968	64.7192
2952	64.7197
2936	64.6879
2920	64.8023
2904	64.9339
2888	65.0611
2872	64.8664
2856	64.8652
2840	64.9534
2824	64.97
2808	64.9341
2792	64.9489
2776	65.0614
2760	64.972
2744	64.9635
2728	64.9399
2712	65.0055
2696	64.965
2680	65.0638
2664	64.9602
2648	64.8611
2632	64.9772
2616	64.9488
2600	65.0196
2584	64.9609
2568	64.8421
2552	64.8661
2536	64.8671
2520	64.9257
2504	64.9877
2488	64.9616
2472	64.8202
2456	64.8781
2440	65.0138
2424	64.9053
2408	64.7863
2392	64.8939
2376	64.8299
2360	64.7724
2344	64.7721
2328	64.8486
2312	64.8417
2296	64.8106
2280	64.7056
2264	64.818
2248	64.7784
2232	64.7339
2216	64.8255
2200	64.8097
2184	64.6919
2168	64.7415
2152	64.7028
2136	64.6981
2120	64.7129
2104	64.6448
2088	64.5942
2072	64.6558
2056	64.7485
2040	64.643
2024	64.6503
2008	64.7128
1992	64.6367
1976	64.6688
1960	64.4493
1944	64.6194
1928	64.6039
1912	64.6311
1896	64.5603
1880	64.5868
1864	64.5878
1848	64.5977
1832	64.426
1816	64.474
1800	64.4956
1784	64.5228
1768	64.4424
1752	64.2312
1736	63.7849
1720	64.0984
1704	64.3126
1688	64.3438
1672	64.2939
1656	64.3415
1640	64.2682
1624	64.3043
1608	64.2763
1592	64.3488
1576	64.3504
1560	64.272
1544	64.2302
1528	64.1713
1512	64.3523
1496	64.3096
1480	64.2586
1464	64.2127
1448	64.0673
1432	64.1524
1416	64.0994
1400	64.2468
1384	64.0881
1368	64.1059
1352	64.0413
1336	64.0926
1320	64.208
1304	64.0447
1288	64.0418
1272	63.9109
1256	63.9137
1240	63.8288
1224	63.8315
1208	63.8414
1192	63.7643
1176	63.78
1160	63.5664
1144	63.7806
1128	63.7831
1112	63.9382
1096	63.973
1080	63.8586
1064	63.8542
1048	63.7038
1032	63.8046
1016	63.7311
1000	63.9943
984	 64.109
968	 63.821
952	 63.875
936	 63.7908
920	 63.8498
904	 64.086
888	 63.8042
872	 63.9276
856	 64.082
840	 63.7756
824	 64.0788
808	 63.8357
792	 63.8036
776	 63.796
760	 63.4939
744	 63.7345
728	 63.6538
712	 63.5857
696	 63.3
680	 63.2691
664	 63.1808
648	 63.4363
632	 63.196
616	 63.515
600	 63.4205
584	 63.6694
568	 63.1669
552	 63.5367
536	 63.7226
520	 63.6906
504	 62.762
488	 63.0448
472	 62.6859
456	 63.5117
440	 63.2154
424	 64.9543
408	 63.1672
392	 61.6243
376	 59.5087
370	 51.7392