File: Bakgrunnsmateriale/MATLAB/FTIR/ftir_data/subAa/Mapping_121/BZ1503107-1_t104_cm-1.asc
PE IR       SPECTRUM    SPECTRUM    ASCII       PEDS        1.60
  -1
BZCB7A~1.ASC
17/04/07
21:46:41.00
17/04/07
21:46:41.00
tln
$BZ1503107-1_t0104$<tbV0>[2.6,10.4,8.0,0.0,27,1,0]
370
64

2002,4.07
MIRTGS : RIGHTBACK : INTERNAL 2
MIR : ON : INTERNAL 2
OPTKBR

0.200000
8
8.000000
FILLER
RATIO
SPECTRUM
UNLOCKED 256

DOUBLE
64
COMBINED
1
0
0

1.000000
RATIO

1
0
TRUE
51149
0
LEFT NOT FITTED RIGHT NOT FITTED 0
NONE
NONE
15600
12
4.427000
51148
TRUE
1 0 8 72 0 0 0 0

15798

#HDR
-1
-1
#GR
CM-1
%T
2.38419e-05
0.0
5000
-1.000000
4631
8
84.1278
39.1004
#DATA
5000	62.9284
4984	64.8854
4968	64.7116
4952	66.4432
4936	65.1436
4920	64.7066
4904	65.263
4888	64.519
4872	64.6506
4856	65.1038
4840	65.1734
4824	64.7049
4808	65.179
4792	65.1151
4776	64.9833
4760	65.0902
4744	65.0181
4728	64.6389
4712	64.9254
4696	64.848
4680	65.475
4664	65.171
4648	65.5692
4632	65.2824
4616	65.2219
4600	65.036
4584	64.9686
4568	65.1119
4552	64.8989
4536	64.9872
4520	65.3402
4504	65.4302
4488	64.3252
4472	64.9595
4456	64.9818
4440	71.9049
4424	62.9424
4408	67.0319
4392	64.9546
4376	64.7834
4360	65.1998
4344	65.1702
4328	65.382
4312	65.1707
4296	65.1005
4280	65.1585
4264	65.0667
4248	65.248
4232	65.1324
4216	64.9328
4200	65.1042
4184	65.0806
4168	65.2379
4152	64.9025
4136	65.0915
4120	65.1229
4104	65.0404
4088	64.8549
4072	65.2286
4056	64.8595
4040	65.2686
4024	65.1057
4008	64.6614
3992	65.1065
3976	64.8793
3960	65.0347
3944	64.6855
3928	65.1925
3912	64.9829
3896	65.1649
3880	64.9449
3864	64.7703
3848	64.9883
3832	65.1761
3816	65.1802
3800	64.9215
3784	65.0786
3768	65.1276
3752	65.19
3736	65.2734
3720	65.1056
3704	65.0149
3688	65.0961
3672	64.8827
3656	64.9007
3640	65.3299
3624	64.7948
3608	65.1423
3592	65.131
3576	64.8672
3560	65.1096
3544	64.9698
3528	65.0479
3512	64.9253
3496	65.1029
3480	65.0241
3464	64.9884
3448	64.7751
3432	64.8779
3416	65.1122
3400	65.0732
3384	65.0237
3368	64.9003
3352	65.0008
3336	65.0346
3320	64.8547
3304	64.95
3288	64.9306
3272	64.8453
3256	65.0123
3240	64.9341
3224	64.7835
3208	64.7683
3192	64.9626
3176	64.8763
3160	64.8824
3144	64.8561
3128	64.666
3112	64.8758
3096	64.8454
3080	64.9116
3064	64.7495
3048	64.9555
3032	64.8651
3016	64.8289
3000	64.8629
2984	64.7461
2968	64.5415
2952	64.701
2936	64.8347
2920	64.7551
2904	64.7416
2888	64.7252
2872	64.5918
2856	64.6282
2840	64.6671
2824	64.8153
2808	64.6222
2792	64.7528
2776	64.8187
2760	64.8802
2744	64.6958
2728	64.7488
2712	64.6781
2696	64.6979
2680	64.6519
2664	64.644
2648	64.7733
2632	64.6992
2616	64.672
2600	64.6492
2584	64.6806
2568	64.5403
2552	64.5632
2536	64.5905
2520	64.5779
2504	64.5331
2488	64.5807
2472	64.5597
2456	64.6889
2440	64.4375
2424	64.5799
2408	64.37
2392	64.387
2376	64.5424
2360	64.4782
2344	64.4402
2328	64.4691
2312	64.3987
2296	64.3642
2280	64.2938
2264	64.4071
2248	64.4771
2232	64.3769
2216	64.3034
2200	64.3081
2184	64.2603
2168	64.2528
2152	64.224
2136	64.243
2120	64.1515
2104	64.3316
2088	64.2737
2072	64.185
2056	64.3774
2040	64.0757
2024	64.1505
2008	64.0426
1992	64.0817
1976	64.1852
1960	64.1419
1944	64.0322
1928	64.0419
1912	64.0819
1896	64.1308
1880	64.0329
1864	64.0373
1848	63.93
1832	64.0811
1816	64.0285
1800	63.9652
1784	63.9204
1768	63.8542
1752	63.5593
1736	63.3538
1720	63.6399
1704	63.6713
1688	63.6197
1672	63.5931
1656	63.6242
1640	63.7167
1624	63.6419
1608	63.6727
1592	63.6672
1576	63.5938
1560	63.534
1544	63.6398
1528	63.5133
1512	63.4469
1496	63.4337
1480	63.3989
1464	63.4746
1448	63.4668
1432	63.372
1416	63.3698
1400	63.4533
1384	63.3294
1368	63.3908
1352	63.3236
1336	63.2532
1320	63.297
1304	63.1988
1288	63.15
1272	63.1085
1256	63.0904
1240	62.9855
1224	63.0663
1208	63.0682
1192	63.0129
1176	62.8351
1160	62.8173
1144	63.0245
1128	62.9225
1112	62.7481
1096	62.775
1080	62.8552
1064	62.7824
1048	62.6118
1032	62.7126
1016	62.7154
1000	62.7109
984	 62.8602
968	 62.8448
952	 62.6807
936	 62.7068
920	 62.7238
904	 62.5626
888	 62.6591
872	 62.6029
856	 62.5765
840	 62.5557
824	 62.5409
808	 62.6919
792	 62.5388
776	 62.4161
760	 62.396
744	 62.5664
728	 62.3142
712	 62.1538
696	 62.0117
680	 62.1154
664	 62.1344
648	 62.0874
632	 62.5457
616	 61.7338
600	 61.3487
584	 61.2558
568	 62.7807
552	 60.0783
536	 61.7545
520	 61.2094
504	 60.5804
488	 62.3765
472	 61.7761
456	 62.1643
440	 61.6309
424	 62.9115
408	 58.9254
392	 54.038
376	 52.0103
370	 42.4306