File: Bakgrunnsmateriale/MATLAB/FTIR/ftir_data/subAa/Mapping_121/BZ1503107-1_t48.asc
PE IR       SPECTRUM    SPECTRUM    ASCII       PEDS        1.60
  -1
BZ296D~1.ASC
17/04/07
17:12:54.00
17/04/07
17:13:20.00
tln
$BZ1503107-1_t0048$<tbV0>[5.2,-2.6,8.0,0.0,27,1,0]
27.028
64

2002,4.07
MIRTGS : RIGHTBACK : INTERNAL 2
MIR : ON : INTERNAL 2
OPTKBR

0.200000
8
8.000000
FILLER
RATIO
SPECTRUM
UNLOCKED 256

DOUBLE
64
COMBINED
1
0
0

0.002000
RATIO

1
0
TRUE
51149
0
LEFT NOT FITTED RIGHT NOT FITTED 0
NONE
NONE
15600
12
4.427000
51148
TRUE
1 0 8 72 0 0 0 0

15798

#HDR
-1
-1
#GR
µM
%T
2.38419e-05
0.0
2.000000
0.002000
12515
8
67.5172
42.36
#DATA
2.000000	 64.0107
2.084000	 64.6072
2.168000	 64.8549
2.252000	 58.0847
2.336000	 65.1547
2.420000	 64.7633
2.504000	 65.2382
2.588000	 65.5299
2.672000	 65.0267
2.756000	 64.9337
2.840000	 65.3361
2.924000	 64.9975
3.008000	 65.1399
3.092000	 64.9483
3.176000	 65.038
3.260000	 65.0919
3.344000	 65.017
3.428000	 64.7063
3.512000	 64.9098
3.596000	 65.0062
3.680000	 65.0097
3.764000	 64.9462
3.848000	 65.0357
3.932000	 65.0145
4.016000	 64.8898
4.100000	 64.7925
4.184000	 64.901
4.268000	 64.8015
4.352000	 64.796
4.436000	 64.8314
4.520000	 64.7582
4.604000	 64.6659
4.688000	 64.5966
4.772000	 64.7984
4.856000	 64.6903
4.940000	 64.6691
5.024000	 64.7835
5.108000	 64.6043
5.192000	 64.6978
5.276000	 64.5773
5.359999	 64.655
5.444000	 64.6424
5.528000	 64.5262
5.612000	 64.4609
5.696000	 64.4257
5.780000	 64.3691
5.864000	 64.3816
5.948000	 64.3075
6.032000	 64.4714
6.116000	 64.3216
6.200000	 64.3096
6.284000	 64.2505
6.368000	 64.2104
6.452000	 64.291
6.536000	 64.2008
6.620000	 64.2815
6.704000	 64.2201
6.788000	 64.1838
6.872000	 64.1832
6.956000	 64.1105
7.040000	 64.2466
7.124000	 64.155
7.208000	 64.0562
7.292000	 64.0826
7.376000	 64.2006
7.460000	 64.13
7.544000	 64.1735
7.628000	 64.0394
7.712000	 64.2458
7.796000	 64.1345
7.880000	 64.175
7.964000	 63.9947
8.048000	 63.9623
8.132000	 63.9005
8.216000	 63.8886
8.300000	 63.9868
8.384000	 63.8516
8.468000	 63.9005
8.552000	 63.9764
8.635999	 63.6772
8.719999	 63.7526
8.804000	 63.9733
8.888000	 63.7968
8.972000	 63.7968
9.056000	 64.1128
9.140000	 63.9536
9.224000	 63.9673
9.308000	 63.7075
9.391999	 63.7343
9.475999	 63.7848
9.560000	 63.87
9.644000	 63.742
9.728000	 63.7948
9.812000	 63.7626
9.896000	 63.7279
9.980000	 63.8451
10.064	63.8363
10.148	63.9305
10.232	64.2906
10.316	63.9136
10.4	63.7995
10.484	63.8512
10.568	63.8759
10.652	63.6475
10.736	63.7263
10.82	63.9139
10.904	63.6564
10.988	63.7291
11.072	63.8028
11.156	63.6512
11.24	63.6745
11.324	63.9334
11.408	63.9979
11.492	63.8421
11.576	63.6186
11.66	63.8311
11.744	63.9498
11.828	64.0672
11.912	64.0366
11.996	63.8547
12.08	63.9833
12.164	63.974
12.248	63.9376
12.332	63.8695
12.416	63.7972
12.5	63.7453
12.584	63.7776
12.668	63.8615
12.752	63.8266
12.836	63.8609
12.92	63.8446
13.004	63.7105
13.088	63.6648
13.172	63.6257
13.256	63.6525
13.34	63.6004
13.424	63.4635
13.508	63.4023
13.592	63.3235
13.676	63.3828
13.76	63.5344
13.844	63.5817
13.928	63.6471
14.012	63.7102
14.096	63.6713
14.18	63.6285
14.264	63.5186
14.348	63.284
14.432	63.2135
14.516	63.3741
14.6	63.4553
14.684	63.5659
14.768	63.6953
14.852	63.4971
14.936	63.3203
15.02	63.4598
15.104	63.6545
15.188	63.7869
15.272	63.7741
15.356	63.6348
15.44	63.4308
15.524	63.0368
15.608	62.7363
15.692	62.9103
15.776	63.2431
15.86	63.3023
15.944	63.2401
16.028	63.496
16.112	64.0796
16.196	64.4301
16.28	64.2085
16.364	63.789
16.448	63.6539
16.532	63.7936
16.616	63.8661
16.7	63.6385
16.784	63.2304
16.868	62.9927
16.952	63.1978
17.036	63.7228
17.12	64.1446
17.204	64.2061
17.288	63.9306
17.372	63.4471
17.456	63.0432
17.54	63.0926
17.624	63.5599
17.708	63.9563
17.792	63.9957
17.876	63.836
17.96	63.6391
18.044	63.3498
18.128	63.0041
18.212	62.8799
18.296	63.1468
18.38	63.5952
18.464	63.8987
18.548	63.9965
18.632	64.051
18.716	64.1535
18.8	64.2282
18.884	64.1794
18.968	64.008
19.052	63.7707
19.136	63.5193
19.22	63.3251
19.304	63.2989
19.388	63.491
19.472	63.7772
19.556	63.9174
19.64	63.7699
19.724	63.4471
19.808	63.2084
19.892	63.2113
19.976	63.3885
20.06	63.5549
20.144	63.5868
20.228	63.4927
20.312	63.3663
20.396	63.3091
20.48	63.3657
20.564	63.5048
20.648	63.634
20.732	63.6534
20.816	63.5241
20.9	63.2999
20.984	63.0948
21.068	63.0103
21.152	63.0846
21.236	63.2819
21.32	63.5275
21.404	63.7519
21.488	63.9373
21.572	64.1111
21.656	64.2962
21.74	64.4765
21.824	64.6043
21.908	64.6518
21.992	64.6434
22.076	64.6324
22.16	64.6544
22.244	64.6807
22.328	64.6308
22.412	64.4191
22.496	64.0138
22.58	63.4715
22.664	62.9109
22.748	62.4612
22.832	62.1974
22.916	62.1285
23	62.2147
23.084	62.4142
23.168	62.6958
23.252	63.0402
23.336	63.4265
23.42	63.8239
23.504	64.1838
23.588	64.4532
23.672	64.5869
23.756	64.5487
23.84	64.3398
23.924	63.9985
24.008	63.5888
24.092	63.1847
24.176	62.8505
24.26	62.6347
24.344	62.5719
24.428	62.6857
24.512	63.0083
24.596	63.563
24.68	64.3444
24.764	65.289
24.848	66.274
24.932	67.093
25.016	67.5031
25.1	67.2879
25.184	66.335
25.268	64.7091
25.352	62.6292
25.436	60.422
25.52	58.4342
25.604	56.9436
25.688	56.0713
25.772	55.7665
25.856	55.8683
25.94	56.0956
26.024	56.1405
26.108	55.803
26.192	55.0203
26.276	53.9044
26.36	52.7306
26.444	51.8251
26.528	51.4137
26.612	51.5373
26.696	52.0031
26.78	52.4385
26.864	52.4233
26.948	51.6513
27.028	50.1273