File: Bakgrunnsmateriale/MATLAB/FTIR/ftir_data/subAa/Mapping_121/BZ1503107-1_t91_cm-1.asc
PE IR       SPECTRUM    SPECTRUM    ASCII       PEDS        1.60
  -1
BZ69A5~1.ASC
17/04/07
20:46:00.00
17/04/07
20:46:00.00
tln
$BZ1503107-1_t0091$<tbV0>[7.8,7.8,8.0,0.0,27,1,0]
370
64

2002,4.07
MIRTGS : RIGHTBACK : INTERNAL 2
MIR : ON : INTERNAL 2
OPTKBR

0.200000
8
8.000000
FILLER
RATIO
SPECTRUM
UNLOCKED 256

DOUBLE
64
COMBINED
1
0
0

1.000000
RATIO

1
0
TRUE
51149
0
LEFT NOT FITTED RIGHT NOT FITTED 0
NONE
NONE
15600
12
4.427000
51148
TRUE
1 0 8 72 0 0 0 0

15798

#HDR
-1
-1
#GR
CM-1
%T
2.38419e-05
0.0
5000
-1.000000
4631
8
80.7195
51.4939
#DATA
5000	64.25
4984	64.5848
4968	63.5023
4952	67.8461
4936	63.0851
4920	64.1394
4904	64.9804
4888	64.8347
4872	64.9094
4856	65.1489
4840	64.7914
4824	65.0977
4808	65.2343
4792	64.8814
4776	65.0898
4760	65.4451
4744	65.1675
4728	65.1174
4712	65.0509
4696	64.9085
4680	65.4339
4664	65.4089
4648	64.838
4632	65.4804
4616	65.0508
4600	65.0135
4584	64.9686
4568	64.9906
4552	64.6313
4536	64.488
4520	64.3456
4504	64.0475
4488	63.716
4472	63.8947
4456	66.2648
4440	80.7195
4424	65.9003
4408	64.7903
4392	64.0139
4376	64.2872
4360	64.38
4344	64.8011
4328	64.7989
4312	64.8031
4296	64.8373
4280	64.6587
4264	64.7475
4248	64.9903
4232	64.8752
4216	64.9366
4200	64.865
4184	65.2022
4168	65.2335
4152	64.9871
4136	64.9737
4120	65.0481
4104	65.1741
4088	65.1928
4072	65.1271
4056	65.0568
4040	65.2209
4024	65.213
4008	65.1198
3992	65.1369
3976	64.9808
3960	64.7905
3944	64.8911
3928	65.164
3912	64.782
3896	64.9501
3880	65.1554
3864	65.0764
3848	65.1137
3832	65.1292
3816	64.9883
3800	64.8789
3784	65.2356
3768	65.1125
3752	65.0439
3736	65.2002
3720	65.3224
3704	65.2917
3688	65.2369
3672	65.3562
3656	65.0069
3640	65.2946
3624	64.9331
3608	65.1784
3592	65.3248
3576	65.0579
3560	65.1736
3544	64.7936
3528	65.1278
3512	65.0054
3496	65.0433
3480	65.0493
3464	64.9947
3448	64.8542
3432	64.9338
3416	65.0182
3400	64.9436
3384	64.9872
3368	64.9054
3352	65.0306
3336	64.9148
3320	64.9462
3304	65.0399
3288	64.9465
3272	64.9922
3256	64.8713
3240	65.0316
3224	64.946
3208	64.9629
3192	64.8707
3176	65.0256
3160	64.8732
3144	64.8637
3128	64.9868
3112	64.9222
3096	65.097
3080	64.8284
3064	64.8763
3048	64.9803
3032	64.8466
3016	64.8901
3000	64.8369
2984	64.8116
2968	64.7051
2952	64.6756
2936	64.7549
2920	64.786
2904	64.8603
2888	64.7795
2872	64.731
2856	64.802
2840	64.7328
2824	64.8287
2808	64.7265
2792	64.7468
2776	64.8491
2760	64.8793
2744	64.7607
2728	64.9044
2712	64.7114
2696	64.808
2680	64.7271
2664	64.812
2648	64.8931
2632	64.6877
2616	64.6414
2600	64.7185
2584	64.5726
2568	64.7503
2552	64.7979
2536	64.7199
2520	64.6111
2504	64.6522
2488	64.7119
2472	64.7352
2456	64.7762
2440	64.5961
2424	64.7288
2408	64.5496
2392	64.6188
2376	64.5753
2360	64.5671
2344	64.5963
2328	64.6301
2312	64.5579
2296	64.5774
2280	64.4809
2264	64.588
2248	64.5659
2232	64.5453
2216	64.45
2200	64.3905
2184	64.4671
2168	64.3703
2152	64.4661
2136	64.4324
2120	64.3986
2104	64.3874
2088	64.2953
2072	64.1762
2056	64.4933
2040	64.3867
2024	64.2668
2008	64.3152
1992	64.384
1976	64.2649
1960	64.2473
1944	64.2324
1928	64.2361
1912	64.1362
1896	64.2786
1880	64.1933
1864	64.1525
1848	64.1577
1832	64.1983
1816	64.1846
1800	64.1464
1784	64.0064
1768	64.1362
1752	63.9292
1736	63.7774
1720	63.8958
1704	63.864
1688	63.9714
1672	63.7969
1656	64.0417
1640	64.0198
1624	63.8726
1608	63.8913
1592	63.8073
1576	63.7814
1560	63.8043
1544	63.7192
1528	63.7645
1512	63.643
1496	63.8428
1480	63.7498
1464	63.6981
1448	63.6874
1432	63.7023
1416	63.5573
1400	63.7223
1384	63.6361
1368	63.6684
1352	63.4483
1336	63.4917
1320	63.5414
1304	63.4574
1288	63.3903
1272	63.3718
1256	63.3379
1240	63.3562
1224	63.4175
1208	63.4631
1192	63.2737
1176	63.1518
1160	63.1675
1144	63.239
1128	63.1624
1112	63.25
1096	63.3141
1080	63.028
1064	63.1386
1048	63.1553
1032	63.0875
1016	62.9664
1000	63.0214
984	 63.2831
968	 63.0722
952	 63.0417
936	 63.1755
920	 63.0747
904	 63.1057
888	 63.1161
872	 63.1211
856	 63.0763
840	 62.8723
824	 62.8355
808	 63.0733
792	 62.9363
776	 62.8617
760	 62.6822
744	 62.8976
728	 63.0817
712	 62.6696
696	 62.2849
680	 62.3425
664	 62.7691
648	 62.2915
632	 62.3151
616	 62.0299
600	 62.3846
584	 61.7252
568	 63.0292
552	 62.4952
536	 61.4981
520	 62.4538
504	 62.742
488	 63.7987
472	 61.3874
456	 61.0918
440	 61.4903
424	 62.7827
408	 63.1426
392	 53.7665
376	 63.7359
370	 68.2785