File: Bakgrunnsmateriale/MATLAB/FTIR/ftir_data/subAa/Mapping_121/BZ1503107-1_t62_cm-1.asc
PE IR       SPECTRUM    SPECTRUM    ASCII       PEDS        1.60
  -1
BZ6A21~1.ASC
17/04/07
18:18:13.00
17/04/07
18:18:13.00
tln
$BZ1503107-1_t0062$<tbV0>[-2.6,0.0,8.0,0.0,27,1,0]
370
64

2002,4.07
MIRTGS : RIGHTBACK : INTERNAL 2
MIR : ON : INTERNAL 2
OPTKBR

0.200000
8
8.000000
FILLER
RATIO
SPECTRUM
UNLOCKED 256

DOUBLE
64
COMBINED
1
0
0

1.000000
RATIO

1
0
TRUE
51149
0
LEFT NOT FITTED RIGHT NOT FITTED 0
NONE
NONE
15600
12
4.427000
51148
TRUE
1 0 8 72 0 0 0 0

15798

#HDR
-1
-1
#GR
CM-1
%T
2.38419e-05
0.0
5000
-1.000000
4631
8
77.8431
45.6467
#DATA
5000	65.66
4984	66.7936
4968	67.0589
4952	65.8242
4936	64.7314
4920	65.5246
4904	65.0149
4888	65.0044
4872	64.9915
4856	64.5488
4840	64.5495
4824	64.7811
4808	64.393
4792	64.8729
4776	64.9222
4760	64.7109
4744	64.6878
4728	64.8512
4712	64.7769
4696	64.9296
4680	65.0302
4664	64.9387
4648	65.219
4632	64.8521
4616	64.6143
4600	64.7876
4584	64.6723
4568	64.7145
4552	64.8607
4536	64.8033
4520	65.1053
4504	64.9684
4488	64.8634
4472	64.5771
4456	64.537
4440	71.6843
4424	60.8008
4408	64.8274
4392	65.3835
4376	64.9682
4360	65.2404
4344	64.8247
4328	65.3728
4312	64.9448
4296	65.0397
4280	64.854
4264	65.0109
4248	64.9702
4232	65.0769
4216	65.0203
4200	65.1235
4184	64.8889
4168	65.2717
4152	64.7389
4136	64.8681
4120	65.1294
4104	65.1114
4088	64.9079
4072	64.8207
4056	64.9468
4040	65.2114
4024	64.8969
4008	64.9437
3992	65.1078
3976	65.1875
3960	64.9664
3944	64.9922
3928	64.8529
3912	65.0474
3896	64.9913
3880	65.137
3864	65.1345
3848	65.1272
3832	65.1872
3816	64.9105
3800	65.0169
3784	65.1029
3768	65.0411
3752	65.0439
3736	65.1862
3720	65.0843
3704	65.3183
3688	65.1189
3672	65.0222
3656	65.1711
3640	65.4501
3624	65.2287
3608	65.0553
3592	65.0895
3576	64.9137
3560	65.1872
3544	64.9851
3528	65.0098
3512	65.1421
3496	65.2106
3480	65.0605
3464	64.9498
3448	65.0785
3432	65.0039
3416	64.9805
3400	65.1067
3384	65.0479
3368	65.1891
3352	64.8818
3336	65.1087
3320	65.0826
3304	65.1059
3288	64.9496
3272	64.9477
3256	64.9983
3240	65.0223
3224	65.0391
3208	64.9712
3192	65.0798
3176	65.0049
3160	64.8406
3144	65.0703
3128	64.9558
3112	64.9702
3096	65.0304
3080	64.836
3064	65.0463
3048	64.9251
3032	64.9565
3016	64.9933
3000	64.9869
2984	64.9598
2968	64.6767
2952	64.9455
2936	64.7185
2920	65.0641
2904	65.0321
2888	64.9163
2872	64.8625
2856	64.9527
2840	65.0083
2824	64.9234
2808	65.0034
2792	64.8688
2776	64.9238
2760	64.9233
2744	64.8264
2728	64.8729
2712	64.9189
2696	65.0203
2680	64.9032
2664	64.8054
2648	64.8198
2632	64.9199
2616	64.6951
2600	64.9955
2584	64.9508
2568	64.7986
2552	64.8089
2536	64.7911
2520	64.8676
2504	64.7984
2488	64.7744
2472	64.7197
2456	64.7942
2440	64.8821
2424	64.923
2408	64.8523
2392	64.777
2376	64.6728
2360	64.8056
2344	64.7064
2328	64.7278
2312	64.6867
2296	64.7624
2280	64.692
2264	64.7501
2248	64.6526
2232	64.7483
2216	64.5795
2200	64.7289
2184	64.6042
2168	64.5552
2152	64.7138
2136	64.656
2120	64.6227
2104	64.5714
2088	64.5897
2072	64.5866
2056	64.5608
2040	64.5025
2024	64.5243
2008	64.6218
1992	64.5792
1976	64.4735
1960	64.3838
1944	64.5265
1928	64.4624
1912	64.5014
1896	64.4594
1880	64.4867
1864	64.3618
1848	64.3711
1832	64.4415
1816	64.4334
1800	64.2917
1784	64.256
1768	64.3721
1752	64.1895
1736	64.0631
1720	64.113
1704	64.205
1688	64.0247
1672	64.1694
1656	64.2021
1640	64.2128
1624	64.1937
1608	64.1396
1592	64.1004
1576	64.0291
1560	64.1189
1544	64.0603
1528	64.0733
1512	64.0122
1496	64.0952
1480	64.0498
1464	63.9499
1448	63.8522
1432	64.0129
1416	64.0528
1400	63.9125
1384	64.024
1368	63.8684
1352	63.9621
1336	63.8848
1320	63.8881
1304	63.7797
1288	63.9346
1272	63.7807
1256	63.8317
1240	63.8374
1224	63.8242
1208	63.7767
1192	63.6075
1176	63.8227
1160	63.6267
1144	63.6915
1128	63.5879
1112	63.6296
1096	63.7799
1080	63.7793
1064	63.7011
1048	63.7055
1032	63.4937
1016	63.5905
1000	63.6349
984	 63.7338
968	 63.6757
952	 63.4382
936	 63.3663
920	 63.5974
904	 63.6325
888	 63.4167
872	 63.571
856	 63.465
840	 63.6081
824	 63.4088
808	 63.6321
792	 63.3085
776	 63.4834
760	 63.4576
744	 63.3257
728	 63.2556
712	 63.1896
696	 63.1265
680	 63.3496
664	 63.1749
648	 63.2962
632	 62.9816
616	 63.3952
600	 64.3229
584	 63.5563
568	 62.4421
552	 63.7509
536	 62.3281
520	 63.1891
504	 63.0733
488	 62.376
472	 62.9369
456	 63.403
440	 62.616
424	 61.6949
408	 62.2445
392	 63.1021
376	 58.3867
370	 45.6467