File: Bakgrunnsmateriale/MATLAB/FTIR/ftir_data/subAa/Mapping_121/BZ1503107-1_t22.asc
PE IR       SPECTRUM    SPECTRUM    ASCII       PEDS        1.60
  -1
BZ2159~1.ASC
17/04/07
14:58:05.00
17/04/07
14:58:31.00
tln
$BZ1503107-1_t0022$<tbV0>[-13.0,-10.4,8.0,0.0,27,1,0]
27.028
64

2002,4.07
MIRTGS : RIGHTBACK : INTERNAL 2
MIR : ON : INTERNAL 2
OPTKBR

0.200000
8
8.000000
FILLER
RATIO
SPECTRUM
UNLOCKED 256

DOUBLE
64
COMBINED
1
0
0

0.002000
RATIO

1
0
TRUE
51149
0
LEFT NOT FITTED RIGHT NOT FITTED 0
NONE
NONE
15600
12
4.427000
51148
TRUE
1 0 8 72 0 0 0 0

15798

#HDR
-1
-1
#GR
µM
%T
2.38419e-05
0.0
2.000000
0.002000
12515
8
109.254
47.2679
#DATA
2.000000	 64.6861
2.084000	 66.0755
2.168000	 64.6491
2.252000	 63.2466
2.336000	 64.9144
2.420000	 65.0461
2.504000	 65.0347
2.588000	 64.9525
2.672000	 65.3415
2.756000	 65.4006
2.840000	 65.1333
2.924000	 65.0388
3.008000	 65.2764
3.092000	 65.0745
3.176000	 65.2495
3.260000	 65.207
3.344000	 65.0043
3.428000	 65.0219
3.512000	 65.0914
3.596000	 65.1026
3.680000	 65.123
3.764000	 65.0416
3.848000	 64.9679
3.932000	 65.0282
4.016000	 65.0346
4.100000	 65.0933
4.184000	 65.0439
4.268000	 65.111
4.352000	 64.8919
4.436000	 65.0101
4.520000	 65.0722
4.604000	 64.927
4.688000	 64.8953
4.772000	 64.8487
4.856000	 64.9167
4.940000	 64.8935
5.024000	 64.8266
5.108000	 64.964
5.192000	 64.7966
5.276000	 64.8841
5.359999	 64.9703
5.444000	 64.8944
5.528000	 64.8223
5.612000	 64.8085
5.696000	 64.7678
5.780000	 64.4986
5.864000	 64.7852
5.948000	 64.8115
6.032000	 64.8397
6.116000	 64.8232
6.200000	 64.7623
6.284000	 64.6719
6.368000	 64.7588
6.452000	 64.6405
6.536000	 64.677
6.620000	 64.7103
6.704000	 64.6527
6.788000	 64.6365
6.872000	 64.6821
6.956000	 64.7257
7.040000	 64.586
7.124000	 64.4685
7.208000	 64.3676
7.292000	 64.4395
7.376000	 64.4939
7.460000	 64.5397
7.544000	 64.4577
7.628000	 64.2942
7.712000	 64.4197
7.796000	 64.4171
7.880000	 64.3062
7.964000	 64.4366
8.048000	 64.3214
8.132000	 64.3005
8.216000	 64.3507
8.300000	 64.4106
8.384000	 64.4606
8.468000	 64.3117
8.552000	 64.2764
8.635999	 64.0539
8.719999	 64.1697
8.804000	 64.4175
8.888000	 64.4688
8.972000	 64.5097
9.056000	 64.1543
9.140000	 64.3578
9.224000	 64.3597
9.308000	 64.4007
9.391999	 64.1893
9.475999	 64.2471
9.560000	 64.4324
9.644000	 64.2782
9.728000	 64.3844
9.812000	 64.1517
9.896000	 64.1285
9.980000	 64.267
10.064	64.3553
10.148	64.4363
10.232	64.451
10.316	64.3101
10.4	64.3845
10.484	64.4025
10.568	64.5646
10.652	64.518
10.736	64.3442
10.82	64.2598
10.904	64.3678
10.988	64.2417
11.072	64.2732
11.156	64.3816
11.24	64.3655
11.324	64.2372
11.408	64.2519
11.492	64.3279
11.576	64.2684
11.66	64.1629
11.744	64.3481
11.828	64.4567
11.912	64.2509
11.996	64.2843
12.08	64.2157
12.164	64.1971
12.248	64.2968
12.332	64.206
12.416	64.3302
12.5	64.3365
12.584	64.1513
12.668	64.3256
12.752	64.466
12.836	64.2987
12.92	64.2303
13.004	64.2772
13.088	64.3955
13.172	64.4345
13.256	64.3475
13.34	64.1375
13.424	63.9022
13.508	63.868
13.592	63.9865
13.676	64.1847
13.76	64.2843
13.844	64.1483
13.928	64.0833
14.012	64.0915
14.096	64.1058
14.18	64.1472
14.264	64.2783
14.348	64.367
14.432	64.2307
14.516	64.037
14.6	63.9461
14.684	63.936
14.768	64.0326
14.852	64.1838
14.936	64.1226
15.02	63.9278
15.104	64.1703
15.188	64.7125
15.272	64.764
15.356	64.3305
15.44	63.9548
15.524	63.8524
15.608	64.0634
15.692	64.4537
15.776	64.6576
15.86	64.5327
15.944	64.195
16.028	63.9624
16.112	64.1832
16.196	64.4852
16.28	64.1044
16.364	63.2325
16.448	62.7147
16.532	62.7262
16.616	62.9571
16.7	63.3396
16.784	63.8349
16.868	64.2402
16.952	64.377
17.036	64.2199
17.12	63.9266
17.204	63.725
17.288	63.651
17.372	63.5299
17.456	63.3131
17.54	63.2238
17.624	63.4728
17.708	63.9365
17.792	64.2876
17.876	64.3838
17.96	64.3472
18.044	64.3198
18.128	64.3392
18.212	64.3884
18.296	64.434
18.38	64.4372
18.464	64.3841
18.548	64.3038
18.632	64.2403
18.716	64.2049
18.8	64.1874
18.884	64.2153
18.968	64.3261
19.052	64.4812
19.136	64.5838
19.22	64.5829
19.304	64.4977
19.388	64.3684
19.472	64.2305
19.556	64.1231
19.64	64.0936
19.724	64.1824
19.808	64.3863
19.892	64.627
19.976	64.7945
20.06	64.8333
20.144	64.7763
20.228	64.6996
20.312	64.6449
20.396	64.5947
20.48	64.5132
20.564	64.3998
20.648	64.3032
20.732	64.2975
20.816	64.4433
20.9	64.7344
20.984	65.0572
21.068	65.2242
21.152	65.095
21.236	64.6857
21.32	64.1677
21.404	63.7539
21.488	63.5633
21.572	63.5685
21.656	63.6499
21.74	63.6973
21.824	63.6778
21.908	63.6329
21.992	63.6143
22.076	63.6286
22.16	63.6269
22.244	63.5491
22.328	63.3869
22.412	63.2054
22.496	63.1106
22.58	63.1659
22.664	63.3433
22.748	63.52
22.832	63.5688
22.916	63.4416
23	63.2173
23.084	63.0543
23.168	63.0945
23.252	63.3518
23.336	63.7101
23.42	64.0071
23.504	64.1139
23.588	64.0226
23.672	63.8285
23.756	63.6502
23.84	63.5682
23.924	63.5734
24.008	63.5951
24.092	63.5596
24.176	63.4334
24.26	63.2461
24.344	63.1065
24.428	63.1501
24.512	63.4525
24.596	64.0325
24.68	64.8169
24.764	65.619
24.848	66.2291
24.932	66.3636
25.016	65.7648
25.1	64.3696
25.184	62.2667
25.268	59.6899
25.352	56.9683
25.436	54.4488
25.52	52.3671
25.604	50.7941
25.688	49.5735
25.772	48.5086
25.856	47.5588
25.94	47.3598
26.024	48.5051
26.108	50.7581
26.192	53.8502
26.276	57.8065
26.36	63.5978
26.444	71.1918
26.528	79.3752
26.612	84.7282
26.696	85.4497
26.78	83.3605
26.864	84.2302
26.948	93.6371
27.028	109.254