File: Bakgrunnsmateriale/MATLAB/FTIR/ftir_data/subAa/Mapping_121/BZ1503107-1_t30.asc
PE IR       SPECTRUM    SPECTRUM    ASCII       PEDS        1.60
  -1
BZ2947~1.ASC
17/04/07
15:42:11.00
17/04/07
15:42:37.00
tln
$BZ1503107-1_t0030$<tbV0>[-5.2,-7.8,8.0,0.0,27,1,0]
27.028
64

2002,4.07
MIRTGS : RIGHTBACK : INTERNAL 2
MIR : ON : INTERNAL 2
OPTKBR

0.200000
8
8.000000
FILLER
RATIO
SPECTRUM
UNLOCKED 256

DOUBLE
64
COMBINED
1
0
0

0.002000
RATIO

1
0
TRUE
51149
0
LEFT NOT FITTED RIGHT NOT FITTED 0
NONE
NONE
15600
12
4.427000
51148
TRUE
1 0 8 72 0 0 0 0

15798

#HDR
-1
-1
#GR
µM
%T
2.38419e-05
0.0
2.000000
0.002000
12515
8
76.241
43.9576
#DATA
2.000000	 64.9832
2.084000	 64.5599
2.168000	 64.5061
2.252000	 65.8875
2.336000	 64.4847
2.420000	 64.7148
2.504000	 65.1749
2.588000	 64.7692
2.672000	 64.9689
2.756000	 64.7801
2.840000	 64.7674
2.924000	 65.0404
3.008000	 64.8439
3.092000	 64.8214
3.176000	 64.8026
3.260000	 64.921
3.344000	 64.7515
3.428000	 64.743
3.512000	 64.79
3.596000	 64.7679
3.680000	 64.8715
3.764000	 64.785
3.848000	 64.7386
3.932000	 64.7123
4.016000	 64.5839
4.100000	 64.7308
4.184000	 64.8372
4.268000	 64.7883
4.352000	 64.6201
4.436000	 64.6982
4.520000	 64.6079
4.604000	 64.7067
4.688000	 64.602
4.772000	 64.5988
4.856000	 64.6441
4.940000	 64.709
5.024000	 64.6311
5.108000	 64.6384
5.192000	 64.5575
5.276000	 64.462
5.359999	 64.5442
5.444000	 64.53
5.528000	 64.4418
5.612000	 64.5137
5.696000	 64.3414
5.780000	 63.8638
5.864000	 64.2955
5.948000	 64.3378
6.032000	 64.3062
6.116000	 64.2607
6.200000	 64.2112
6.284000	 64.2441
6.368000	 64.2025
6.452000	 64.2007
6.536000	 64.2989
6.620000	 64.3534
6.704000	 64.2983
6.788000	 64.0957
6.872000	 64.17
6.956000	 64.2671
7.040000	 64.3217
7.124000	 64.1264
7.208000	 64.1257
7.292000	 64.1836
7.376000	 64.0856
7.460000	 64.1024
7.544000	 64.1676
7.628000	 64.0977
7.712000	 64.0664
7.796000	 64.0148
7.880000	 64.0368
7.964000	 63.9735
8.048000	 64.045
8.132000	 64.0837
8.216000	 64.0661
8.300000	 63.8384
8.384000	 63.8069
8.468000	 63.8783
8.552000	 63.7719
8.635999	 63.7136
8.719999	 63.8524
8.804000	 63.9536
8.888000	 63.889
8.972000	 63.9476
9.056000	 63.7234
9.140000	 63.8008
9.224000	 64.0296
9.308000	 63.8351
9.391999	 63.9559
9.475999	 63.9564
9.560000	 63.8922
9.644000	 63.8096
9.728000	 64.0215
9.812000	 64.1079
9.896000	 64.0568
9.980000	 63.9734
10.064	63.9883
10.148	63.7805
10.232	63.9713
10.316	63.8208
10.4	63.9815
10.484	64.1311
10.568	64.0448
10.652	63.935
10.736	63.9722
10.82	63.9767
10.904	64.0952
10.988	63.9864
11.072	63.9552
11.156	63.9224
11.24	63.8363
11.324	63.9632
11.408	63.9935
11.492	64.0018
11.576	64.0721
11.66	63.9373
11.744	63.9375
11.828	63.8847
11.912	63.9735
11.996	64.0302
12.08	63.6778
12.164	63.5849
12.248	63.7912
12.332	63.8646
12.416	63.7567
12.5	63.6879
12.584	63.8221
12.668	63.8648
12.752	63.8482
12.836	63.8239
12.92	63.7793
13.004	63.871
13.088	64.0147
13.172	63.9986
13.256	63.8352
13.34	63.7113
13.424	63.4482
13.508	63.5829
13.592	64.0749
13.676	64.4086
13.76	64.3902
13.844	64.0164
13.928	63.4529
14.012	63.1584
14.096	63.3774
14.18	63.742
14.264	63.7816
14.348	63.7599
14.432	63.9529
14.516	63.8093
14.6	63.3692
14.684	63.3984
14.768	63.5833
14.852	63.3353
14.936	63.2634
15.02	63.6825
15.104	63.8334
15.188	63.6181
15.272	63.5094
15.356	63.3349
15.44	62.9693
15.524	62.9589
15.608	63.469
15.692	63.9191
15.776	64.0227
15.86	64.0145
15.944	64.0093
16.028	63.8679
16.112	63.5448
16.196	63.2568
16.28	63.2824
16.364	63.6162
16.448	63.9435
16.532	64.0735
16.616	64.0977
16.7	64.0728
16.784	63.9303
16.868	63.6875
16.952	63.4512
17.036	63.3083
17.12	63.3142
17.204	63.4425
17.288	63.579
17.372	63.638
17.456	63.6216
17.54	63.5743
17.624	63.5529
17.708	63.6167
17.792	63.7597
17.876	63.8915
17.96	63.9547
18.044	63.9891
18.128	64.0111
18.212	63.9459
18.296	63.7445
18.38	63.4922
18.464	63.3528
18.548	63.4006
18.632	63.5313
18.716	63.602
18.8	63.6078
18.884	63.6379
18.968	63.7227
19.052	63.8061
19.136	63.8244
19.22	63.758
19.304	63.6329
19.388	63.4944
19.472	63.3839
19.556	63.321
19.64	63.3058
19.724	63.3337
19.808	63.4075
19.892	63.527
19.976	63.6621
20.06	63.7559
20.144	63.7621
20.228	63.6822
20.312	63.5545
20.396	63.4275
20.48	63.3562
20.564	63.401
20.648	63.598
20.732	63.9093
20.816	64.2163
20.9	64.3818
20.984	64.3373
21.068	64.1137
21.152	63.7916
21.236	63.4413
21.32	63.1143
21.404	62.8612
21.488	62.7318
21.572	62.7393
21.656	62.8315
21.74	62.9129
21.824	62.9003
21.908	62.7763
21.992	62.5884
22.076	62.4031
22.16	62.2677
22.244	62.1977
22.328	62.1854
22.412	62.2012
22.496	62.1968
22.58	62.1256
22.664	61.9643
22.748	61.7378
22.832	61.5138
22.916	61.3753
23	61.3954
23.084	61.5955
23.168	61.944
23.252	62.3724
23.336	62.7837
23.42	63.1052
23.504	63.2933
23.588	63.3579
23.672	63.3549
23.756	63.3592
23.84	63.4166
23.924	63.5366
24.008	63.6754
24.092	63.7412
24.176	63.6499
24.26	63.3378
24.344	62.7819
24.428	62.0012
24.512	61.0152
24.596	59.859
24.68	58.585
24.764	57.2631
24.848	55.942
24.932	54.6824
25.016	53.5483
25.1	52.5402
25.184	51.6801
25.268	51.0421
25.352	50.7411
25.436	50.9461
25.52	51.8276
25.604	53.4892
25.688	55.8605
25.772	58.65
25.856	61.4452
25.94	63.9453
26.024	66.0526
26.108	67.863
26.192	69.5873
26.276	71.3482
26.36	73.0548
26.444	74.3687
26.528	74.7637
26.612	73.7706
26.696	70.9748
26.78	66.1623
26.864	59.4965
26.948	51.6108
27.028	43.9576