File: Bakgrunnsmateriale/MATLAB/FTIR/ftir_data/subAa/Mapping_121/BZ1503107-1_t84_cm-1.asc
PE IR       SPECTRUM    SPECTRUM    ASCII       PEDS        1.60
  -1
BZ6C26~1.ASC
17/04/07
20:07:11.00
17/04/07
20:07:11.00
tln
$BZ1503107-1_t0084$<tbV0>[-2.6,5.2,8.0,0.0,27,1,0]
370
64

2002,4.07
MIRTGS : RIGHTBACK : INTERNAL 2
MIR : ON : INTERNAL 2
OPTKBR

0.200000
8
8.000000
FILLER
RATIO
SPECTRUM
UNLOCKED 256

DOUBLE
64
COMBINED
1
0
0

1.000000
RATIO

1
0
TRUE
51149
0
LEFT NOT FITTED RIGHT NOT FITTED 0
NONE
NONE
15600
12
4.427000
51148
TRUE
1 0 8 72 0 0 0 0

15798

#HDR
-1
-1
#GR
CM-1
%T
2.38419e-05
0.0
5000
-1.000000
4631
8
69.1699
40.0193
#DATA
5000	65.9016
4984	63.2383
4968	64.6633
4952	65.8714
4936	64.8359
4920	65.3162
4904	64.6358
4888	65.2391
4872	64.4786
4856	64.6038
4840	64.5262
4824	64.4599
4808	64.7432
4792	64.4337
4776	64.7273
4760	64.456
4744	64.8622
4728	64.9012
4712	64.646
4696	64.8545
4680	64.781
4664	64.7545
4648	64.7562
4632	64.5991
4616	65.0335
4600	65.0141
4584	64.8746
4568	64.4275
4552	65.0635
4536	64.8579
4520	65.151
4504	65.0722
4488	65.1945
4472	64.2318
4456	62.3328
4440	65.6917
4424	67.1614
4408	67.1691
4392	64.7406
4376	64.8148
4360	65.3026
4344	65.2888
4328	64.9241
4312	65.0291
4296	64.9264
4280	65.0493
4264	64.8826
4248	64.7261
4232	64.7185
4216	64.7732
4200	64.9567
4184	64.5968
4168	64.744
4152	64.7717
4136	64.5547
4120	64.9636
4104	65.0247
4088	64.9926
4072	64.7974
4056	64.76
4040	65.0092
4024	64.9634
4008	64.9666
3992	64.9432
3976	64.9742
3960	64.8388
3944	65.1732
3928	64.5861
3912	65.0503
3896	64.8905
3880	65.0148
3864	65.1838
3848	64.7627
3832	64.9875
3816	64.8851
3800	64.9431
3784	65.134
3768	64.9086
3752	65.0163
3736	64.9909
3720	64.9236
3704	65.0606
3688	65.0119
3672	65.3052
3656	65.0352
3640	64.9792
3624	65.0217
3608	65.0448
3592	64.9922
3576	64.7776
3560	65.0199
3544	64.924
3528	64.9488
3512	65.0758
3496	64.8888
3480	65.0842
3464	65.0122
3448	65.0839
3432	64.9193
3416	64.9208
3400	64.869
3384	64.8703
3368	64.9288
3352	64.9435
3336	64.8876
3320	64.9411
3304	64.9474
3288	64.9172
3272	64.823
3256	64.9132
3240	64.9704
3224	64.7885
3208	64.8693
3192	65.0371
3176	65.0101
3160	64.9724
3144	65.0522
3128	64.8294
3112	64.9465
3096	64.8666
3080	64.9196
3064	64.9172
3048	64.8029
3032	64.7573
3016	64.901
3000	64.8212
2984	64.7069
2968	64.6825
2952	64.6738
2936	64.8
2920	64.6055
2904	64.7268
2888	64.7425
2872	64.7266
2856	64.7362
2840	64.8239
2824	64.853
2808	64.9139
2792	64.8602
2776	64.8873
2760	64.8648
2744	64.6806
2728	64.7983
2712	64.8096
2696	64.6783
2680	64.8794
2664	64.5922
2648	64.6539
2632	64.6887
2616	64.6615
2600	64.6863
2584	64.6384
2568	64.6377
2552	64.6366
2536	64.5809
2520	64.8006
2504	64.6309
2488	64.6793
2472	64.6131
2456	64.6857
2440	64.6289
2424	64.6713
2408	64.6518
2392	64.4899
2376	64.5508
2360	64.438
2344	64.5733
2328	64.5876
2312	64.4432
2296	64.5271
2280	64.536
2264	64.5293
2248	64.4926
2232	64.5193
2216	64.4493
2200	64.431
2184	64.4149
2168	64.3614
2152	64.5109
2136	64.316
2120	64.2832
2104	64.4187
2088	64.2736
2072	64.2996
2056	64.2663
2040	64.2154
2024	64.2408
2008	64.3386
1992	64.1464
1976	64.2818
1960	64.1939
1944	64.1232
1928	64.202
1912	64.2781
1896	64.168
1880	64.1607
1864	64.1791
1848	64.1554
1832	64.2087
1816	64.1983
1800	64.1054
1784	64.1254
1768	64.0952
1752	63.7964
1736	63.8559
1720	63.8771
1704	63.8432
1688	63.9801
1672	63.8093
1656	63.9636
1640	63.7608
1624	63.885
1608	63.6649
1592	63.8384
1576	63.8934
1560	63.8067
1544	63.8304
1528	63.7422
1512	63.7785
1496	63.7111
1480	63.7864
1464	63.6471
1448	63.6039
1432	63.7186
1416	63.6235
1400	63.5763
1384	63.6289
1368	63.5801
1352	63.5831
1336	63.6674
1320	63.5847
1304	63.5905
1288	63.3658
1272	63.3624
1256	63.391
1240	63.3547
1224	63.3823
1208	63.5346
1192	63.4117
1176	63.3068
1160	63.2873
1144	63.4139
1128	63.2532
1112	63.3955
1096	63.2357
1080	63.231
1064	63.2762
1048	63.3062
1032	63.2689
1016	62.9893
1000	63.2184
984	 63.19
968	 63.1349
952	 63.1952
936	 63.0975
920	 63.1919
904	 63.0918
888	 63.3036
872	 63.2135
856	 63.1389
840	 63.056
824	 63.3579
808	 63.0391
792	 62.9957
776	 63.0522
760	 62.7908
744	 62.6914
728	 62.7802
712	 62.6342
696	 62.7463
680	 62.9619
664	 62.2899
648	 62.0344
632	 62.2444
616	 62.3411
600	 62.7113
584	 62.5654
568	 63.3701
552	 62.7941
536	 62.9302
520	 62.4937
504	 62.5081
488	 62.5429
472	 62.1145
456	 62.2772
440	 62.8509
424	 61.5533
408	 61.2334
392	 59.7195
376	 40.0193
370	 48.146