File: Bakgrunnsmateriale/MATLAB/FTIR/ftir_data/subAa/Mapping_121/BZ1503107-1_t105_cm-1.asc
PE IR       SPECTRUM    SPECTRUM    ASCII       PEDS        1.60
  -1
BZCBFB~1.ASC
17/04/07
21:51:18.00
17/04/07
21:51:18.00
tln
$BZ1503107-1_t0105$<tbV0>[0.0,10.4,8.0,0.0,27,1,0]
370
64

2002,4.07
MIRTGS : RIGHTBACK : INTERNAL 2
MIR : ON : INTERNAL 2
OPTKBR

0.200000
8
8.000000
FILLER
RATIO
SPECTRUM
UNLOCKED 256

DOUBLE
64
COMBINED
1
0
0

1.000000
RATIO

1
0
TRUE
51149
0
LEFT NOT FITTED RIGHT NOT FITTED 0
NONE
NONE
15600
12
4.427000
51148
TRUE
1 0 8 72 0 0 0 0

15798

#HDR
-1
-1
#GR
CM-1
%T
2.38419e-05
0.0
5000
-1.000000
4631
8
81.5861
55.794
#DATA
5000	66.2032
4984	62.6074
4968	63.7475
4952	66.8917
4936	64.3514
4920	65.1209
4904	64.9673
4888	64.3467
4872	64.5106
4856	65.2478
4840	64.4124
4824	64.7674
4808	65.209
4792	65.2996
4776	65.3996
4760	65.1881
4744	65.1053
4728	64.7392
4712	64.943
4696	64.9763
4680	65.3189
4664	65.4327
4648	65.0671
4632	65.3546
4616	64.7929
4600	64.4827
4584	64.8327
4568	65.1857
4552	64.6515
4536	64.9816
4520	64.6791
4504	65.0868
4488	63.8828
4472	64.1317
4456	65.5398
4440	75.0945
4424	58.094
4408	63.8724
4392	65.2608
4376	64.9465
4360	64.6732
4344	65.2303
4328	64.6398
4312	64.7375
4296	64.8908
4280	64.8294
4264	64.4457
4248	65.1236
4232	64.9514
4216	64.7813
4200	64.9714
4184	65.1829
4168	65.2106
4152	65.1285
4136	65.0044
4120	64.8093
4104	64.9946
4088	64.9343
4072	65.0931
4056	65.2025
4040	65.1396
4024	65.0846
4008	65.0836
3992	64.9207
3976	64.7574
3960	64.9931
3944	64.6477
3928	65.2144
3912	64.8416
3896	65.0824
3880	65.0419
3864	64.9386
3848	64.9377
3832	64.8716
3816	64.7324
3800	64.6277
3784	64.9925
3768	65.0434
3752	65.1324
3736	65.0156
3720	65.0691
3704	65.2026
3688	65.2298
3672	65.0023
3656	64.9887
3640	65.0973
3624	65.0297
3608	64.9791
3592	65.2327
3576	65.0544
3560	65.129
3544	64.7932
3528	65.087
3512	64.8085
3496	64.9891
3480	64.9876
3464	65.0064
3448	64.9724
3432	65.0322
3416	64.8813
3400	64.8598
3384	64.9439
3368	64.9177
3352	64.9726
3336	64.851
3320	64.8929
3304	64.8688
3288	64.989
3272	64.877
3256	64.9678
3240	64.9479
3224	64.8374
3208	64.7504
3192	64.9426
3176	64.9347
3160	64.6482
3144	64.7681
3128	64.7116
3112	64.7513
3096	64.9852
3080	64.8292
3064	64.8347
3048	65.0345
3032	64.8925
3016	64.9214
3000	64.8024
2984	64.6972
2968	64.7566
2952	64.5633
2936	64.6263
2920	64.7228
2904	64.7436
2888	64.5831
2872	64.583
2856	64.7147
2840	64.6691
2824	64.7495
2808	64.7488
2792	64.6734
2776	64.6757
2760	64.76
2744	64.695
2728	64.7887
2712	64.7514
2696	64.5324
2680	64.6592
2664	64.6394
2648	64.7662
2632	64.661
2616	64.5847
2600	64.5111
2584	64.6767
2568	64.5728
2552	64.6119
2536	64.6278
2520	64.5876
2504	64.5959
2488	64.4583
2472	64.508
2456	64.6262
2440	64.6297
2424	64.5897
2408	64.5126
2392	64.5386
2376	64.4862
2360	64.571
2344	64.4136
2328	64.412
2312	64.4688
2296	64.4127
2280	64.3739
2264	64.4022
2248	64.4301
2232	64.399
2216	64.368
2200	64.2609
2184	64.2546
2168	64.2783
2152	64.2891
2136	64.3
2120	64.3075
2104	64.1745
2088	64.2708
2072	64.1004
2056	64.2746
2040	64.0924
2024	64.1089
2008	64.1298
1992	64.2057
1976	64.1258
1960	64.0973
1944	64.0103
1928	63.9368
1912	64.069
1896	64.045
1880	63.9763
1864	64.0498
1848	63.9442
1832	63.9756
1816	63.9223
1800	63.8754
1784	63.7789
1768	63.8362
1752	63.5372
1736	63.2155
1720	63.5472
1704	63.6537
1688	63.5623
1672	63.6311
1656	63.6755
1640	63.6276
1624	63.5309
1608	63.7014
1592	63.6924
1576	63.5565
1560	63.5275
1544	63.5808
1528	63.5401
1512	63.5172
1496	63.5029
1480	63.2975
1464	63.4031
1448	63.3309
1432	63.1975
1416	63.3314
1400	63.2803
1384	63.2868
1368	63.1396
1352	63.0615
1336	63.1863
1320	63.1615
1304	63.1666
1288	63.0639
1272	62.9971
1256	62.9158
1240	62.8679
1224	63.0969
1208	63.0233
1192	62.9013
1176	62.7859
1160	62.655
1144	62.8148
1128	62.8093
1112	62.8139
1096	62.8569
1080	62.7163
1064	62.8079
1048	62.8501
1032	62.7879
1016	62.7026
1000	62.7499
984	 62.8112
968	 62.5597
952	 62.6542
936	 62.7116
920	 62.8447
904	 62.5013
888	 62.6021
872	 62.7521
856	 62.5916
840	 62.5307
824	 62.5109
808	 62.6047
792	 62.6729
776	 62.4659
760	 62.3348
744	 62.2085
728	 62.1846
712	 62.2534
696	 61.9548
680	 61.8312
664	 62.2107
648	 61.8863
632	 62.2444
616	 61.1402
600	 61.3954
584	 61.7688
568	 62.4348
552	 62.1891
536	 61.0943
520	 62.057
504	 60.7251
488	 61.6442
472	 61.3579
456	 61.9784
440	 60.8388
424	 60.6734
408	 62.3416
392	 57.0388
376	 59.6827
370	 60.887