File: Bakgrunnsmateriale/MATLAB/FTIR/ftir_data/subAa/Mapping_121/BZ1503107-1_t51.asc
PE IR       SPECTRUM    SPECTRUM    ASCII       PEDS        1.60
  -1
BZ2D43~1.ASC
17/04/07
17:26:46.00
17/04/07
17:27:12.00
tln
$BZ1503107-1_t0051$<tbV0>[-2.6,-2.6,8.0,0.0,27,1,0]
27.028
64

2002,4.07
MIRTGS : RIGHTBACK : INTERNAL 2
MIR : ON : INTERNAL 2
OPTKBR

0.200000
8
8.000000
FILLER
RATIO
SPECTRUM
UNLOCKED 256

DOUBLE
64
COMBINED
1
0
0

0.002000
RATIO

1
0
TRUE
51149
0
LEFT NOT FITTED RIGHT NOT FITTED 0
NONE
NONE
15600
12
4.427000
51148
TRUE
1 0 8 72 0 0 0 0

15798

#HDR
-1
-1
#GR
µM
%T
2.38419e-05
0.0
2.000000
0.002000
12515
8
70.1771
39.9292
#DATA
2.000000	 64.8716
2.084000	 64.4765
2.168000	 64.6278
2.252000	 70.1771
2.336000	 65.3858
2.420000	 64.4885
2.504000	 65.007
2.588000	 65.0601
2.672000	 65.1491
2.756000	 65.109
2.840000	 65.0884
2.924000	 65.1856
3.008000	 65.1479
3.092000	 64.8096
3.176000	 64.9758
3.260000	 64.9804
3.344000	 64.8802
3.428000	 65.0352
3.512000	 65.0282
3.596000	 65.0287
3.680000	 64.9775
3.764000	 64.9575
3.848000	 64.9497
3.932000	 64.94
4.016000	 64.885
4.100000	 64.8162
4.184000	 64.8495
4.268000	 64.7759
4.352000	 64.8162
4.436000	 64.838
4.520000	 64.6597
4.604000	 64.6883
4.688000	 64.6473
4.772000	 64.8068
4.856000	 64.7977
4.940000	 64.6555
5.024000	 64.6728
5.108000	 64.5078
5.192000	 64.4785
5.276000	 64.4571
5.359999	 64.5289
5.444000	 64.545
5.528000	 64.5787
5.612000	 64.4532
5.696000	 64.4204
5.780000	 64.2116
5.864000	 64.2771
5.948000	 64.2771
6.032000	 64.2738
6.116000	 64.1723
6.200000	 64.1785
6.284000	 64.1707
6.368000	 64.1242
6.452000	 64.18
6.536000	 64.1749
6.620000	 64.0938
6.704000	 64.0744
6.788000	 64.0346
6.872000	 64.077
6.956000	 64.0956
7.040000	 64.1826
7.124000	 64.0552
7.208000	 64.0711
7.292000	 64.0943
7.376000	 64.0747
7.460000	 63.9802
7.544000	 64.0901
7.628000	 64.0011
7.712000	 64.188
7.796000	 64.0297
7.880000	 64.0908
7.964000	 63.9381
8.048000	 63.9127
8.132000	 63.9186
8.216000	 63.8902
8.300000	 63.9801
8.384000	 63.8072
8.468000	 63.9094
8.552000	 63.7511
8.635999	 63.6596
8.719999	 63.7115
8.804000	 63.7278
8.888000	 63.8126
8.972000	 63.7683
9.056000	 63.9916
9.140000	 63.9771
9.224000	 63.6788
9.308000	 63.6481
9.391999	 63.8387
9.475999	 63.6761
9.560000	 63.6021
9.644000	 63.6453
9.728000	 63.6633
9.812000	 63.6654
9.896000	 63.838
9.980000	 64.0298
10.064	63.9518
10.148	63.9165
10.232	63.806
10.316	63.7828
10.4	63.691
10.484	63.5354
10.568	63.5066
10.652	63.5556
10.736	63.7697
10.82	63.7332
10.904	63.6617
10.988	63.7247
11.072	63.87
11.156	63.9448
11.24	63.8468
11.324	63.8667
11.408	63.8602
11.492	63.7011
11.576	63.6842
11.66	63.7639
11.744	63.8392
11.828	63.8339
11.912	63.7498
11.996	63.7005
12.08	63.6477
12.164	63.7544
12.248	63.6233
12.332	63.6092
12.416	63.5284
12.5	63.4562
12.584	63.5247
12.668	63.5757
12.752	63.6763
12.836	63.8473
12.92	63.8653
13.004	63.7646
13.088	63.6156
13.172	63.5578
13.256	63.4724
13.34	63.3786
13.424	63.6158
13.508	63.7019
13.592	63.5096
13.676	63.4914
13.76	63.6215
13.844	63.6643
13.928	63.5449
14.012	63.2963
14.096	63.0589
14.18	63.0775
14.264	63.1355
14.348	63.0569
14.432	62.9503
14.516	62.9832
14.6	63.1156
14.684	63.3641
14.768	63.6866
14.852	63.6265
14.936	63.2297
15.02	63.0588
15.104	63.3302
15.188	63.8201
15.272	64.1637
15.356	64.2731
15.44	64.289
15.524	64.1452
15.608	63.834
15.692	63.7057
15.776	63.8031
15.86	63.589
15.944	62.8749
16.028	62.4501
16.112	62.8725
16.196	63.3394
16.28	62.9739
16.364	62.2765
16.448	62.1614
16.532	62.6973
16.616	63.3603
16.7	63.7263
16.784	63.7137
16.868	63.4885
16.952	63.2579
17.036	63.1918
17.12	63.3432
17.204	63.4974
17.288	63.3649
17.372	62.9573
17.456	62.5137
17.54	62.1501
17.624	61.9097
17.708	61.948
17.792	62.3622
17.876	62.9669
17.96	63.4094
18.044	63.4981
18.128	63.3465
18.212	63.1946
18.296	63.122
18.38	62.9847
18.464	62.6521
18.548	62.227
18.632	61.9566
18.716	61.991
18.8	62.3078
18.884	62.8271
18.968	63.4542
19.052	64.0158
19.136	64.2914
19.22	64.1876
19.304	63.8371
19.388	63.4858
19.472	63.2922
19.556	63.2566
19.64	63.286
19.724	63.2873
19.808	63.2209
19.892	63.1065
19.976	63.0014
20.06	62.95
20.144	62.9579
20.228	63.0055
20.312	63.0762
20.396	63.1504
20.48	63.1796
20.564	63.0988
20.648	62.8941
20.732	62.6553
20.816	62.5294
20.9	62.6167
20.984	62.9007
21.068	63.2644
21.152	63.5635
21.236	63.7044
21.32	63.6754
21.404	63.5307
21.488	63.3331
21.572	63.1214
21.656	62.9064
21.74	62.6925
21.824	62.4961
21.908	62.3477
21.992	62.2734
22.076	62.2772
22.16	62.3417
22.244	62.4407
22.328	62.5491
22.412	62.6558
22.496	62.7555
22.58	62.8542
22.664	62.9691
22.748	63.1179
22.832	63.301
22.916	63.4945
23	63.6707
23.084	63.8102
23.168	63.9282
23.252	64.0742
23.336	64.2987
23.42	64.6005
23.504	64.9146
23.588	65.1075
23.672	65.0292
23.756	64.5849
23.84	63.8079
23.924	62.8637
24.008	61.9955
24.092	61.4417
24.176	61.3212
24.26	61.5802
24.344	61.9807
24.428	62.2041
24.512	61.958
24.596	61.1081
24.68	59.749
24.764	58.2005
24.848	56.8751
24.932	56.1717
25.016	56.2883
25.1	57.184
25.184	58.5029
25.268	59.7151
25.352	60.3549
25.436	60.085
25.52	58.8522
25.604	56.8819
25.688	54.5849
25.772	52.3738
25.856	50.4942
25.94	48.9881
26.024	47.741
26.108	46.5968
26.192	45.4115
26.276	44.1197
26.36	42.7139
26.444	41.3458
26.528	40.3082
26.612	39.9333
26.696	40.5089
26.78	42.1242
26.864	44.7396
26.948	48.3135
27.028	52.6925