File: Bakgrunnsmateriale/MATLAB/FTIR/ftir_data/subAa/Mapping_121/BZ1503107-1_t20_cm-1.asc
PE IR       SPECTRUM    SPECTRUM    ASCII       PEDS        1.60
  -1
BZ6823~1.ASC
17/04/07
14:48:50.00
17/04/07
14:48:50.00
tln
$BZ1503107-1_t0020$<tbV0>[-7.8,-10.4,8.0,0.0,27,1,0]
370
64

2002,4.07
MIRTGS : RIGHTBACK : INTERNAL 2
MIR : ON : INTERNAL 2
OPTKBR

0.200000
8
8.000000
FILLER
RATIO
SPECTRUM
UNLOCKED 256

DOUBLE
64
COMBINED
1
0
0

1.000000
RATIO

1
0
TRUE
51149
0
LEFT NOT FITTED RIGHT NOT FITTED 0
NONE
NONE
15600
12
4.427000
51148
TRUE
1 0 8 72 0 0 0 0

15798

#HDR
-1
-1
#GR
CM-1
%T
2.38419e-05
0.0
5000
-1.000000
4631
8
78.3971
26.5879
#DATA
5000	61.0909
4984	60.6883
4968	60.4119
4952	60.3035
4936	60.2017
4920	60.4816
4904	60.4628
4888	60.5151
4872	59.6671
4856	60.4833
4840	60.5239
4824	60.5357
4808	60.0999
4792	60.8293
4776	60.2717
4760	60.6762
4744	60.1793
4728	60.2293
4712	60.0127
4696	60.0801
4680	60.2942
4664	60.1337
4648	60.4554
4632	60.1321
4616	60.3172
4600	60.7972
4584	60.8106
4568	60.5056
4552	60.5472
4536	60.7251
4520	60.3371
4504	61.7085
4488	63.9343
4472	61.6896
4456	59.2988
4440	48.192
4424	60.4858
4408	62.0142
4392	61.4691
4376	60.8589
4360	61.5447
4344	61.7582
4328	61.3605
4312	61.2364
4296	61.0289
4280	60.5671
4264	60.7769
4248	60.9493
4232	60.7692
4216	60.9664
4200	60.8685
4184	60.8681
4168	60.9788
4152	60.7349
4136	60.9932
4120	60.7023
4104	61.0102
4088	61.131
4072	61.0885
4056	61.1254
4040	61.0852
4024	61.0225
4008	60.9419
3992	60.7149
3976	61.0706
3960	61.0679
3944	61.0934
3928	61.057
3912	60.8854
3896	61.3375
3880	61.1795
3864	61.0368
3848	61.528
3832	61.2678
3816	61.4119
3800	60.9523
3784	61.2061
3768	61.2843
3752	61.4522
3736	61.28
3720	61.1794
3704	61.4294
3688	61.4913
3672	61.4593
3656	61.2848
3640	61.2832
3624	61.4679
3608	61.3303
3592	61.254
3576	61.4351
3560	61.305
3544	61.4406
3528	61.2348
3512	61.309
3496	61.4027
3480	61.3855
3464	61.4264
3448	61.4572
3432	61.5721
3416	61.4308
3400	61.4057
3384	61.4661
3368	61.4139
3352	61.4231
3336	61.5564
3320	61.5263
3304	61.3864
3288	61.5851
3272	61.4363
3256	61.6203
3240	61.5154
3224	61.5975
3208	61.6252
3192	61.5701
3176	61.6146
3160	61.8022
3144	61.631
3128	61.8767
3112	61.6448
3096	61.8014
3080	61.5777
3064	61.6508
3048	61.5552
3032	61.594
3016	61.8316
3000	61.6636
2984	61.6443
2968	61.6283
2952	61.5639
2936	61.6522
2920	61.6078
2904	61.7008
2888	61.5985
2872	61.7541
2856	61.8335
2840	61.8537
2824	61.9092
2808	61.9033
2792	61.8191
2776	61.9506
2760	61.9055
2744	61.8172
2728	61.9633
2712	61.9219
2696	62.0219
2680	61.9804
2664	61.9724
2648	62.0171
2632	61.9197
2616	62.0243
2600	62.0167
2584	62.0427
2568	62.1145
2552	62.0341
2536	62.0564
2520	62.1287
2504	61.9367
2488	62.1617
2472	62.0743
2456	62.016
2440	62.0748
2424	62.1471
2408	62.2144
2392	62.0763
2376	62.1123
2360	62.2353
2344	62.213
2328	62.1805
2312	62.2077
2296	62.2048
2280	62.1764
2264	62.2992
2248	62.2203
2232	62.2075
2216	62.2602
2200	62.2873
2184	62.2689
2168	62.3859
2152	62.223
2136	62.2603
2120	62.4174
2104	62.3286
2088	62.4496
2072	62.4177
2056	62.4268
2040	62.4114
2024	62.4242
2008	62.4902
1992	62.3735
1976	62.5456
1960	62.483
1944	62.4775
1928	62.4621
1912	62.602
1896	62.4454
1880	62.5348
1864	62.5711
1848	62.602
1832	62.6422
1816	62.5471
1800	62.6205
1784	62.5722
1768	62.6661
1752	62.5932
1736	62.2567
1720	62.5207
1704	62.7149
1688	62.7824
1672	62.7027
1656	62.6203
1640	62.658
1624	62.6986
1608	62.663
1592	62.7125
1576	62.8897
1560	62.9216
1544	62.7496
1528	62.6961
1512	62.8501
1496	62.7756
1480	62.8145
1464	62.7481
1448	62.565
1432	62.7933
1416	62.838
1400	62.7053
1384	62.7819
1368	62.8573
1352	62.9669
1336	62.6955
1320	62.7844
1304	62.711
1288	62.7988
1272	62.7984
1256	62.7796
1240	62.8044
1224	62.8527
1208	62.8496
1192	62.872
1176	62.7658
1160	62.7859
1144	62.7957
1128	63.1605
1112	62.9365
1096	62.9459
1080	63.1693
1064	62.9215
1048	62.8789
1032	63.0896
1016	63.2001
1000	63.1399
984	 63.2517
968	 62.9936
952	 63.2818
936	 63.2593
920	 63.1912
904	 63.1202
888	 63.169
872	 63.2877
856	 63.3714
840	 63.3618
824	 63.0905
808	 63.3019
792	 63.2237
776	 63.3644
760	 63.1372
744	 63.1294
728	 63.2656
712	 63.2701
696	 63.1234
680	 63.0668
664	 63.1572
648	 62.9781
632	 63.5092
616	 63.8624
600	 63.8314
584	 64.6157
568	 62.5709
552	 63.9324
536	 62.8952
520	 63.8618
504	 63.101
488	 63.4102
472	 64.4339
456	 63.4714
440	 63.5313
424	 64.423
408	 67.3999
392	 72.6765
376	 48.5579
370	 45.3156