File: Bakgrunnsmateriale/MATLAB/FTIR/ftir_data/subAa/Mapping_121/BZ1503107-1_t79_cm-1.asc
PE IR       SPECTRUM    SPECTRUM    ASCII       PEDS        1.60
  -1
BZ61B6~1.ASC
17/04/07
19:44:05.00
17/04/07
19:44:05.00
tln
$BZ1503107-1_t0079$<tbV0>[10.4,5.2,8.0,0.0,27,1,0]
370
64

2002,4.07
MIRTGS : RIGHTBACK : INTERNAL 2
MIR : ON : INTERNAL 2
OPTKBR

0.200000
8
8.000000
FILLER
RATIO
SPECTRUM
UNLOCKED 256

DOUBLE
64
COMBINED
1
0
0

1.000000
RATIO

1
0
TRUE
51149
0
LEFT NOT FITTED RIGHT NOT FITTED 0
NONE
NONE
15600
12
4.427000
51148
TRUE
1 0 8 72 0 0 0 0

15798

#HDR
-1
-1
#GR
CM-1
%T
2.38419e-05
0.0
5000
-1.000000
4631
8
78.0642
44.3581
#DATA
5000	64.5756
4984	64.8185
4968	66.1514
4952	65.7946
4936	64.8518
4920	65.0268
4904	65.4627
4888	65.4398
4872	65.6778
4856	64.7565
4840	64.7921
4824	64.7084
4808	64.456
4792	64.8415
4776	64.63
4760	65.019
4744	64.6181
4728	64.8033
4712	64.9271
4696	64.938
4680	64.4608
4664	65.082
4648	64.701
4632	65.0667
4616	65.2458
4600	65.0913
4584	65.2873
4568	65.319
4552	65.0815
4536	65.4397
4520	65.5758
4504	65.6346
4488	65.422
4472	64.9927
4456	65.0592
4440	47.1077
4424	69.6206
4408	68.4638
4392	64.488
4376	65.4511
4360	65.7681
4344	65.4091
4328	64.9367
4312	65.0212
4296	64.9253
4280	64.6676
4264	64.9112
4248	64.87
4232	64.8891
4216	64.9717
4200	65.0215
4184	65.0021
4168	64.9901
4152	65.036
4136	64.8186
4120	65.0619
4104	64.8406
4088	64.9376
4072	64.8599
4056	64.962
4040	65.2005
4024	65.1719
4008	65.2722
3992	64.8468
3976	64.9972
3960	64.7737
3944	65.081
3928	64.8003
3912	65.0199
3896	64.9388
3880	64.858
3864	65.3288
3848	64.9375
3832	64.9012
3816	64.9648
3800	65.0398
3784	65.1484
3768	64.8818
3752	64.7775
3736	65.2145
3720	65.0067
3704	65.0878
3688	65.0344
3672	65.1244
3656	65.102
3640	65.1654
3624	64.9759
3608	65.1508
3592	65.1025
3576	64.9685
3560	64.9829
3544	65.0487
3528	65.0639
3512	65.0081
3496	65.0018
3480	65.1371
3464	64.9481
3448	65.0728
3432	64.969
3416	65.0058
3400	64.9658
3384	64.9785
3368	65.0307
3352	65.0062
3336	65.106
3320	65.1162
3304	65.0616
3288	64.8426
3272	64.8849
3256	64.805
3240	64.9172
3224	65.0343
3208	64.8304
3192	65.0093
3176	65.0085
3160	64.8033
3144	65.1152
3128	64.7835
3112	65.0829
3096	64.9701
3080	64.9163
3064	65.0533
3048	64.9606
3032	64.9816
3016	64.9755
3000	65.1188
2984	64.8095
2968	64.8408
2952	64.775
2936	64.8194
2920	64.8393
2904	64.7147
2888	64.7954
2872	64.784
2856	64.7347
2840	64.7573
2824	64.7871
2808	64.9514
2792	64.8557
2776	64.8792
2760	64.8837
2744	64.8609
2728	64.7763
2712	64.7993
2696	64.842
2680	64.9614
2664	64.7177
2648	64.849
2632	64.7781
2616	64.7426
2600	64.8863
2584	64.772
2568	64.7393
2552	64.5639
2536	64.7842
2520	64.7089
2504	64.6489
2488	64.7164
2472	64.7233
2456	64.6641
2440	64.7193
2424	64.7993
2408	64.5672
2392	64.6412
2376	64.5806
2360	64.5671
2344	64.5225
2328	64.7317
2312	64.64
2296	64.4968
2280	64.5728
2264	64.6234
2248	64.5037
2232	64.5759
2216	64.5421
2200	64.4607
2184	64.4924
2168	64.4109
2152	64.5092
2136	64.3841
2120	64.4353
2104	64.5295
2088	64.398
2072	64.3699
2056	64.3871
2040	64.4489
2024	64.3495
2008	64.4404
1992	64.2981
1976	64.3564
1960	64.5049
1944	64.3335
1928	64.4175
1912	64.2706
1896	64.3843
1880	64.3394
1864	64.2277
1848	64.3271
1832	64.1864
1816	64.1793
1800	64.1737
1784	64.1258
1768	64.3097
1752	64.1257
1736	63.8815
1720	64.0485
1704	64.0015
1688	64.0586
1672	64.044
1656	64.1048
1640	64.1204
1624	64.1193
1608	63.977
1592	63.8794
1576	63.7943
1560	63.7989
1544	63.9392
1528	63.8829
1512	63.9118
1496	63.8031
1480	63.9779
1464	63.765
1448	63.8084
1432	63.7837
1416	63.8702
1400	63.775
1384	63.7056
1368	63.6567
1352	63.6122
1336	63.8626
1320	63.7493
1304	63.7177
1288	63.6058
1272	63.5245
1256	63.6079
1240	63.5244
1224	63.5821
1208	63.5267
1192	63.5139
1176	63.3964
1160	63.4134
1144	63.4365
1128	63.4163
1112	63.4191
1096	63.2769
1080	63.3951
1064	63.3961
1048	63.5049
1032	63.2952
1016	63.4034
1000	63.2724
984	 63.5536
968	 63.4058
952	 63.4244
936	 63.2761
920	 63.3329
904	 63.4333
888	 63.4323
872	 63.6825
856	 63.3441
840	 63.4349
824	 63.1037
808	 63.0303
792	 63.0629
776	 63.3566
760	 63.1602
744	 63.1435
728	 62.8835
712	 62.9745
696	 62.8155
680	 63.1099
664	 62.5578
648	 62.338
632	 62.4368
616	 62.9208
600	 63.2112
584	 62.6299
568	 61.8626
552	 63.4055
536	 61.5742
520	 63.4932
504	 62.4006
488	 62.4122
472	 61.9852
456	 62.2595
440	 62.4196
424	 63.2595
408	 63.6609
392	 60.1079
376	 55.2821
370	 65.9215