File: Bakgrunnsmateriale/MATLAB/FTIR/ftir_data/subAa/Mapping_121/BZ1503107-1_t94.asc
PE IR       SPECTRUM    SPECTRUM    ASCII       PEDS        1.60
  -1
BZ395B~1.ASC
17/04/07
20:59:51.00
17/04/07
21:00:18.00
tln
$BZ1503107-1_t0094$<tbV0>[0.0,7.8,8.0,0.0,27,1,0]
27.028
64

2002,4.07
MIRTGS : RIGHTBACK : INTERNAL 2
MIR : ON : INTERNAL 2
OPTKBR

0.200000
8
8.000000
FILLER
RATIO
SPECTRUM
UNLOCKED 256

DOUBLE
64
COMBINED
1
0
0

0.002000
RATIO

1
0
TRUE
51149
0
LEFT NOT FITTED RIGHT NOT FITTED 0
NONE
NONE
15600
12
4.427000
51148
TRUE
1 0 8 72 0 0 0 0

15798

#HDR
-1
-1
#GR
µM
%T
2.38419e-05
0.0
2.000000
0.002000
12515
8
88.1355
53.5799
#DATA
2.000000	 63.8155
2.084000	 65.1164
2.168000	 64.6476
2.252000	 88.1355
2.336000	 64.6702
2.420000	 65.0517
2.504000	 64.9307
2.588000	 64.7081
2.672000	 64.9694
2.756000	 64.9618
2.840000	 64.841
2.924000	 64.9936
3.008000	 64.6593
3.092000	 64.8456
3.176000	 64.7918
3.260000	 64.7613
3.344000	 64.7405
3.428000	 64.8527
3.512000	 64.6409
3.596000	 64.8303
3.680000	 64.8573
3.764000	 64.6275
3.848000	 64.5112
3.932000	 64.5917
4.016000	 64.5477
4.100000	 64.4855
4.184000	 64.4041
4.268000	 64.4641
4.352000	 64.4907
4.436000	 64.5239
4.520000	 64.3447
4.604000	 64.3379
4.688000	 64.2848
4.772000	 64.3604
4.856000	 64.3399
4.940000	 64.1921
5.024000	 64.2218
5.108000	 64.1787
5.192000	 64.0601
5.276000	 64.1342
5.359999	 64.0961
5.444000	 64.0438
5.528000	 64.1292
5.612000	 63.8858
5.696000	 63.7799
5.780000	 63.5526
5.864000	 63.7787
5.948000	 63.6416
6.032000	 63.7279
6.116000	 63.7345
6.200000	 63.793
6.284000	 63.7688
6.368000	 63.6874
6.452000	 63.6089
6.536000	 63.6751
6.620000	 63.6114
6.704000	 63.7952
6.788000	 63.735
6.872000	 63.4295
6.956000	 63.6144
7.040000	 63.5628
7.124000	 63.5046
7.208000	 63.4767
7.292000	 63.3842
7.376000	 63.4123
7.460000	 63.3806
7.544000	 63.3552
7.628000	 63.4607
7.712000	 63.3205
7.796000	 63.2701
7.880000	 63.1729
7.964000	 63.2622
8.048000	 63.2599
8.132000	 63.0608
8.216000	 63.2568
8.300000	 63.2646
8.384000	 63.2313
8.468000	 63.0191
8.552000	 62.9921
8.635999	 63.0087
8.719999	 63.077
8.804000	 63.2294
8.888000	 63.1179
8.972000	 63.1473
9.056000	 63.0039
9.140000	 63.0638
9.224000	 62.9786
9.308000	 62.7473
9.391999	 62.9998
9.475999	 62.9866
9.560000	 62.9922
9.644000	 63.0097
9.728000	 62.9622
9.812000	 62.9064
9.896000	 62.8047
9.980000	 62.8261
10.064	62.8902
10.148	63.0754
10.232	63.0059
10.316	63.0461
10.4	63.0127
10.484	62.9808
10.568	62.8679
10.652	62.9908
10.736	62.9025
10.82	62.8647
10.904	62.7905
10.988	62.7485
11.072	62.8748
11.156	63.0014
11.24	62.9117
11.324	62.9436
11.408	62.8209
11.492	63.059
11.576	62.9813
11.66	62.9184
11.744	62.85
11.828	62.6863
11.912	62.6384
11.996	62.8008
12.08	62.8623
12.164	62.9103
12.248	63.0266
12.332	63.0273
12.416	62.8864
12.5	62.7744
12.584	62.9486
12.668	62.95
12.752	62.9412
12.836	62.7646
12.92	62.6553
13.004	62.6829
13.088	62.6323
13.172	62.6237
13.256	62.7398
13.34	62.8549
13.424	62.8051
13.508	62.7185
13.592	62.718
13.676	62.7766
13.76	62.6852
13.844	62.448
13.928	62.4041
14.012	62.4003
14.096	62.3217
14.18	62.2967
14.264	62.3273
14.348	62.3742
14.432	62.4196
14.516	62.5332
14.6	62.5131
14.684	62.3001
14.768	62.3348
14.852	62.5874
14.936	62.6379
15.02	62.481
15.104	62.403
15.188	62.4192
15.272	62.4044
15.356	62.4054
15.44	62.4654
15.524	62.5155
15.608	62.4909
15.692	62.3882
15.776	62.2809
15.86	62.2173
15.944	62.1924
16.028	62.2023
16.112	62.1593
16.196	61.9673
16.28	61.7688
16.364	61.7839
16.448	61.9522
16.532	62.0643
16.616	62.0982
16.7	62.1575
16.784	62.2571
16.868	62.2994
16.952	62.1525
17.036	61.8441
17.12	61.6686
17.204	61.8394
17.288	62.1219
17.372	62.1641
17.456	62.0197
17.54	61.998
17.624	62.1117
17.708	62.0663
17.792	61.7718
17.876	61.5577
17.96	61.7811
18.044	62.3933
18.128	62.9638
18.212	63.1103
18.296	62.7966
18.38	62.2755
18.464	61.8387
18.548	61.6246
18.632	61.5657
18.716	61.512
18.8	61.4137
18.884	61.3939
18.968	61.5878
19.052	61.9594
19.136	62.31
19.22	62.4785
19.304	62.4776
19.388	62.4349
19.472	62.4357
19.556	62.4471
19.64	62.3641
19.724	62.0753
19.808	61.5303
19.892	60.7996
19.976	60.1085
20.06	59.7697
20.144	60.0229
20.228	60.8693
20.312	61.9899
20.396	62.8843
20.48	63.1861
20.564	62.8916
20.648	62.3058
20.732	61.8023
20.816	61.6098
20.9	61.7359
20.984	62.0021
21.068	62.1451
21.152	61.9615
21.236	61.4409
21.32	60.7941
21.404	60.3426
21.488	60.2945
21.572	60.6067
21.656	61.0484
21.74	61.3681
21.824	61.4573
21.908	61.3722
21.992	61.2057
22.076	60.9903
22.16	60.6929
22.244	60.2875
22.328	59.8491
22.412	59.5226
22.496	59.4406
22.58	59.644
22.664	60.072
22.748	60.5815
22.832	61.0153
22.916	61.2332
23	61.1461
23.084	60.7349
23.168	60.066
23.252	59.2865
23.336	58.6153
23.42	58.2789
23.504	58.4517
23.588	59.1774
23.672	60.3428
23.756	61.677
23.84	62.8487
23.924	63.5575
24.008	63.6381
24.092	63.1099
24.176	62.1629
24.26	61.065
24.344	60.077
24.428	59.3491
24.512	58.9321
24.596	58.7817
24.68	58.8314
24.764	59.0485
24.848	59.4365
24.932	59.9918
25.016	60.6571
25.1	61.3265
25.184	61.8123
25.268	61.938
25.352	61.652
25.436	61.0327
25.52	60.2801
25.604	59.6413
25.688	59.3522
25.772	59.5452
25.856	60.1969
25.94	61.0857
26.024	61.852
26.108	62.1404
26.192	61.7589
26.276	60.7135
26.36	59.1683
26.444	57.4053
26.528	55.7589
26.612	54.4358
26.696	53.6713
26.78	53.7494
26.864	55.0057
26.948	57.7183
27.028	61.6897