File: Bakgrunnsmateriale/MATLAB/FTIR/ftir_data/subAa/Mapping_121/BZ1503107-1_t100_cm-1.asc
PE IR       SPECTRUM    SPECTRUM    ASCII       PEDS        1.60
  -1
BZBB70~1.ASC
17/04/07
21:28:12.00
17/04/07
21:28:12.00
tln
$BZ1503107-1_t0100$<tbV0>[13.0,10.4,8.0,0.0,27,1,0]
370
64

2002,4.07
MIRTGS : RIGHTBACK : INTERNAL 2
MIR : ON : INTERNAL 2
OPTKBR

0.200000
8
8.000000
FILLER
RATIO
SPECTRUM
UNLOCKED 256

DOUBLE
64
COMBINED
1
0
0

1.000000
RATIO

1
0
TRUE
51149
0
LEFT NOT FITTED RIGHT NOT FITTED 0
NONE
NONE
15600
12
4.427000
51148
TRUE
1 0 8 72 0 0 0 0

15798

#HDR
-1
-1
#GR
CM-1
%T
2.38419e-05
0.0
5000
-1.000000
4631
8
77.7067
50.8469
#DATA
5000	65.0362
4984	65.2672
4968	63.1571
4952	66.9085
4936	66.3001
4920	65.1818
4904	64.7206
4888	64.4769
4872	65.2039
4856	64.7677
4840	64.4342
4824	64.8458
4808	64.6504
4792	65.1637
4776	64.6805
4760	65.0192
4744	65.1356
4728	64.9176
4712	64.9027
4696	64.9848
4680	65.1098
4664	65.1634
4648	65.3573
4632	64.9297
4616	65.095
4600	64.9831
4584	64.7155
4568	64.7495
4552	64.7389
4536	65.082
4520	64.3811
4504	65.1384
4488	65.24
4472	65.3649
4456	65.1054
4440	66.7633
4424	64.0861
4408	64.8282
4392	64.5462
4376	64.8816
4360	65.5222
4344	65.1143
4328	64.9013
4312	65.175
4296	65.3322
4280	64.612
4264	64.9191
4248	65.0523
4232	64.7014
4216	64.7689
4200	65.3011
4184	64.944
4168	64.9962
4152	64.8146
4136	64.8508
4120	64.8178
4104	65.1071
4088	64.9288
4072	65.0357
4056	64.8666
4040	64.8731
4024	65.1032
4008	65.0077
3992	65.0798
3976	64.7769
3960	64.9085
3944	64.8692
3928	64.9527
3912	64.9669
3896	65.1186
3880	65.1114
3864	64.935
3848	65.1317
3832	65.0881
3816	65.1573
3800	65.0852
3784	65.1585
3768	65.0054
3752	65.0814
3736	65.0071
3720	65.0749
3704	64.81
3688	65.1331
3672	64.829
3656	65.0228
3640	65.141
3624	64.9132
3608	64.984
3592	65.0941
3576	64.9211
3560	65.0341
3544	64.6996
3528	65.086
3512	65.0446
3496	64.9614
3480	64.8851
3464	65.0052
3448	64.8225
3432	65.0027
3416	65.0876
3400	64.8357
3384	65.0288
3368	64.9454
3352	64.9954
3336	64.9118
3320	64.9482
3304	64.8867
3288	64.9959
3272	64.7914
3256	64.9932
3240	64.9319
3224	64.8976
3208	64.821
3192	64.9238
3176	64.915
3160	64.7366
3144	64.6098
3128	64.864
3112	64.8984
3096	65.0448
3080	64.7157
3064	64.8089
3048	64.9333
3032	64.9263
3016	64.9027
3000	64.9536
2984	64.8464
2968	64.7981
2952	64.5983
2936	64.5949
2920	64.6857
2904	64.7009
2888	64.6517
2872	64.7354
2856	64.6253
2840	64.6534
2824	64.7722
2808	64.7502
2792	64.768
2776	64.7964
2760	64.7624
2744	64.7223
2728	64.7619
2712	64.7483
2696	64.7277
2680	64.6517
2664	64.6916
2648	64.8143
2632	64.6441
2616	64.6832
2600	64.5654
2584	64.5937
2568	64.6951
2552	64.6604
2536	64.6886
2520	64.5856
2504	64.5377
2488	64.5908
2472	64.5535
2456	64.643
2440	64.5094
2424	64.6144
2408	64.512
2392	64.5691
2376	64.5213
2360	64.6098
2344	64.5936
2328	64.5402
2312	64.5303
2296	64.4297
2280	64.5391
2264	64.5261
2248	64.5718
2232	64.467
2216	64.3818
2200	64.412
2184	64.3601
2168	64.4537
2152	64.2851
2136	64.3156
2120	64.3424
2104	64.3266
2088	64.273
2072	64.2596
2056	64.5973
2040	64.2353
2024	64.1793
2008	64.2504
1992	64.2241
1976	64.1846
1960	64.2433
1944	64.1593
1928	64.135
1912	64.2079
1896	64.1107
1880	64.129
1864	64.209
1848	64.0584
1832	64.1969
1816	64.1232
1800	64.1712
1784	64.0228
1768	64.0331
1752	63.8934
1736	63.8391
1720	63.7938
1704	63.9249
1688	63.919
1672	63.7776
1656	63.867
1640	63.9184
1624	63.7767
1608	63.8884
1592	63.9179
1576	63.7882
1560	63.8494
1544	63.7335
1528	63.8027
1512	63.592
1496	63.7116
1480	63.6225
1464	63.6703
1448	63.608
1432	63.5474
1416	63.5145
1400	63.5374
1384	63.6306
1368	63.4825
1352	63.5508
1336	63.3963
1320	63.5457
1304	63.2754
1288	63.3616
1272	63.2842
1256	63.338
1240	63.2906
1224	63.4131
1208	63.352
1192	63.2985
1176	63.3424
1160	63.1083
1144	63.2828
1128	63.1597
1112	63.1067
1096	63.1688
1080	63.0929
1064	63.0431
1048	63.2111
1032	63.2015
1016	63.0599
1000	63.1433
984	 63.1863
968	 63.2445
952	 63.1223
936	 63.1702
920	 63.2157
904	 63.1167
888	 63.062
872	 62.9116
856	 63.1553
840	 62.9268
824	 62.8907
808	 63.1435
792	 62.846
776	 62.9203
760	 62.8413
744	 62.6884
728	 62.6508
712	 62.4348
696	 62.5274
680	 62.4892
664	 62.6289
648	 62.5485
632	 62.3691
616	 62.2601
600	 62.4098
584	 62.4053
568	 62.3963
552	 63.996
536	 62.3104
520	 62.7238
504	 60.3838
488	 63.1739
472	 61.8181
456	 61.2895
440	 61.5667
424	 59.9425
408	 58.3992
392	 53.5695
376	 70.1622
370	 50.8469