File: Bakgrunnsmateriale/MATLAB/FTIR/ftir_data/subAa/Mapping_121/BZ1503107-1_t57.asc
PE IR       SPECTRUM    SPECTRUM    ASCII       PEDS        1.60
  -1
BZ2563~1.ASC
17/04/07
17:55:06.00
17/04/07
17:55:33.00
tln
$BZ1503107-1_t0057$<tbV0>[10.4,0.0,8.0,0.0,27,1,0]
27.028
64

2002,4.07
MIRTGS : RIGHTBACK : INTERNAL 2
MIR : ON : INTERNAL 2
OPTKBR

0.200000
8
8.000000
FILLER
RATIO
SPECTRUM
UNLOCKED 256

DOUBLE
64
COMBINED
1
0
0

0.002000
RATIO

1
0
TRUE
51149
0
LEFT NOT FITTED RIGHT NOT FITTED 0
NONE
NONE
15600
12
4.427000
51148
TRUE
1 0 8 72 0 0 0 0

15798

#HDR
-1
-1
#GR
µM
%T
2.38419e-05
0.0
2.000000
0.002000
12515
8
73.6957
37.7458
#DATA
2.000000	 64.6047
2.084000	 64.9988
2.168000	 65.0265
2.252000	 55.9644
2.336000	 65.0843
2.420000	 65.0005
2.504000	 65.1475
2.588000	 65.1718
2.672000	 65.1491
2.756000	 65.3238
2.840000	 65.2398
2.924000	 65.0147
3.008000	 64.978
3.092000	 64.9662
3.176000	 65.1274
3.260000	 65.1145
3.344000	 65.0206
3.428000	 64.9271
3.512000	 64.9728
3.596000	 64.9868
3.680000	 65.028
3.764000	 64.9164
3.848000	 64.9232
3.932000	 64.8991
4.016000	 65.0518
4.100000	 64.942
4.184000	 64.9571
4.268000	 64.842
4.352000	 64.7772
4.436000	 64.7423
4.520000	 64.7805
4.604000	 64.69
4.688000	 64.6428
4.772000	 64.7976
4.856000	 64.6416
4.940000	 64.6656
5.024000	 64.6724
5.108000	 64.5376
5.192000	 64.5245
5.276000	 64.5703
5.359999	 64.5981
5.444000	 64.4827
5.528000	 64.4454
5.612000	 64.4286
5.696000	 64.386
5.780000	 64.2013
5.864000	 64.3119
5.948000	 64.3553
6.032000	 64.2238
6.116000	 64.2178
6.200000	 64.2268
6.284000	 64.2218
6.368000	 64.1633
6.452000	 64.1795
6.536000	 64.1768
6.620000	 64.2728
6.704000	 64.1255
6.788000	 64.2167
6.872000	 64.1713
6.956000	 64.1286
7.040000	 64.2286
7.124000	 64.0779
7.208000	 64.0855
7.292000	 64.1055
7.376000	 64.1412
7.460000	 64.0289
7.544000	 64.1034
7.628000	 64.0765
7.712000	 64.1093
7.796000	 64.0297
7.880000	 64.0716
7.964000	 63.8704
8.048000	 63.8871
8.132000	 63.8713
8.216000	 63.793
8.300000	 63.9873
8.384000	 63.8609
8.468000	 63.9094
8.552000	 63.9524
8.635999	 63.7587
8.719999	 63.7332
8.804000	 63.9104
8.888000	 63.7038
8.972000	 63.7188
9.056000	 63.9204
9.140000	 63.8464
9.224000	 63.6838
9.308000	 63.9017
9.391999	 63.7539
9.475999	 63.8024
9.560000	 64.0065
9.644000	 63.7574
9.728000	 63.7288
9.812000	 63.869
9.896000	 63.8753
9.980000	 63.8647
10.064	63.9057
10.148	64.0132
10.232	63.881
10.316	63.7152
10.4	63.6386
10.484	63.5864
10.568	63.6115
10.652	63.5484
10.736	63.6974
10.82	63.7758
10.904	63.7852
10.988	63.7373
11.072	63.781
11.156	63.6934
11.24	63.9653
11.324	63.9881
11.408	63.7444
11.492	63.5887
11.576	63.6601
11.66	63.6752
11.744	63.6225
11.828	63.6494
11.912	63.706
11.996	63.7086
12.08	63.8244
12.164	63.9619
12.248	63.8462
12.332	63.7111
12.416	63.6156
12.5	63.5901
12.584	63.6273
12.668	63.7739
12.752	63.7539
12.836	63.6497
12.92	63.6062
13.004	63.7532
13.088	63.7636
13.172	63.7007
13.256	63.5547
13.34	63.358
13.424	63.3453
13.508	63.4429
13.592	63.4823
13.676	63.5091
13.76	63.578
13.844	63.5984
13.928	63.4128
14.012	63.3173
14.096	63.4318
14.18	63.4163
14.264	63.3391
14.348	63.3483
14.432	63.4418
14.516	63.6081
14.6	63.5857
14.684	63.4823
14.768	63.5894
14.852	63.7127
14.936	63.6878
15.02	63.4303
15.104	63.1365
15.188	63.2883
15.272	63.6806
15.356	63.8021
15.44	63.6293
15.524	63.3375
15.608	63.2183
15.692	63.3253
15.776	63.2154
15.86	62.8322
15.944	62.7366
16.028	63.1774
16.112	63.6676
16.196	63.5911
16.28	62.9653
16.364	62.3527
16.448	62.1498
16.532	62.3067
16.616	62.5702
16.7	62.7361
16.784	62.7908
16.868	62.8659
16.952	63.0594
17.036	63.333
17.12	63.6062
17.204	63.8451
17.288	63.9896
17.372	63.9508
17.456	63.7471
17.54	63.4954
17.624	63.2306
17.708	62.9281
17.792	62.7
17.876	62.7341
17.96	62.991
18.044	63.2021
18.128	63.186
18.212	63.0093
18.296	62.8231
18.38	62.7145
18.464	62.724
18.548	62.8426
18.632	62.9785
18.716	63.071
18.8	63.2028
18.884	63.4645
18.968	63.7564
19.052	63.8592
19.136	63.7395
19.22	63.5856
19.304	63.5406
19.388	63.5477
19.472	63.5327
19.556	63.5463
19.64	63.6501
19.724	63.8012
19.808	63.9616
19.892	64.2628
19.976	64.8825
20.06	65.7186
20.144	66.3143
20.228	66.2138
20.312	65.3989
20.396	64.3232
20.48	63.5228
20.564	63.2112
20.648	63.2197
20.732	63.2592
20.816	63.1962
20.9	63.0982
20.984	63.1064
21.068	63.284
21.152	63.578
21.236	63.8671
21.32	64.0303
21.404	63.9884
21.488	63.7314
21.572	63.3293
21.656	62.9121
21.74	62.6268
21.824	62.559
21.908	62.6852
21.992	62.895
22.076	63.0507
22.16	63.0621
22.244	62.9247
22.328	62.7009
22.412	62.4753
22.496	62.3083
22.58	62.2142
22.664	62.1763
22.748	62.173
22.832	62.2052
22.916	62.2964
23	62.4886
23.084	62.8092
23.168	63.2324
23.252	63.6845
23.336	64.083
23.42	64.3761
23.504	64.5756
23.588	64.725
23.672	64.8493
23.756	64.9323
23.84	64.9176
23.924	64.7569
24.008	64.4682
24.092	64.1417
24.176	63.8729
24.26	63.7039
24.344	63.5854
24.428	63.4208
24.512	63.1645
24.596	62.886
24.68	62.7703
24.764	63.0413
24.848	63.8032
24.932	65.0307
25.016	66.5701
25.1	68.1752
25.184	69.6494
25.268	70.9197
25.352	71.9984
25.436	72.8901
25.52	73.5117
25.604	73.6836
25.688	73.1769
25.772	71.8437
25.856	69.7168
25.94	66.9742
26.024	63.9422
26.108	61.0312
26.192	58.6473
26.276	57.0759
26.36	56.4373
26.444	56.5451
26.528	56.9154
26.612	56.878
26.696	55.7517
26.78	53.0673
26.864	48.7787
26.948	43.3043
27.028	37.7458