File: Bakgrunnsmateriale/MATLAB/FTIR/ftir_data/subAa/Mapping_121/BZ1503107-1_t10.asc
PE IR       SPECTRUM    SPECTRUM    ASCII       PEDS        1.60
  -1
BZ294B~1.ASC
17/04/07
14:02:02.00
17/04/07
14:02:28.00
tln
$BZ1503107-1_t0010$<tbV0>[-10.4,-13.0,8.0,0.0,27,1,0]
27.028
64

2002,4.07
MIRTGS : RIGHTBACK : INTERNAL 2
MIR : ON : INTERNAL 2
OPTKBR

0.200000
8
8.000000
FILLER
RATIO
SPECTRUM
UNLOCKED 256

DOUBLE
64
COMBINED
1
0
0

0.002000
RATIO

1
0
TRUE
51149
0
LEFT NOT FITTED RIGHT NOT FITTED 0
NONE
NONE
15600
12
4.427000
51148
TRUE
1 0 8 72 0 0 0 0

15798

#HDR
-1
-1
#GR
µM
%T
2.38419e-05
0.0
2.000000
0.002000
12515
8
78.656
51.0753
#DATA
2.000000	 65.6181
2.084000	 65.8174
2.168000	 64.7645
2.252000	 70.0895
2.336000	 65.0037
2.420000	 64.9865
2.504000	 64.8252
2.588000	 64.9764
2.672000	 65.5024
2.756000	 65.3984
2.840000	 64.9602
2.924000	 65.1706
3.008000	 65.1934
3.092000	 64.9887
3.176000	 65.0819
3.260000	 65.1236
3.344000	 65.1076
3.428000	 65.1521
3.512000	 65.1494
3.596000	 65.1616
3.680000	 65.1335
3.764000	 65.0852
3.848000	 64.9744
3.932000	 65.0238
4.016000	 65.0481
4.100000	 64.9476
4.184000	 64.9827
4.268000	 65.0825
4.352000	 64.9398
4.436000	 65.0583
4.520000	 64.9751
4.604000	 64.952
4.688000	 64.9044
4.772000	 64.8597
4.856000	 64.8587
4.940000	 64.9775
5.024000	 64.8143
5.108000	 64.9025
5.192000	 64.8597
5.276000	 64.8919
5.359999	 64.8457
5.444000	 64.83
5.528000	 64.802
5.612000	 64.7496
5.696000	 64.7304
5.780000	 64.5855
5.864000	 64.8148
5.948000	 64.7976
6.032000	 64.7907
6.116000	 64.7921
6.200000	 64.6297
6.284000	 64.6829
6.368000	 64.618
6.452000	 64.6552
6.536000	 64.5633
6.620000	 64.6719
6.704000	 64.7216
6.788000	 64.6577
6.872000	 64.6694
6.956000	 64.7327
7.040000	 64.6912
7.124000	 64.5002
7.208000	 64.4836
7.292000	 64.5367
7.376000	 64.4834
7.460000	 64.5655
7.544000	 64.3929
7.628000	 64.5054
7.712000	 64.4961
7.796000	 64.3565
7.880000	 64.3541
7.964000	 64.4047
8.048000	 64.3348
8.132000	 64.3443
8.216000	 64.3858
8.300000	 64.4372
8.384000	 64.3805
8.468000	 64.1952
8.552000	 64.1956
8.635999	 64.3525
8.719999	 64.2343
8.804000	 64.4388
8.888000	 64.4797
8.972000	 64.2879
9.056000	 64.233
9.140000	 64.5332
9.224000	 64.4956
9.308000	 64.5298
9.391999	 64.1732
9.475999	 64.1685
9.560000	 64.1688
9.644000	 64.1551
9.728000	 64.2267
9.812000	 64.2792
9.896000	 64.3275
9.980000	 64.2446
10.064	64.2147
10.148	64.1555
10.232	64.2464
10.316	64.318
10.4	64.3965
10.484	64.4399
10.568	64.3424
10.652	64.319
10.736	64.2866
10.82	64.1866
10.904	64.2684
10.988	64.3133
11.072	64.311
11.156	64.3466
11.24	64.3463
11.324	64.352
11.408	64.1757
11.492	64.2694
11.576	64.1617
11.66	64.1525
11.744	64.3519
11.828	64.4599
11.912	64.372
11.996	64.2787
12.08	64.1332
12.164	64.1358
12.248	64.0675
12.332	63.9926
12.416	64.1647
12.5	64.1086
12.584	64.0729
12.668	64.0838
12.752	64.2143
12.836	64.2969
12.92	64.3114
13.004	64.127
13.088	64.0071
13.172	64.0498
13.256	64.034
13.34	63.9607
13.424	63.8241
13.508	63.8494
13.592	63.8295
13.676	63.9147
13.76	64.1619
13.844	64.1868
13.928	64.1233
14.012	64.1235
14.096	64.0758
14.18	63.9639
14.264	63.907
14.348	63.9322
14.432	63.979
14.516	63.9286
14.6	63.8103
14.684	63.827
14.768	63.9207
14.852	64.0036
14.936	64.1587
15.02	64.2886
15.104	64.2672
15.188	64.2418
15.272	64.2973
15.356	64.3029
15.44	64.238
15.524	64.1805
15.608	64.1064
15.692	64.0075
15.776	63.9721
15.86	64.0632
15.944	64.1262
16.028	63.9977
16.112	63.8698
16.196	63.9666
16.28	64.1004
16.364	64.0703
16.448	64.1111
16.532	64.4636
16.616	64.8541
16.7	64.8751
16.784	64.5983
16.868	64.3704
16.952	64.2836
17.036	64.2337
17.12	64.2314
17.204	64.3256
17.288	64.4327
17.372	64.4441
17.456	64.3628
17.54	64.2511
17.624	64.1647
17.708	64.1331
17.792	64.1287
17.876	64.066
17.96	63.8925
18.044	63.6336
18.128	63.3605
18.212	63.1575
18.296	63.1112
18.38	63.2373
18.464	63.435
18.548	63.5928
18.632	63.767
18.716	64.1135
18.8	64.6294
18.884	65.0496
18.968	65.0934
19.052	64.7688
19.136	64.4134
19.22	64.3908
19.304	64.7152
19.388	65.0247
19.472	64.9076
19.556	64.2314
19.64	63.2418
19.724	62.4268
19.808	62.2143
19.892	62.6677
19.976	63.4122
20.06	63.9055
20.144	63.8423
20.228	63.3417
20.312	62.7644
20.396	62.3989
20.48	62.3056
20.564	62.4111
20.648	62.6495
20.732	62.996
20.816	63.4114
20.9	63.7951
20.984	64.018
21.068	64.0101
21.152	63.7858
21.236	63.4299
21.32	63.0532
21.404	62.7546
21.488	62.5974
21.572	62.6052
21.656	62.781
21.74	63.1091
21.824	63.5214
21.908	63.8796
21.992	64.0368
22.076	63.9261
22.16	63.6152
22.244	63.2921
22.328	63.1436
22.412	63.2706
22.496	63.6423
22.58	64.1419
22.664	64.637
22.748	65.0201
22.832	65.2245
22.916	65.2199
23	65.0312
23.084	64.7442
23.168	64.4648
23.252	64.2531
23.336	64.111
23.42	63.9577
23.504	63.6952
23.588	63.2812
23.672	62.7552
23.756	62.2188
23.84	61.8051
23.924	61.604
24.008	61.6285
24.092	61.8203
24.176	62.0705
24.26	62.2543
24.344	62.275
24.428	62.1305
24.512	61.9324
24.596	61.902
24.68	62.3204
24.764	63.4086
24.848	65.2093
24.932	67.5277
25.016	69.9443
25.1	71.9204
25.184	72.9223
25.268	72.6194
25.352	70.9411
25.436	68.113
25.52	64.6481
25.604	61.2093
25.688	58.262
25.772	56.1406
25.856	55.1217
25.94	55.7173
26.024	57.8094
26.108	60.0307
26.192	61.4396
26.276	62.1898
26.36	64.5641
26.444	69.5117
26.528	75.8041
26.612	78.6267
26.696	74.572
26.78	64.6562
26.864	55.6546
26.948	55.0177
27.028	61.6596