File: Bakgrunnsmateriale/MATLAB/FTIR/ftir_data/subAa/Mapping_121/BZ1503107-1_t49.asc
PE IR       SPECTRUM    SPECTRUM    ASCII       PEDS        1.60
  -1
BZ2D6D~1.ASC
17/04/07
17:17:31.00
17/04/07
17:17:57.00
tln
$BZ1503107-1_t0049$<tbV0>[2.6,-2.6,8.0,0.0,27,1,0]
27.028
64

2002,4.07
MIRTGS : RIGHTBACK : INTERNAL 2
MIR : ON : INTERNAL 2
OPTKBR

0.200000
8
8.000000
FILLER
RATIO
SPECTRUM
UNLOCKED 256

DOUBLE
64
COMBINED
1
0
0

0.002000
RATIO

1
0
TRUE
51149
0
LEFT NOT FITTED RIGHT NOT FITTED 0
NONE
NONE
15600
12
4.427000
51148
TRUE
1 0 8 72 0 0 0 0

15798

#HDR
-1
-1
#GR
µM
%T
2.38419e-05
0.0
2.000000
0.002000
12515
8
83.0415
56.8627
#DATA
2.000000	 67.5335
2.084000	 64.9448
2.168000	 64.6581
2.252000	 63.0183
2.336000	 65.1922
2.420000	 65.0211
2.504000	 65.1793
2.588000	 65.1117
2.672000	 65.129
2.756000	 65.0088
2.840000	 64.9886
2.924000	 64.9841
3.008000	 65.1216
3.092000	 64.8228
3.176000	 64.9304
3.260000	 64.9173
3.344000	 64.9473
3.428000	 64.8881
3.512000	 64.9565
3.596000	 64.9337
3.680000	 64.9229
3.764000	 64.8881
3.848000	 64.8651
3.932000	 64.902
4.016000	 64.9876
4.100000	 64.8693
4.184000	 64.7751
4.268000	 64.7698
4.352000	 64.7663
4.436000	 64.7332
4.520000	 64.8483
4.604000	 64.6792
4.688000	 64.6717
4.772000	 64.7182
4.856000	 64.7085
4.940000	 64.6133
5.024000	 64.7303
5.108000	 64.5406
5.192000	 64.5861
5.276000	 64.4241
5.359999	 64.5538
5.444000	 64.5712
5.528000	 64.4465
5.612000	 64.5176
5.696000	 64.4208
5.780000	 64.2735
5.864000	 64.3601
5.948000	 64.1825
6.032000	 64.2691
6.116000	 64.3368
6.200000	 64.3288
6.284000	 64.256
6.368000	 64.165
6.452000	 64.2118
6.536000	 64.1418
6.620000	 64.19
6.704000	 64.2354
6.788000	 64.2663
6.872000	 64.0761
6.956000	 64.1765
7.040000	 64.246
7.124000	 64.1688
7.208000	 64.1499
7.292000	 64.1298
7.376000	 64.0607
7.460000	 64.0999
7.544000	 64.1604
7.628000	 64.0285
7.712000	 64.197
7.796000	 64.08
7.880000	 63.9391
7.964000	 63.9155
8.048000	 63.9144
8.132000	 63.8358
8.216000	 63.8779
8.300000	 63.9498
8.384000	 63.757
8.468000	 63.8684
8.552000	 63.9134
8.635999	 63.6063
8.719999	 63.8001
8.804000	 63.7292
8.888000	 63.7241
8.972000	 63.7679
9.056000	 63.7298
9.140000	 63.775
9.224000	 63.6339
9.308000	 63.8307
9.391999	 63.7327
9.475999	 63.6598
9.560000	 63.7037
9.644000	 63.8416
9.728000	 63.8501
9.812000	 64.0295
9.896000	 63.9759
9.980000	 63.8101
10.064	63.7986
10.148	63.8531
10.232	63.9468
10.316	63.9173
10.4	63.7529
10.484	63.755
10.568	63.7215
10.652	63.6278
10.736	63.7333
10.82	63.6619
10.904	63.7559
10.988	63.6742
11.072	63.8335
11.156	63.7005
11.24	63.741
11.324	63.9068
11.408	63.791
11.492	63.711
11.576	63.8127
11.66	63.8848
11.744	63.8365
11.828	63.8457
11.912	63.926
11.996	63.7054
12.08	63.8208
12.164	63.715
12.248	63.7022
12.332	63.686
12.416	63.6548
12.5	63.6525
12.584	63.6599
12.668	63.7708
12.752	63.7087
12.836	63.6253
12.92	63.6481
13.004	63.6939
13.088	63.6047
13.172	63.4946
13.256	63.5134
13.34	63.5136
13.424	63.5749
13.508	63.6058
13.592	63.4956
13.676	63.4012
13.76	63.4484
13.844	63.5118
13.928	63.5388
14.012	63.465
14.096	63.2157
14.18	63.0662
14.264	63.1111
14.348	63.1738
14.432	63.293
14.516	63.4775
14.6	63.4335
14.684	63.4073
14.768	63.6129
14.852	63.5577
14.936	63.279
15.02	63.1546
15.104	63.1873
15.188	63.3392
15.272	63.4081
15.356	63.203
15.44	62.9534
15.524	62.9394
15.608	63.171
15.692	63.3244
15.776	63.0625
15.86	62.6644
15.944	62.7102
16.028	63.3631
16.112	64.1974
16.196	64.4252
16.28	63.7235
16.364	62.7958
16.448	62.4847
16.532	62.7824
16.616	63.0587
16.7	62.8678
16.784	62.3919
16.868	62.2188
16.952	62.7181
17.036	63.6131
17.12	64.2673
17.204	64.3758
17.288	64.1352
17.372	63.8375
17.456	63.6105
17.54	63.5316
17.624	63.6785
17.708	63.9859
17.792	64.2728
17.876	64.4645
17.96	64.6831
18.044	65.0268
18.128	65.3605
18.212	65.4386
18.296	65.1883
18.38	64.7578
18.464	64.343
18.548	64.0281
18.632	63.7825
18.716	63.5801
18.8	63.4617
18.884	63.4535
18.968	63.514
19.052	63.6188
19.136	63.8111
19.22	64.1078
19.304	64.4018
19.388	64.5257
19.472	64.4158
19.556	64.1827
19.64	64.0172
19.724	64.0399
19.808	64.2352
19.892	64.4833
19.976	64.6279
20.06	64.5432
20.144	64.2175
20.228	63.7813
20.312	63.4241
20.396	63.2608
20.48	63.2729
20.564	63.3542
20.648	63.3954
20.732	63.3384
20.816	63.1968
20.9	63.0504
20.984	63.0079
21.068	63.1384
21.152	63.4002
21.236	63.6492
21.32	63.7411
21.404	63.6435
21.488	63.4567
21.572	63.3277
21.656	63.3428
21.74	63.4857
21.824	63.6695
21.908	63.8087
21.992	63.8698
22.076	63.8686
22.16	63.8479
22.244	63.851
22.328	63.9003
22.412	63.9968
22.496	64.1118
22.58	64.206
22.664	64.2511
22.748	64.2426
22.832	64.1939
22.916	64.1226
23	64.0372
23.084	63.9364
23.168	63.8307
23.252	63.7575
23.336	63.7752
23.42	63.9274
23.504	64.1932
23.588	64.4672
23.672	64.5978
23.756	64.4382
23.84	63.9237
23.924	63.1314
24.008	62.2631
24.092	61.5758
24.176	61.2773
24.26	61.4177
24.344	61.8791
24.428	62.4439
24.512	62.8461
24.596	62.9452
24.68	62.7561
24.764	62.4029
24.848	62.0088
24.932	61.6366
25.016	61.2491
25.1	60.7208
25.184	59.9522
25.268	58.9946
25.352	58.0865
25.436	57.52
25.52	57.503
25.604	58.0825
25.688	59.0876
25.772	60.202
25.856	61.1458
25.94	61.8179
26.024	62.3799
26.108	63.1902
26.192	64.7422
26.276	67.374
26.36	71.0591
26.444	75.2223
26.528	78.8507
26.612	80.8003
26.696	80.1567
26.78	76.6009
26.864	70.6838
26.948	63.7695
27.028	57.9876