File: Bakgrunnsmateriale/MATLAB/FTIR/ftir_data/subAa/Mapping_121/BZ1503107-1_t71.asc
PE IR       SPECTRUM    SPECTRUM    ASCII       PEDS        1.60
  -1
BZ2D4F~1.ASC
17/04/07
19:06:31.00
17/04/07
19:06:58.00
tln
$BZ1503107-1_t0071$<tbV0>[2.6,2.6,8.0,0.0,27,1,0]
27.028
64

2002,4.07
MIRTGS : RIGHTBACK : INTERNAL 2
MIR : ON : INTERNAL 2
OPTKBR

0.200000
8
8.000000
FILLER
RATIO
SPECTRUM
UNLOCKED 256

DOUBLE
64
COMBINED
1
0
0

0.002000
RATIO

1
0
TRUE
51149
0
LEFT NOT FITTED RIGHT NOT FITTED 0
NONE
NONE
15600
12
4.427000
51148
TRUE
1 0 8 72 0 0 0 0

15798

#HDR
-1
-1
#GR
µM
%T
2.38419e-05
0.0
2.000000
0.002000
12515
8
71.0316
32.2752
#DATA
2.000000	 65.4047
2.084000	 64.7846
2.168000	 65.1659
2.252000	 64.1352
2.336000	 64.9626
2.420000	 64.7355
2.504000	 64.7904
2.588000	 65.0922
2.672000	 65.2408
2.756000	 65.1202
2.840000	 64.9611
2.924000	 64.9247
3.008000	 65.0425
3.092000	 65.2127
3.176000	 64.9908
3.260000	 64.9703
3.344000	 64.857
3.428000	 64.9779
3.512000	 64.7873
3.596000	 64.9477
3.680000	 64.9691
3.764000	 64.812
3.848000	 64.6802
3.932000	 64.7462
4.016000	 64.7102
4.100000	 64.6493
4.184000	 64.5638
4.268000	 64.6595
4.352000	 64.5536
4.436000	 64.6663
4.520000	 64.6259
4.604000	 64.5076
4.688000	 64.6014
4.772000	 64.5122
4.856000	 64.4703
4.940000	 64.3565
5.024000	 64.3258
5.108000	 64.4376
5.192000	 64.2956
5.276000	 64.2669
5.359999	 64.3086
5.444000	 64.2849
5.528000	 64.232
5.612000	 64.1857
5.696000	 64.1718
5.780000	 63.8195
5.864000	 64.0705
5.948000	 64.0226
6.032000	 63.9713
6.116000	 63.9738
6.200000	 64.0865
6.284000	 63.9552
6.368000	 63.9746
6.452000	 63.879
6.536000	 63.8348
6.620000	 63.9833
6.704000	 63.8567
6.788000	 63.8724
6.872000	 63.9546
6.956000	 63.9429
7.040000	 63.9225
7.124000	 63.6661
7.208000	 63.7226
7.292000	 63.618
7.376000	 63.676
7.460000	 63.7462
7.544000	 63.7518
7.628000	 63.7435
7.712000	 63.6836
7.796000	 63.63
7.880000	 63.5499
7.964000	 63.5829
8.048000	 63.5824
8.132000	 63.5847
8.216000	 63.6218
8.300000	 63.672
8.384000	 63.634
8.468000	 63.5721
8.552000	 63.4184
8.635999	 63.4717
8.719999	 63.4784
8.804000	 63.6109
8.888000	 63.4673
8.972000	 63.5372
9.056000	 63.3979
9.140000	 63.3728
9.224000	 63.5336
9.308000	 63.443
9.391999	 63.5316
9.475999	 63.5682
9.560000	 63.6377
9.644000	 63.4964
9.728000	 63.333
9.812000	 63.3481
9.896000	 63.3813
9.980000	 63.464
10.064	63.4877
10.148	63.6072
10.232	63.6449
10.316	63.436
10.4	63.505
10.484	63.4185
10.568	63.3377
10.652	63.3332
10.736	63.4863
10.82	63.6278
10.904	63.6836
10.988	63.5973
11.072	63.5211
11.156	63.5432
11.24	63.5852
11.324	63.6412
11.408	63.4772
11.492	63.5672
11.576	63.3724
11.66	63.3257
11.744	63.2906
11.828	63.393
11.912	63.4863
11.996	63.2101
12.08	63.2244
12.164	63.3363
12.248	63.2729
12.332	63.2977
12.416	63.3305
12.5	63.2765
12.584	63.0395
12.668	62.971
12.752	63.2736
12.836	63.9557
12.92	64.0981
13.004	63.5468
13.088	63.2458
13.172	63.2065
13.256	63.254
13.34	63.066
13.424	62.6364
13.508	62.5944
13.592	62.9266
13.676	63.354
13.76	63.5169
13.844	62.7914
13.928	62.1931
14.012	62.4129
14.096	62.8178
14.18	62.8126
14.264	62.8382
14.348	63.1607
14.432	63.441
14.516	63.4824
14.6	63.2317
14.684	63.1875
14.768	63.5317
14.852	63.6286
14.936	63.1749
15.02	62.7235
15.104	62.8452
15.188	63.0911
15.272	62.8387
15.356	62.4533
15.44	62.4211
15.524	62.4839
15.608	62.2857
15.692	62.0596
15.776	62.1461
15.86	62.3416
15.944	62.342
16.028	62.3117
16.112	62.5021
16.196	62.8785
16.28	63.2874
16.364	63.5613
16.448	63.5997
16.532	63.5248
16.616	63.417
16.7	63.1324
16.784	62.7061
16.868	62.4444
16.952	62.4667
17.036	62.5849
17.12	62.6633
17.204	62.7686
17.288	62.9775
17.372	63.2624
17.456	63.5356
17.54	63.6849
17.624	63.6149
17.708	63.3659
17.792	63.1196
17.876	62.9973
17.96	62.9614
18.044	62.9428
18.128	62.9416
18.212	62.9856
18.296	63.0552
18.38	63.0834
18.464	63.029
18.548	62.942
18.632	62.9268
18.716	63.0177
18.8	63.1378
18.884	63.2005
18.968	63.2043
19.052	63.1878
19.136	63.1386
19.22	63.0274
19.304	62.9095
19.388	62.8819
19.472	62.9314
19.556	62.9378
19.64	62.8333
19.724	62.6791
19.808	62.5741
19.892	62.5617
19.976	62.6232
20.06	62.7297
20.144	62.8684
20.228	63.0274
20.312	63.1815
20.396	63.3098
20.48	63.4077
20.564	63.4711
20.648	63.4704
20.732	63.3535
20.816	63.0852
20.9	62.6952
20.984	62.2809
21.068	61.9595
21.152	61.7936
21.236	61.7623
21.32	61.7992
21.404	61.8542
21.488	61.9218
21.572	62.0102
21.656	62.1008
21.74	62.1354
21.824	62.0468
21.908	61.8243
21.992	61.5482
22.076	61.3583
22.16	61.3793
22.244	61.6251
22.328	61.9927
22.412	62.3167
22.496	62.4714
22.58	62.4522
22.664	62.3498
22.748	62.2758
22.832	62.2703
22.916	62.2851
23	62.249
23.084	62.1407
23.168	62.021
23.252	61.9881
23.336	62.1135
23.42	62.4052
23.504	62.8069
23.588	63.2437
23.672	63.6692
23.756	64.0683
23.84	64.4226
23.924	64.6928
24.008	64.8062
24.092	64.6746
24.176	64.2556
24.26	63.5643
24.344	62.6822
24.428	61.7315
24.512	60.8541
24.596	60.136
24.68	59.5918
24.764	59.1742
24.848	58.7521
24.932	58.1823
25.016	57.3917
25.1	56.3828
25.184	55.2744
25.268	54.2926
25.352	53.7224
25.436	53.7925
25.52	54.5962
25.604	56.1036
25.688	58.1824
25.772	60.6394
25.856	63.2601
25.94	65.7889
26.024	67.9277
26.108	69.3756
26.192	69.8963
26.276	69.3131
26.36	67.5978
26.444	64.733
26.528	60.7305
26.612	55.7462
26.696	50.0779
26.78	44.1423
26.864	38.5992
26.948	34.3118
27.028	32.2752