File: Bakgrunnsmateriale/MATLAB/FTIR/ftir_data/subAa/Mapping_121/BZ1503107-1_t73.asc
PE IR       SPECTRUM    SPECTRUM    ASCII       PEDS        1.60
  -1
BZ255F~1.ASC
17/04/07
19:15:46.00
17/04/07
19:16:12.00
tln
$BZ1503107-1_t0073$<tbV0>[-2.6,2.6,8.0,0.0,27,1,0]
27.028
64

2002,4.07
MIRTGS : RIGHTBACK : INTERNAL 2
MIR : ON : INTERNAL 2
OPTKBR

0.200000
8
8.000000
FILLER
RATIO
SPECTRUM
UNLOCKED 256

DOUBLE
64
COMBINED
1
0
0

0.002000
RATIO

1
0
TRUE
51149
0
LEFT NOT FITTED RIGHT NOT FITTED 0
NONE
NONE
15600
12
4.427000
51148
TRUE
1 0 8 72 0 0 0 0

15798

#HDR
-1
-1
#GR
µM
%T
2.38419e-05
0.0
2.000000
0.002000
12515
8
89.7969
54.2767
#DATA
2.000000	 65.5807
2.084000	 64.7705
2.168000	 65.0726
2.252000	 64.546
2.336000	 64.3644
2.420000	 64.6622
2.504000	 64.5432
2.588000	 65
2.672000	 65.2567
2.756000	 65.0611
2.840000	 65.0568
2.924000	 64.8135
3.008000	 65.0513
3.092000	 65.3936
3.176000	 64.9442
3.260000	 64.9596
3.344000	 64.7983
3.428000	 64.7038
3.512000	 64.864
3.596000	 64.8971
3.680000	 65.0149
3.764000	 64.8526
3.848000	 64.5575
3.932000	 64.7773
4.016000	 64.5146
4.100000	 64.5814
4.184000	 64.6405
4.268000	 64.6649
4.352000	 64.5502
4.436000	 64.596
4.520000	 64.5689
4.604000	 64.8536
4.688000	 64.5176
4.772000	 64.5096
4.856000	 64.476
4.940000	 64.4441
5.024000	 64.3917
5.108000	 64.3181
5.192000	 64.408
5.276000	 64.2842
5.359999	 64.2293
5.444000	 64.2582
5.528000	 64.2053
5.612000	 64.2549
5.696000	 64.099
5.780000	 64.0778
5.864000	 63.9158
5.948000	 64.104
6.032000	 64.0226
6.116000	 63.8095
6.200000	 64.1345
6.284000	 63.8298
6.368000	 63.8887
6.452000	 63.8762
6.536000	 63.9268
6.620000	 63.9156
6.704000	 63.8607
6.788000	 63.8939
6.872000	 63.7166
6.956000	 63.731
7.040000	 63.7578
7.124000	 63.7286
7.208000	 63.8328
7.292000	 63.6217
7.376000	 63.6813
7.460000	 63.7449
7.544000	 63.9212
7.628000	 63.6768
7.712000	 63.5741
7.796000	 63.614
7.880000	 63.5844
7.964000	 63.6752
8.048000	 63.5375
8.132000	 63.5573
8.216000	 63.488
8.300000	 63.6237
8.384000	 63.6675
8.468000	 63.6071
8.552000	 63.553
8.635999	 63.334
8.719999	 63.5173
8.804000	 63.5601
8.888000	 63.6619
8.972000	 63.4815
9.056000	 63.3489
9.140000	 63.2467
9.224000	 65.3556
9.308000	 63.1187
9.391999	 63.5027
9.475999	 63.4177
9.560000	 63.0668
9.644000	 63.2892
9.728000	 63.3513
9.812000	 63.405
9.896000	 63.4568
9.980000	 63.234
10.064	63.1851
10.148	63.4075
10.232	63.4656
10.316	63.3922
10.4	63.4244
10.484	63.3904
10.568	63.2604
10.652	63.4188
10.736	63.2206
10.82	63.1003
10.904	63.0654
10.988	63.1565
11.072	63.4674
11.156	63.4785
11.24	63.5057
11.324	63.4395
11.408	63.0667
11.492	63.3608
11.576	63.5097
11.66	63.3343
11.744	63.4164
11.828	63.31
11.912	63.3578
11.996	63.5259
12.08	63.6626
12.164	63.5166
12.248	63.6332
12.332	63.4765
12.416	63.1817
12.5	63.126
12.584	63.0745
12.668	63.0397
12.752	62.9109
12.836	62.8564
12.92	62.9948
13.004	63.091
13.088	62.791
13.172	62.6934
13.256	62.9451
13.34	62.8417
13.424	62.6214
13.508	62.7402
13.592	62.7234
13.676	62.6622
13.76	62.9499
13.844	63.1903
13.928	63.161
14.012	62.9527
14.096	62.5609
14.18	62.0702
14.264	61.7604
14.348	61.7645
14.432	62.0068
14.516	62.6017
14.6	63.0413
14.684	63.0526
14.768	63.2177
14.852	63.5037
14.936	63.3487
15.02	62.8531
15.104	62.802
15.188	63.1863
15.272	63.1672
15.356	62.7427
15.44	62.5134
15.524	62.4587
15.608	62.1596
15.692	61.7152
15.776	61.7862
15.86	62.2738
15.944	62.3574
16.028	62.1655
16.112	62.4101
16.196	62.9576
16.28	63.2671
16.364	63.3108
16.448	63.4532
16.532	63.7871
16.616	63.904
16.7	63.5146
16.784	62.9455
16.868	62.6309
16.952	62.6558
17.036	62.9135
17.12	63.2337
17.204	63.3798
17.288	63.2064
17.372	62.8543
17.456	62.6406
17.54	62.7233
17.624	62.9268
17.708	62.9873
17.792	62.859
17.876	62.6601
17.96	62.5073
18.044	62.4839
18.128	62.6072
18.212	62.7648
18.296	62.7939
18.38	62.6664
18.464	62.5132
18.548	62.4652
18.632	62.5291
18.716	62.6135
18.8	62.6193
18.884	62.5228
18.968	62.376
19.052	62.2521
19.136	62.2153
19.22	62.3034
19.304	62.5049
19.388	62.7526
19.472	62.9681
19.556	63.1076
19.64	63.158
19.724	63.1041
19.808	62.9599
19.892	62.8396
19.976	62.8991
20.06	63.1636
20.144	63.4589
20.228	63.5603
20.312	63.4086
20.396	63.1598
20.48	63.0191
20.564	63.0556
20.648	63.1736
20.732	63.2192
20.816	63.0992
20.9	62.8259
20.984	62.5048
21.068	62.2779
21.152	62.2357
21.236	62.3575
21.32	62.5271
21.404	62.6205
21.488	62.6161
21.572	62.5957
21.656	62.6689
21.74	62.8624
21.824	63.0754
21.908	63.1601
21.992	63.0513
22.076	62.8212
22.16	62.6397
22.244	62.6372
22.328	62.8264
22.412	63.1031
22.496	63.3287
22.58	63.4174
22.664	63.3393
22.748	63.086
22.832	62.6357
22.916	61.9691
23	61.1271
23.084	60.2383
23.168	59.5128
23.252	59.144
23.336	59.2447
23.42	59.7944
23.504	60.6895
23.588	61.8046
23.672	63.0373
23.756	64.297
23.84	65.4842
23.924	66.4421
24.008	67.0096
24.092	67.1051
24.176	66.7728
24.26	66.182
24.344	65.5813
24.428	65.1692
24.512	65.0139
24.596	65.056
24.68	65.173
24.764	65.2635
24.848	65.3483
24.932	65.5349
25.016	65.9368
25.1	66.6234
25.184	67.5072
25.268	68.3341
25.352	68.7811
25.436	68.521
25.52	67.3354
25.604	65.174
25.688	62.2896
25.772	59.1967
25.856	56.4986
25.94	54.738
26.024	54.3065
26.108	55.3557
26.192	57.6725
26.276	60.8205
26.36	64.3028
26.444	67.6986
26.528	70.7901
26.612	73.4949
26.696	75.9855
26.78	78.6377
26.864	81.817
26.948	85.671
27.028	89.7969