File: Bakgrunnsmateriale/MATLAB/FTIR/ftir_data/subAa/Mapping_121/BZ1503107-1_t34.asc
PE IR       SPECTRUM    SPECTRUM    ASCII       PEDS        1.60
  -1
BZ2957~1.ASC
17/04/07
16:01:17.00
17/04/07
16:01:43.00
tln
$BZ1503107-1_t0034$<tbV0>[13.0,-5.2,8.0,0.0,27,1,0]
27.028
64

2002,4.07
MIRTGS : RIGHTBACK : INTERNAL 2
MIR : ON : INTERNAL 2
OPTKBR

0.200000
8
8.000000
FILLER
RATIO
SPECTRUM
UNLOCKED 256

DOUBLE
64
COMBINED
1
0
0

0.002000
RATIO

1
0
TRUE
51149
0
LEFT NOT FITTED RIGHT NOT FITTED 0
NONE
NONE
15600
12
4.427000
51148
TRUE
1 0 8 72 0 0 0 0

15798

#HDR
-1
-1
#GR
µM
%T
2.38419e-05
0.0
2.000000
0.002000
12515
8
85.141
45.8769
#DATA
2.000000	 65.551
2.084000	 65.0367
2.168000	 64.9785
2.252000	 66.3746
2.336000	 64.8121
2.420000	 65.3284
2.504000	 65.2615
2.588000	 65.112
2.672000	 65.2236
2.756000	 65.2758
2.840000	 65.1334
2.924000	 65.0557
3.008000	 65.2226
3.092000	 64.9696
3.176000	 65.0169
3.260000	 64.9595
3.344000	 65.1666
3.428000	 65.0255
3.512000	 64.9589
3.596000	 64.9363
3.680000	 65.0185
3.764000	 65.0875
3.848000	 64.9423
3.932000	 64.9484
4.016000	 65.0319
4.100000	 64.9789
4.184000	 65.0419
4.268000	 64.9728
4.352000	 64.8253
4.436000	 64.8784
4.520000	 64.8035
4.604000	 64.891
4.688000	 64.8251
4.772000	 64.7783
4.856000	 64.7187
4.940000	 64.8851
5.024000	 64.77
5.108000	 64.6904
5.192000	 64.7028
5.276000	 64.6677
5.359999	 64.6679
5.444000	 64.6791
5.528000	 64.5524
5.612000	 64.6044
5.696000	 64.4751
5.780000	 64.2279
5.864000	 64.505
5.948000	 64.4411
6.032000	 64.5118
6.116000	 64.4193
6.200000	 64.398
6.284000	 64.3657
6.368000	 64.2291
6.452000	 64.3505
6.536000	 64.3261
6.620000	 64.581
6.704000	 64.3874
6.788000	 64.3573
6.872000	 64.4143
6.956000	 64.4695
7.040000	 64.5218
7.124000	 64.3781
7.208000	 64.191
7.292000	 64.22
7.376000	 64.2864
7.460000	 64.3709
7.544000	 64.2765
7.628000	 64.1935
7.712000	 64.0871
7.796000	 64.0903
7.880000	 64.2258
7.964000	 64.0837
8.048000	 64.2081
8.132000	 64.1291
8.216000	 64.1722
8.300000	 64.0649
8.384000	 64.0298
8.468000	 64.0491
8.552000	 63.9685
8.635999	 64.1102
8.719999	 63.8725
8.804000	 63.8952
8.888000	 63.8094
8.972000	 63.9803
9.056000	 64.0193
9.140000	 63.9014
9.224000	 63.9111
9.308000	 64.039
9.391999	 64.0166
9.475999	 64.0313
9.560000	 63.9465
9.644000	 64.0279
9.728000	 64.1544
9.812000	 64.057
9.896000	 64.0319
9.980000	 64.0439
10.064	64.1535
10.148	64.0015
10.232	64.1572
10.316	63.9862
10.4	63.9832
10.484	64.084
10.568	64.1624
10.652	63.974
10.736	64.114
10.82	64.0959
10.904	63.9456
10.988	64.0902
11.072	63.9605
11.156	63.9399
11.24	64.1087
11.324	64.0126
11.408	64.0041
11.492	63.9494
11.576	64.2032
11.66	64.1756
11.744	64.096
11.828	63.9421
11.912	64.0276
11.996	63.9987
12.08	63.8671
12.164	63.8332
12.248	63.7032
12.332	63.8811
12.416	63.9508
12.5	63.9189
12.584	63.836
12.668	63.9979
12.752	64.0683
12.836	64.1025
12.92	64.0246
13.004	63.7026
13.088	63.7153
13.172	63.6874
13.256	63.6137
13.34	63.5958
13.424	63.8893
13.508	64.1853
13.592	63.8118
13.676	63.3411
13.76	63.5435
13.844	63.6578
13.928	63.4834
14.012	63.45
14.096	63.5132
14.18	63.7369
14.264	64.0168
14.348	64.2338
14.432	64.3447
14.516	64.1479
14.6	63.7324
14.684	63.4551
14.768	63.4253
14.852	63.4741
14.936	63.5469
15.02	63.5657
15.104	63.4049
15.188	63.297
15.272	63.2858
15.356	63.171
15.44	63.0798
15.524	63.1377
15.608	63.1904
15.692	63.2274
15.776	63.494
15.86	63.9953
15.944	64.3376
16.028	64.2062
16.112	63.7289
16.196	63.2948
16.28	63.1497
16.364	63.2441
16.448	63.4714
16.532	63.7981
16.616	64.168
16.7	64.4192
16.784	64.3737
16.868	64.0748
16.952	63.7841
17.036	63.6748
17.12	63.6927
17.204	63.7378
17.288	63.796
17.372	63.8616
17.456	63.8698
17.54	63.7671
17.624	63.6029
17.708	63.5338
17.792	63.6993
17.876	64.059
17.96	64.4451
18.044	64.7109
18.128	64.7271
18.212	64.4535
18.296	64.0418
18.38	63.7169
18.464	63.5967
18.548	63.6509
18.632	63.7567
18.716	63.784
18.8	63.6855
18.884	63.5258
18.968	63.4024
19.052	63.3304
19.136	63.2538
19.22	63.1376
19.304	62.9964
19.388	62.8588
19.472	62.7531
19.556	62.7047
19.64	62.7376
19.724	62.8751
19.808	63.1155
19.892	63.3981
19.976	63.6089
20.06	63.6582
20.144	63.5503
20.228	63.3732
20.312	63.2175
20.396	63.1178
20.48	63.0697
20.564	63.085
20.648	63.1942
20.732	63.3955
20.816	63.6137
20.9	63.7339
20.984	63.6885
21.068	63.5037
21.152	63.2565
21.236	63.0023
21.32	62.7514
21.404	62.5016
21.488	62.2853
21.572	62.1681
21.656	62.2178
21.74	62.4563
21.824	62.8235
21.908	63.1911
21.992	63.4293
22.076	63.4735
22.16	63.3567
22.244	63.1834
22.328	63.0621
22.412	63.0479
22.496	63.1271
22.58	63.2296
22.664	63.2714
22.748	63.1911
22.832	62.9664
22.916	62.6194
23	62.2209
23.084	61.8619
23.168	61.6356
23.252	61.5966
23.336	61.7443
23.42	62.0172
23.504	62.3437
23.588	62.6611
23.672	62.9439
23.756	63.2391
23.84	63.6194
23.924	64.1621
24.008	64.898
24.092	65.7708
24.176	66.6366
24.26	67.3359
24.344	67.7133
24.428	67.6693
24.512	67.2027
24.596	66.3709
24.68	65.3108
24.764	64.2582
24.848	63.4692
24.932	63.2451
25.016	63.8532
25.1	65.4647
25.184	68.0706
25.268	71.4408
25.352	75.1962
25.436	78.8516
25.52	81.9386
25.604	84.0997
25.688	85.0907
25.772	84.8072
25.856	83.2574
25.94	80.5963
26.024	77.0754
26.108	72.9827
26.192	68.5946
26.276	64.1285
26.36	59.746
26.444	55.5787
26.528	51.8198
26.612	48.6922
26.696	46.568
26.78	45.884
26.864	47.044
26.948	50.2107
27.028	54.7713