File: Bakgrunnsmateriale/MATLAB/FTIR/ftir_data/subAa/Mapping_121/BZ1503107-1_t17.asc
PE IR       SPECTRUM    SPECTRUM    ASCII       PEDS        1.60
  -1
BZ256B~1.ASC
17/04/07
14:34:59.00
17/04/07
14:35:25.00
tln
$BZ1503107-1_t0017$<tbV0>[0.0,-10.4,8.0,0.0,27,1,0]
27.028
64

2002,4.07
MIRTGS : RIGHTBACK : INTERNAL 2
MIR : ON : INTERNAL 2
OPTKBR

0.200000
8
8.000000
FILLER
RATIO
SPECTRUM
UNLOCKED 256

DOUBLE
64
COMBINED
1
0
0

0.002000
RATIO

1
0
TRUE
51149
0
LEFT NOT FITTED RIGHT NOT FITTED 0
NONE
NONE
15600
12
4.427000
51148
TRUE
1 0 8 72 0 0 0 0

15798

#HDR
-1
-1
#GR
µM
%T
2.38419e-05
0.0
2.000000
0.002000
12515
8
75.2596
44.9393
#DATA
2.000000	 66.7837
2.084000	 66.1447
2.168000	 64.8968
2.252000	 51.5522
2.336000	 65.193
2.420000	 65.0199
2.504000	 64.8943
2.588000	 65.0307
2.672000	 65.4242
2.756000	 65.4338
2.840000	 65.1356
2.924000	 65.2467
3.008000	 65.217
3.092000	 65.1056
3.176000	 65.122
3.260000	 65.2689
3.344000	 65.0052
3.428000	 64.9198
3.512000	 64.982
3.596000	 65.0914
3.680000	 65.0964
3.764000	 65.0521
3.848000	 65.0324
3.932000	 65.0329
4.016000	 65.0346
4.100000	 64.956
4.184000	 65.0829
4.268000	 65.0423
4.352000	 64.9607
4.436000	 65.0223
4.520000	 64.9008
4.604000	 64.9462
4.688000	 64.9028
4.772000	 64.8455
4.856000	 64.9461
4.940000	 64.9135
5.024000	 64.836
5.108000	 64.9358
5.192000	 64.7945
5.276000	 64.8084
5.359999	 64.8884
5.444000	 64.7862
5.528000	 64.8028
5.612000	 64.8433
5.696000	 64.6512
5.780000	 64.1798
5.864000	 64.6498
5.948000	 64.7611
6.032000	 64.735
6.116000	 64.7662
6.200000	 64.6614
6.284000	 64.6798
6.368000	 64.6477
6.452000	 64.6801
6.536000	 64.6103
6.620000	 64.7232
6.704000	 64.644
6.788000	 64.6345
6.872000	 64.5262
6.956000	 64.5752
7.040000	 64.4441
7.124000	 64.4726
7.208000	 64.4698
7.292000	 64.366
7.376000	 64.5087
7.460000	 64.443
7.544000	 64.4215
7.628000	 64.3403
7.712000	 64.3244
7.796000	 64.297
7.880000	 64.1746
7.964000	 64.2171
8.048000	 64.1321
8.132000	 64.1733
8.216000	 64.2025
8.300000	 64.2879
8.384000	 64.256
8.468000	 64.0197
8.552000	 64.257
8.635999	 64.0721
8.719999	 64.012
8.804000	 64.1343
8.888000	 64.1937
8.972000	 64.1825
9.056000	 64.1391
9.140000	 64.2388
9.224000	 64.2699
9.308000	 64.3231
9.391999	 64.0626
9.475999	 64.1032
9.560000	 64.0257
9.644000	 64.017
9.728000	 64.0502
9.812000	 63.9611
9.896000	 64.141
9.980000	 64.2019
10.064	64.2532
10.148	64.0866
10.232	64.0048
10.316	64.0647
10.4	64.1491
10.484	64.1342
10.568	64.2404
10.652	64.2391
10.736	64.1627
10.82	64.2812
10.904	64.3453
10.988	64.2033
11.072	64.2275
11.156	64.3511
11.24	64.3149
11.324	64.3936
11.408	64.4015
11.492	64.274
11.576	64.2348
11.66	64.336
11.744	64.3618
11.828	64.4025
11.912	64.2162
11.996	63.9411
12.08	63.8085
12.164	63.936
12.248	63.9286
12.332	63.791
12.416	63.7485
12.5	63.9528
12.584	64.2514
12.668	64.322
12.752	64.4226
12.836	64.2342
12.92	64.1251
13.004	64.1753
13.088	64.1113
13.172	64.0651
13.256	63.9724
13.34	63.9425
13.424	63.8933
13.508	63.7368
13.592	63.7629
13.676	63.8782
13.76	63.9906
13.844	64.0673
13.928	64.0185
14.012	63.9391
14.096	64.0254
14.18	64.1567
14.264	64.0808
14.348	63.8016
14.432	63.6128
14.516	63.7279
14.6	63.8423
14.684	63.7489
14.768	63.7096
14.852	63.8414
14.936	64.0153
15.02	64.0568
15.104	63.9428
15.188	63.8145
15.272	63.798
15.356	63.9512
15.44	64.1509
15.524	64.1598
15.608	63.9192
15.692	63.5807
15.776	63.3441
15.86	63.3823
15.944	63.633
16.028	63.85
16.112	64.0146
16.196	64.2096
16.28	64.2797
16.364	64.1532
16.448	64.0449
16.532	64.0125
16.616	63.8717
16.7	63.6061
16.784	63.3993
16.868	63.419
16.952	63.7508
17.036	64.2892
17.12	64.636
17.204	64.4577
17.288	63.9727
17.372	63.716
17.456	63.8482
17.54	64.0689
17.624	64.184
17.708	64.2855
17.792	64.3956
17.876	64.3883
17.96	64.2728
18.044	64.1778
18.128	64.1015
18.212	63.992
18.296	63.954
18.38	64.047
18.464	64.047
18.548	63.7135
18.632	63.1857
18.716	62.8328
18.8	62.7819
18.884	62.8503
18.968	62.9116
19.052	63.0703
19.136	63.4093
19.22	63.7817
19.304	63.9631
19.388	63.935
19.472	63.8681
19.556	63.8671
19.64	63.8415
19.724	63.6536
19.808	63.3141
19.892	62.9622
19.976	62.7148
20.06	62.5903
20.144	62.5813
20.228	62.7304
20.312	63.0753
20.396	63.5458
20.48	63.9682
20.564	64.1871
20.648	64.1881
20.732	64.0915
20.816	64.0435
20.9	64.0939
20.984	64.1549
21.068	64.079
21.152	63.7967
21.236	63.3904
21.32	63.0412
21.404	62.9138
21.488	63.0557
21.572	63.3798
21.656	63.7145
21.74	63.8874
21.824	63.8069
21.908	63.5054
21.992	63.1026
22.076	62.7269
22.16	62.4436
22.244	62.2312
22.328	62.0386
22.412	61.8616
22.496	61.7771
22.58	61.8772
22.664	62.1952
22.748	62.6537
22.832	63.1011
22.916	63.403
23	63.5168
23.084	63.5055
23.168	63.4851
23.252	63.5368
23.336	63.6801
23.42	63.8502
23.504	63.95
23.588	63.8932
23.672	63.6436
23.756	63.2414
23.84	62.7999
23.924	62.4902
24.008	62.4963
24.092	62.9537
24.176	63.8643
24.26	65.0949
24.344	66.3853
24.428	67.4762
24.512	68.2417
24.596	68.7361
24.68	69.1636
24.764	69.7742
24.848	70.7323
24.932	72.0029
25.016	73.3446
25.1	74.4753
25.184	75.1366
25.268	75.2402
25.352	74.9189
25.436	74.3258
25.52	73.5679
25.604	72.7025
25.688	71.6153
25.772	70.1588
25.856	68.2387
25.94	66.1727
26.024	63.9275
26.108	60.5789
26.192	55.6941
26.276	49.9304
26.36	45.8332
26.444	45.0902
26.528	47.6744
26.612	50.1274
26.696	49.8505
26.78	47.5694
26.864	48.3761
26.948	57.7739
27.028	73.5371