File: Bakgrunnsmateriale/MATLAB/FTIR/ftir_data/subAa/Mapping_121/BZ1503107-1_t93_cm-1.asc
PE IR       SPECTRUM    SPECTRUM    ASCII       PEDS        1.60
  -1
BZ6BA5~1.ASC
17/04/07
20:55:14.00
17/04/07
20:55:14.00
tln
$BZ1503107-1_t0093$<tbV0>[2.6,7.8,8.0,0.0,27,1,0]
370
64

2002,4.07
MIRTGS : RIGHTBACK : INTERNAL 2
MIR : ON : INTERNAL 2
OPTKBR

0.200000
8
8.000000
FILLER
RATIO
SPECTRUM
UNLOCKED 256

DOUBLE
64
COMBINED
1
0
0

1.000000
RATIO

1
0
TRUE
51149
0
LEFT NOT FITTED RIGHT NOT FITTED 0
NONE
NONE
15600
12
4.427000
51148
TRUE
1 0 8 72 0 0 0 0

15798

#HDR
-1
-1
#GR
CM-1
%T
2.38419e-05
0.0
5000
-1.000000
4631
8
101.733
54.7106
#DATA
5000	65.5887
4984	63.9403
4968	64.0464
4952	67.3715
4936	64.6786
4920	65.2935
4904	65.2065
4888	64.3305
4872	64.3657
4856	64.5652
4840	65.0602
4824	64.913
4808	64.9292
4792	64.886
4776	65.0715
4760	65.1567
4744	65.0524
4728	64.8482
4712	65.2615
4696	64.5082
4680	64.8931
4664	65.0509
4648	64.429
4632	64.7943
4616	64.2859
4600	64.4399
4584	64.4334
4568	64.3797
4552	63.9367
4536	63.6679
4520	64.2951
4504	63.8201
4488	62.7856
4472	63.1983
4456	66.1749
4440	96.1418
4424	65.4082
4408	64.3064
4392	63.8334
4376	63.4022
4360	64.3155
4344	64.0821
4328	64.2594
4312	64.0932
4296	64.8263
4280	64.5834
4264	64.5363
4248	64.8364
4232	64.8146
4216	64.8002
4200	64.9599
4184	64.9605
4168	65.0555
4152	65.0509
4136	64.7793
4120	65.0772
4104	65.1624
4088	65.1637
4072	64.881
4056	65.0406
4040	64.7496
4024	65.0792
4008	64.7692
3992	64.6706
3976	64.7197
3960	64.8792
3944	64.3877
3928	64.852
3912	64.7154
3896	64.7644
3880	64.4316
3864	65.0034
3848	64.8465
3832	65.0033
3816	64.8521
3800	64.9487
3784	64.9023
3768	64.9105
3752	65.0988
3736	64.9813
3720	65.208
3704	65.2294
3688	64.9357
3672	64.9624
3656	64.9102
3640	64.7522
3624	64.8038
3608	64.9291
3592	65.0342
3576	64.6886
3560	64.8625
3544	64.6058
3528	64.9742
3512	64.7802
3496	64.9322
3480	64.8879
3464	64.9241
3448	64.6683
3432	64.7103
3416	65.0022
3400	64.8137
3384	64.9367
3368	64.8344
3352	64.7993
3336	64.7933
3320	64.8513
3304	64.8352
3288	64.8876
3272	64.9434
3256	64.9613
3240	64.8251
3224	64.7628
3208	64.7434
3192	64.7155
3176	64.93
3160	64.7254
3144	64.7163
3128	64.6482
3112	64.772
3096	64.9136
3080	64.6884
3064	64.7429
3048	64.8594
3032	64.7342
3016	64.7194
3000	64.7637
2984	64.51
2968	64.5071
2952	64.4932
2936	64.6558
2920	64.6349
2904	64.532
2888	64.573
2872	64.5864
2856	64.611
2840	64.5657
2824	64.6593
2808	64.5936
2792	64.5879
2776	64.7361
2760	64.6976
2744	64.7062
2728	64.6061
2712	64.7088
2696	64.643
2680	64.5498
2664	64.3914
2648	64.5534
2632	64.4837
2616	64.372
2600	64.5041
2584	64.4527
2568	64.3675
2552	64.4275
2536	64.4262
2520	64.4059
2504	64.3534
2488	64.4962
2472	64.4391
2456	64.3973
2440	64.3125
2424	64.503
2408	64.3562
2392	64.3028
2376	64.3259
2360	64.4985
2344	64.3808
2328	64.3532
2312	64.3586
2296	64.3365
2280	64.2415
2264	64.2694
2248	64.3415
2232	64.3168
2216	64.1894
2200	64.1284
2184	64.0912
2168	64.1793
2152	64.1128
2136	64.2401
2120	64.184
2104	64.1598
2088	64.1453
2072	64.1293
2056	64.1649
2040	64.1078
2024	64.0417
2008	64.0878
1992	64.1728
1976	64.1079
1960	64.0602
1944	63.9773
1928	64.0124
1912	63.9287
1896	64.0021
1880	63.9118
1864	63.9848
1848	63.9362
1832	63.9181
1816	63.8564
1800	63.8787
1784	63.9131
1768	63.7839
1752	63.5491
1736	63.2731
1720	63.5383
1704	63.5378
1688	63.6538
1672	63.6072
1656	63.6604
1640	63.6207
1624	63.6893
1608	63.5479
1592	63.6554
1576	63.5443
1560	63.5886
1544	63.5304
1528	63.508
1512	63.5008
1496	63.5728
1480	63.5438
1464	63.3649
1448	63.4167
1432	63.4473
1416	63.3372
1400	63.4197
1384	63.2396
1368	63.3545
1352	63.2546
1336	63.3327
1320	63.3169
1304	63.2653
1288	63.1059
1272	63.1123
1256	63.0598
1240	62.9765
1224	63.0939
1208	63.0923
1192	63.1041
1176	62.9286
1160	62.8634
1144	62.8803
1128	62.9598
1112	62.8431
1096	62.9776
1080	62.8243
1064	62.7723
1048	62.9467
1032	62.8562
1016	62.829
1000	62.8292
984	 62.8391
968	 62.8024
952	 62.8157
936	 62.8404
920	 62.7816
904	 62.8446
888	 62.6617
872	 62.7353
856	 62.6269
840	 62.8152
824	 62.5365
808	 62.5921
792	 62.915
776	 62.7166
760	 62.6064
744	 62.4275
728	 62.5638
712	 62.5237
696	 62.2989
680	 62.1616
664	 62.2568
648	 62.5706
632	 62.4837
616	 62.2831
600	 62.1387
584	 61.3663
568	 62.0349
552	 61.5683
536	 61.5203
520	 62.9133
504	 61.5689
488	 62.5636
472	 61.7487
456	 63.6923
440	 60.6835
424	 62.4769
408	 57.2389
392	 65.3677
376	 54.7106
370	 67.7266