File: Bakgrunnsmateriale/MATLAB/FTIR/ftir_data/subAa/Mapping_121/BZ1503107-1_t76_cm-1.asc
PE IR       SPECTRUM    SPECTRUM    ASCII       PEDS        1.60
  -1
BZ6EA6~1.ASC
17/04/07
19:29:37.00
17/04/07
19:29:37.00
tln
$BZ1503107-1_t0076$<tbV0>[-10.4,2.6,8.0,0.0,27,1,0]
370
64

2002,4.07
MIRTGS : RIGHTBACK : INTERNAL 2
MIR : ON : INTERNAL 2
OPTKBR

0.200000
8
8.000000
FILLER
RATIO
SPECTRUM
UNLOCKED 256

DOUBLE
64
COMBINED
1
0
0

1.000000
RATIO

1
0
TRUE
51149
0
LEFT NOT FITTED RIGHT NOT FITTED 0
NONE
NONE
15600
12
4.427000
51148
TRUE
1 0 8 72 0 0 0 0

15798

#HDR
-1
-1
#GR
CM-1
%T
2.38419e-05
0.0
5000
-1.000000
4631
8
95.0537
47.2737
#DATA
5000	64.4641
4984	65.0329
4968	64.9059
4952	64.5163
4936	63.8037
4920	64.8021
4904	64.7624
4888	64.695
4872	64.8273
4856	64.5417
4840	64.7392
4824	64.8042
4808	64.5798
4792	64.8605
4776	64.5926
4760	64.5322
4744	64.6068
4728	65.0293
4712	64.6748
4696	64.8926
4680	64.1465
4664	64.7448
4648	64.7462
4632	64.8849
4616	64.85
4600	64.8917
4584	64.6931
4568	64.7413
4552	64.7113
4536	64.5459
4520	64.1204
4504	64.854
4488	64.9553
4472	63.8378
4456	63.8125
4440	65.3409
4424	57.7247
4408	68.2026
4392	65.1986
4376	64.2721
4360	64.9166
4344	64.9144
4328	64.8475
4312	64.7158
4296	64.7814
4280	64.8299
4264	64.9081
4248	64.7408
4232	65.0049
4216	64.9891
4200	64.6882
4184	64.6275
4168	64.8763
4152	64.8093
4136	64.6019
4120	65.117
4104	64.9434
4088	64.9473
4072	64.7821
4056	64.6715
4040	64.9424
4024	64.936
4008	65.2366
3992	65.0129
3976	64.7937
3960	64.9138
3944	64.9621
3928	64.9425
3912	65.0724
3896	64.9211
3880	64.9653
3864	65.0598
3848	64.6081
3832	64.6787
3816	64.9936
3800	65.0208
3784	65.0996
3768	64.7032
3752	64.7838
3736	65.264
3720	65.0022
3704	65.191
3688	65.072
3672	65.0846
3656	65.0513
3640	65.0936
3624	64.8158
3608	65.0603
3592	64.9164
3576	64.8974
3560	64.9781
3544	64.8824
3528	64.9961
3512	65.0483
3496	64.8643
3480	64.9684
3464	64.9262
3448	65.104
3432	64.8146
3416	64.9118
3400	64.8569
3384	64.8819
3368	64.9754
3352	64.892
3336	64.9479
3320	64.9038
3304	64.9694
3288	64.8424
3272	64.8443
3256	64.8589
3240	64.9545
3224	64.9844
3208	64.8218
3192	65.1476
3176	64.8724
3160	64.8968
3144	64.9674
3128	64.8027
3112	64.9186
3096	64.9352
3080	64.7784
3064	65.0531
3048	64.9281
3032	64.7303
3016	64.9733
3000	64.8912
2984	64.8393
2968	64.7457
2952	64.6242
2936	64.6182
2920	64.8121
2904	64.8647
2888	64.7854
2872	64.8237
2856	64.8219
2840	64.7678
2824	64.7988
2808	64.8761
2792	64.8595
2776	64.8748
2760	64.9389
2744	64.8684
2728	64.9607
2712	64.8249
2696	64.8077
2680	64.8701
2664	64.7816
2648	64.6722
2632	64.8257
2616	64.7788
2600	64.7661
2584	64.7091
2568	64.6295
2552	64.641
2536	64.767
2520	64.8051
2504	64.7464
2488	64.7661
2472	64.7349
2456	64.6801
2440	64.5832
2424	64.6975
2408	64.6574
2392	64.5436
2376	64.6633
2360	64.5533
2344	64.6038
2328	64.6845
2312	64.5824
2296	64.5465
2280	64.4862
2264	64.6994
2248	64.6554
2232	64.5633
2216	64.5711
2200	64.5117
2184	64.5324
2168	64.4757
2152	64.4226
2136	64.4585
2120	64.5472
2104	64.5148
2088	64.4296
2072	64.3693
2056	64.3349
2040	64.377
2024	64.4291
2008	64.391
1992	64.2666
1976	64.4319
1960	64.4258
1944	64.345
1928	64.3205
1912	64.3838
1896	64.2815
1880	64.3003
1864	64.2721
1848	64.3609
1832	64.2514
1816	64.2689
1800	64.2078
1784	64.146
1768	64.1886
1752	64.0237
1736	63.8376
1720	63.9028
1704	63.9556
1688	64.0404
1672	64.041
1656	63.9468
1640	64.0539
1624	64.0252
1608	63.9
1592	63.9792
1576	63.8962
1560	63.8936
1544	64.0177
1528	63.9874
1512	64.0471
1496	63.79
1480	63.9115
1464	63.7288
1448	63.9238
1432	63.8858
1416	63.851
1400	63.7185
1384	63.6857
1368	63.7011
1352	63.6896
1336	63.7684
1320	63.7503
1304	63.6399
1288	63.6309
1272	63.5287
1256	63.5299
1240	63.5736
1224	63.5126
1208	63.4807
1192	63.4676
1176	63.3875
1160	63.3846
1144	63.419
1128	63.4527
1112	63.2424
1096	63.3648
1080	63.431
1064	63.3248
1048	63.4
1032	63.3053
1016	63.1985
1000	63.4279
984	 63.2902
968	 63.3878
952	 63.3229
936	 63.2757
920	 63.457
904	 63.3642
888	 63.4761
872	 63.6512
856	 63.2668
840	 63.3968
824	 63.3052
808	 63.0903
792	 62.9882
776	 63.3548
760	 62.9772
744	 62.9267
728	 62.5431
712	 63.1295
696	 62.9057
680	 63.2549
664	 63.175
648	 62.8044
632	 62.1519
616	 63.3904
600	 64.1883
584	 63.0925
568	 62.945
552	 63.0323
536	 63.1327
520	 62.5076
504	 61.8917
488	 62.7136
472	 62.6158
456	 62.8438
440	 63.4632
424	 64.0764
408	 62.1347
392	 60.1288
376	 57.4237
370	 95.0537