File: Bakgrunnsmateriale/MATLAB/FTIR/ftir_data/subAa/Mapping_121/BZ1503107-1_t101_cm-1.asc
PE IR       SPECTRUM    SPECTRUM    ASCII       PEDS        1.60
  -1
BZBBF5~1.ASC
17/04/07
21:32:49.00
17/04/07
21:32:49.00
tln
$BZ1503107-1_t0101$<tbV0>[10.4,10.4,8.0,0.0,27,1,0]
370
64

2002,4.07
MIRTGS : RIGHTBACK : INTERNAL 2
MIR : ON : INTERNAL 2
OPTKBR

0.200000
8
8.000000
FILLER
RATIO
SPECTRUM
UNLOCKED 256

DOUBLE
64
COMBINED
1
0
0

1.000000
RATIO

1
0
TRUE
51149
0
LEFT NOT FITTED RIGHT NOT FITTED 0
NONE
NONE
15600
12
4.427000
51148
TRUE
1 0 8 72 0 0 0 0

15798

#HDR
-1
-1
#GR
CM-1
%T
2.38419e-05
0.0
5000
-1.000000
4631
8
90.1802
30.9998
#DATA
5000	64.2932
4984	64.6564
4968	63.2526
4952	66.6336
4936	64.3459
4920	63.8975
4904	64.4296
4888	64.4498
4872	64.2573
4856	64.1559
4840	64.4637
4824	64.3282
4808	64.5989
4792	64.5596
4776	64.5882
4760	64.31
4744	64.7745
4728	64.4992
4712	64.3237
4696	64.33
4680	64.6024
4664	64.5939
4648	64.2225
4632	64.3448
4616	64.2905
4600	64.352
4584	63.8397
4568	63.7205
4552	63.8031
4536	63.5084
4520	63.7546
4504	63.3852
4488	62.9534
4472	62.8522
4456	64.1412
4440	90.1802
4424	67.6335
4408	63.2286
4392	63.2384
4376	63.1643
4360	63.8244
4344	63.4982
4328	63.5998
4312	63.8105
4296	63.9475
4280	64.0778
4264	63.8895
4248	64.4198
4232	64.3282
4216	64.1994
4200	64.1822
4184	64.6473
4168	64.6585
4152	64.6932
4136	64.4987
4120	64.7595
4104	64.6344
4088	64.7059
4072	64.8356
4056	64.5078
4040	64.6162
4024	64.706
4008	64.2246
3992	64.5552
3976	64.3254
3960	64.3633
3944	63.9814
3928	64.6739
3912	64.3239
3896	64.1807
3880	64.2471
3864	64.426
3848	64.5709
3832	64.3811
3816	64.3976
3800	64.5457
3784	64.6511
3768	64.5003
3752	64.5401
3736	64.6052
3720	64.6364
3704	64.5578
3688	64.7579
3672	64.6916
3656	64.6909
3640	64.6085
3624	64.5564
3608	64.5032
3592	64.6713
3576	64.477
3560	64.5513
3544	64.2888
3528	64.7037
3512	64.4767
3496	64.6009
3480	64.613
3464	64.3692
3448	64.339
3432	64.4899
3416	64.4226
3400	64.4859
3384	64.2928
3368	64.4543
3352	64.4511
3336	64.3682
3320	64.2967
3304	64.5654
3288	64.5032
3272	64.36
3256	64.5362
3240	64.3666
3224	64.4486
3208	64.3412
3192	64.3827
3176	64.5627
3160	64.5129
3144	64.3578
3128	64.2112
3112	64.4047
3096	64.5946
3080	64.2818
3064	64.3066
3048	64.5674
3032	64.4686
3016	64.3211
3000	64.4565
2984	64.3262
2968	64.141
2952	64.1374
2936	64.2432
2920	64.4003
2904	64.336
2888	64.2084
2872	64.2459
2856	64.2463
2840	64.3022
2824	64.3213
2808	64.2875
2792	64.2999
2776	64.3649
2760	64.3406
2744	64.3329
2728	64.3712
2712	64.3134
2696	64.3121
2680	64.1073
2664	64.2243
2648	64.3682
2632	64.407
2616	64.2203
2600	64.1533
2584	64.1569
2568	64.2197
2552	64.1899
2536	64.2697
2520	64.1312
2504	64.176
2488	64.2646
2472	64.2928
2456	64.272
2440	64.1145
2424	64.1949
2408	64.04
2392	64.1465
2376	64.2304
2360	64.2277
2344	64.1404
2328	64.1788
2312	64.145
2296	64.1095
2280	64.0465
2264	64.0563
2248	64.1078
2232	64.0549
2216	64.0406
2200	64.0501
2184	64.0779
2168	64.0433
2152	63.9989
2136	64.0148
2120	63.9919
2104	63.976
2088	63.9311
2072	63.8282
2056	64.009
2040	63.9575
2024	63.9421
2008	64.0075
1992	64.0168
1976	63.9491
1960	64.0432
1944	63.8558
1928	63.88
1912	63.8811
1896	63.9267
1880	63.8766
1864	63.8507
1848	63.8275
1832	63.8983
1816	63.8688
1800	63.8743
1784	63.7504
1768	63.7733
1752	63.6036
1736	63.5172
1720	63.5803
1704	63.6337
1688	63.6454
1672	63.6086
1656	63.6287
1640	63.6978
1624	63.5189
1608	63.5933
1592	63.716
1576	63.4465
1560	63.5018
1544	63.54
1528	63.4713
1512	63.5708
1496	63.5487
1480	63.4333
1464	63.4897
1448	63.3356
1432	63.3301
1416	63.4696
1400	63.4439
1384	63.4804
1368	63.3348
1352	63.2834
1336	63.2754
1320	63.3791
1304	63.2441
1288	63.1664
1272	63.1856
1256	63.1361
1240	63.1345
1224	63.2977
1208	63.2456
1192	63.1762
1176	63.0319
1160	62.9754
1144	63.1211
1128	62.9711
1112	62.9576
1096	62.9861
1080	62.8573
1064	62.9894
1048	62.8703
1032	63.074
1016	62.9235
1000	62.8012
984	 63.1158
968	 63.049
952	 63.0573
936	 62.9326
920	 63.0388
904	 62.9012
888	 62.89
872	 63.0797
856	 63.061
840	 62.897
824	 62.792
808	 62.9663
792	 62.8264
776	 62.5531
760	 62.6933
744	 62.735
728	 62.6393
712	 62.66
696	 62.6349
680	 62.4623
664	 62.4719
648	 62.5034
632	 62.3859
616	 62.1538
600	 62.1706
584	 61.9649
568	 62.5311
552	 61.4841
536	 61.5565
520	 62.0081
504	 60.5314
488	 62.7858
472	 61.8579
456	 61.6891
440	 60.8051
424	 62.6421
408	 61.7831
392	 56.3028
376	 39.7273
370	 30.9998