File: Bakgrunnsmateriale/MATLAB/FTIR/ftir_data/subAa/Mapping_121/BZ1503107-1_t09.asc
PE IR       SPECTRUM    SPECTRUM    ASCII       PEDS        1.60
  -1
BZ1D65~1.ASC
17/04/07
13:57:25.00
17/04/07
13:57:52.00
tln
$BZ1503107-1_t0009$<tbV0>[-7.8,-13.0,8.0,0.0,27,1,0]
27.028
64

2002,4.07
MIRTGS : RIGHTBACK : INTERNAL 2
MIR : ON : INTERNAL 2
OPTKBR

0.200000
8
8.000000
FILLER
RATIO
SPECTRUM
UNLOCKED 256

DOUBLE
64
COMBINED
1
0
0

0.002000
RATIO

1
0
TRUE
51149
0
LEFT NOT FITTED RIGHT NOT FITTED 0
NONE
NONE
15600
12
4.427000
51148
TRUE
1 0 8 72 0 0 0 0

15798

#HDR
-1
-1
#GR
µM
%T
2.38419e-05
0.0
2.000000
0.002000
12515
8
91.8674
57.5744
#DATA
2.000000	 64.0221
2.084000	 65.7383
2.168000	 64.6506
2.252000	 71.1217
2.336000	 64.8651
2.420000	 64.8799
2.504000	 65.059
2.588000	 65.1695
2.672000	 65.4226
2.756000	 65.2703
2.840000	 64.9856
2.924000	 65.1616
3.008000	 65.1578
3.092000	 64.982
3.176000	 65.069
3.260000	 65.1208
3.344000	 65.0514
3.428000	 65.0364
3.512000	 65.0022
3.596000	 65.0741
3.680000	 65.0872
3.764000	 65.1104
3.848000	 64.9966
3.932000	 65.0608
4.016000	 64.8746
4.100000	 65.0136
4.184000	 64.9974
4.268000	 65.0505
4.352000	 64.9207
4.436000	 64.9894
4.520000	 64.8983
4.604000	 64.9962
4.688000	 64.9271
4.772000	 64.9251
4.856000	 64.8255
4.940000	 64.9302
5.024000	 64.8989
5.108000	 64.8655
5.192000	 64.9362
5.276000	 64.9351
5.359999	 64.8179
5.444000	 64.8514
5.528000	 64.9089
5.612000	 64.7487
5.696000	 64.8163
5.780000	 64.4978
5.864000	 64.7084
5.948000	 64.7265
6.032000	 64.8258
6.116000	 64.7402
6.200000	 64.694
6.284000	 64.5979
6.368000	 64.6322
6.452000	 64.6111
6.536000	 64.627
6.620000	 64.8213
6.704000	 64.6685
6.788000	 64.7131
6.872000	 64.8382
6.956000	 64.7909
7.040000	 64.6911
7.124000	 64.5601
7.208000	 64.4962
7.292000	 64.4183
7.376000	 64.5982
7.460000	 64.5606
7.544000	 64.3843
7.628000	 64.3585
7.712000	 64.4317
7.796000	 64.4559
7.880000	 64.4018
7.964000	 64.3286
8.048000	 64.4162
8.132000	 64.3825
8.216000	 64.4435
8.300000	 64.1734
8.384000	 64.3647
8.468000	 64.2344
8.552000	 64.3866
8.635999	 64.2139
8.719999	 64.1842
8.804000	 64.3397
8.888000	 64.3573
8.972000	 64.3157
9.056000	 64.2776
9.140000	 64.3524
9.224000	 64.4906
9.308000	 64.3013
9.391999	 64.105
9.475999	 64.2539
9.560000	 64.1487
9.644000	 64.1183
9.728000	 64.1995
9.812000	 64.3176
9.896000	 64.2034
9.980000	 64.2027
10.064	64.2078
10.148	64.1058
10.232	64.0441
10.316	64.1517
10.4	64.2764
10.484	64.27
10.568	64.3367
10.652	64.2527
10.736	64.3073
10.82	64.3239
10.904	64.4513
10.988	64.4399
11.072	64.2838
11.156	64.1486
11.24	64.0212
11.324	64.0982
11.408	64.265
11.492	64.2941
11.576	64.2296
11.66	64.3014
11.744	64.3592
11.828	64.395
11.912	64.2448
11.996	64.1
12.08	64.0288
12.164	64.0159
12.248	64.031
12.332	64.1631
12.416	64.1771
12.5	64.0505
12.584	64.0766
12.668	64.1562
12.752	64.3093
12.836	64.2852
12.92	64.1356
13.004	64.0275
13.088	64.1191
13.172	64.2646
13.256	64.079
13.34	63.9081
13.424	63.9833
13.508	64.1543
13.592	64.1343
13.676	64.1738
13.76	64.3806
13.844	64.389
13.928	64.3002
14.012	64.2785
14.096	64.1772
14.18	64.0532
14.264	64.0218
14.348	64.0373
14.432	64.0993
14.516	64.2145
14.6	64.3441
14.684	64.3915
14.768	64.2602
14.852	64.0971
14.936	64.096
15.02	64.2259
15.104	64.3821
15.188	64.3754
15.272	64.2154
15.356	64.1854
15.44	64.2529
15.524	64.1693
15.608	64.0309
15.692	64.0923
15.776	64.2827
15.86	64.3336
15.944	64.2112
16.028	64.1209
16.112	64.1246
16.196	64.1076
16.28	64.0331
16.364	63.924
16.448	63.808
16.532	63.778
16.616	63.8865
16.7	64.0134
16.784	64.0058
16.868	63.8692
16.952	63.7214
17.036	63.6462
17.12	63.6651
17.204	63.8058
17.288	64.0884
17.372	64.4504
17.456	64.7365
17.54	64.8116
17.624	64.6992
17.708	64.5294
17.792	64.3622
17.876	64.1593
17.96	63.8782
18.044	63.4993
18.128	63.0345
18.212	62.5912
18.296	62.3774
18.38	62.5292
18.464	62.9629
18.548	63.4352
18.632	63.7444
18.716	63.8198
18.8	63.6798
18.884	63.4106
18.968	63.1767
19.052	63.1661
19.136	63.4854
19.22	64.0672
19.304	64.6331
19.388	64.8754
19.472	64.7389
19.556	64.4811
19.64	64.4335
19.724	64.7077
19.808	65.1099
19.892	65.2964
19.976	65.0748
20.06	64.5872
20.144	64.1712
20.228	64.0464
20.312	64.1292
20.396	64.162
20.48	64.0038
20.564	63.7656
20.648	63.6978
20.732	63.9534
20.816	64.4896
20.9	65.1142
20.984	65.5757
21.068	65.6643
21.152	65.3174
21.236	64.669
21.32	64.0047
21.404	63.6319
21.488	63.7109
21.572	64.178
21.656	64.7758
21.74	65.1825
21.824	65.1771
21.908	64.7552
21.992	64.1112
22.076	63.5155
22.16	63.1642
22.244	63.0595
22.328	63.0529
22.412	62.9857
22.496	62.8181
22.58	62.6563
22.664	62.6633
22.748	62.9303
22.832	63.3969
22.916	63.901
23	64.2507
23.084	64.3404
23.168	64.1887
23.252	63.9066
23.336	63.6364
23.42	63.4717
23.504	63.438
23.588	63.4967
23.672	63.5815
23.756	63.6238
23.84	63.5857
23.924	63.4775
24.008	63.3631
24.092	63.362
24.176	63.6318
24.26	64.2858
24.344	65.3579
24.428	66.7686
24.512	68.2951
24.596	69.6729
24.68	70.6912
24.764	71.2746
24.848	71.4889
24.932	71.4846
25.016	71.3975
25.1	71.2627
25.184	71.0263
25.268	70.5794
25.352	69.8095
25.436	68.7278
25.52	67.5506
25.604	66.6557
25.688	66.2731
25.772	66.5734
25.856	67.726
25.94	70.2211
26.024	73.9583
26.108	77.5715
26.192	79.9983
26.276	81.1622
26.36	83.0535
26.444	86.5683
26.528	90.7722
26.612	91.3315
26.696	85.4707
26.78	74.9036
26.864	66.5359
26.948	67.394
27.028	75.4718