File: Bakgrunnsmateriale/MATLAB/FTIR/ftir_data/subAa/Mapping_121/BZ1503107-1_t25.asc
PE IR       SPECTRUM    SPECTRUM    ASCII       PEDS        1.60
  -1
BZ2D59~1.ASC
17/04/07
15:19:05.00
17/04/07
15:19:31.00
tln
$BZ1503107-1_t0025$<tbV0>[7.8,-7.8,8.0,0.0,27,1,0]
27.028
64

2002,4.07
MIRTGS : RIGHTBACK : INTERNAL 2
MIR : ON : INTERNAL 2
OPTKBR

0.200000
8
8.000000
FILLER
RATIO
SPECTRUM
UNLOCKED 256

DOUBLE
64
COMBINED
1
0
0

0.002000
RATIO

1
0
TRUE
51149
0
LEFT NOT FITTED RIGHT NOT FITTED 0
NONE
NONE
15600
12
4.427000
51148
TRUE
1 0 8 72 0 0 0 0

15798

#HDR
-1
-1
#GR
µM
%T
2.38419e-05
0.0
2.000000
0.002000
12515
8
81.5283
40.149
#DATA
2.000000	 65.7369
2.084000	 65.0245
2.168000	 64.7345
2.252000	 64.4682
2.336000	 64.544
2.420000	 65.0211
2.504000	 65.4639
2.588000	 64.9605
2.672000	 65.1152
2.756000	 65.4316
2.840000	 65.0172
2.924000	 65.2027
3.008000	 65.1301
3.092000	 65.0871
3.176000	 65.1724
3.260000	 65.206
3.344000	 65.1867
3.428000	 64.9525
3.512000	 64.914
3.596000	 65.0925
3.680000	 65.0483
3.764000	 65.1519
3.848000	 65.1144
3.932000	 65.0107
4.016000	 64.9569
4.100000	 64.9055
4.184000	 65.0736
4.268000	 64.9662
4.352000	 64.9029
4.436000	 64.8389
4.520000	 64.8764
4.604000	 64.8838
4.688000	 64.8419
4.772000	 64.7978
4.856000	 64.8251
4.940000	 64.884
5.024000	 64.7837
5.108000	 64.8039
5.192000	 64.7186
5.276000	 64.7216
5.359999	 64.7873
5.444000	 64.7842
5.528000	 64.5959
5.612000	 64.6019
5.696000	 64.4727
5.780000	 64.3839
5.864000	 64.5616
5.948000	 64.5432
6.032000	 64.4849
6.116000	 64.4932
6.200000	 64.4497
6.284000	 64.4662
6.368000	 64.5724
6.452000	 64.5139
6.536000	 64.4189
6.620000	 64.6413
6.704000	 64.5612
6.788000	 64.4736
6.872000	 64.5262
6.956000	 64.5289
7.040000	 64.3723
7.124000	 64.479
7.208000	 64.353
7.292000	 64.3309
7.376000	 64.3183
7.460000	 64.398
7.544000	 64.3607
7.628000	 64.4185
7.712000	 64.2884
7.796000	 64.4148
7.880000	 64.142
7.964000	 64.2525
8.048000	 64.2957
8.132000	 64.266
8.216000	 64.171
8.300000	 64.0941
8.384000	 64.1768
8.468000	 64.1708
8.552000	 64.0704
8.635999	 64.1525
8.719999	 64.083
8.804000	 64.1302
8.888000	 63.9743
8.972000	 64.1296
9.056000	 63.9434
9.140000	 64.0971
9.224000	 64.1236
9.308000	 64.2144
9.391999	 64.1329
9.475999	 64.0712
9.560000	 64.0911
9.644000	 64.1198
9.728000	 64.2319
9.812000	 64.19
9.896000	 64.2193
9.980000	 64.2498
10.064	64.2578
10.148	64.1404
10.232	64.3589
10.316	64.1502
10.4	63.9861
10.484	64.1513
10.568	64.2123
10.652	64.1596
10.736	64.1335
10.82	64.164
10.904	64.2749
10.988	64.1636
11.072	64.2348
11.156	64.2716
11.24	63.9845
11.324	63.9808
11.408	64.3846
11.492	64.2756
11.576	64.0364
11.66	64.1974
11.744	64.329
11.828	64.0613
11.912	64.102
11.996	64.0259
12.08	64.0788
12.164	64.2779
12.248	64.2892
12.332	64.1542
12.416	64.0979
12.5	64.2346
12.584	64.4354
12.668	64.4631
12.752	64.2727
12.836	63.9995
12.92	63.8098
13.004	63.8392
13.088	64.036
13.172	64.2189
13.256	64.2301
13.34	64.1774
13.424	64.34
13.508	64.3446
13.592	64.1582
13.676	64.1111
13.76	64.2761
13.844	64.2823
13.928	64.0854
14.012	63.7067
14.096	63.5208
14.18	63.594
14.264	63.5889
14.348	63.7261
14.432	63.8281
14.516	63.6189
14.6	63.4818
14.684	63.5235
14.768	63.4908
14.852	63.2164
14.936	63.2288
15.02	63.7631
15.104	64.1289
15.188	64.4364
15.272	64.7107
15.356	64.3113
15.44	63.6848
15.524	63.7042
15.608	64.2181
15.692	64.5738
15.776	64.6312
15.86	64.6562
15.944	64.6931
16.028	64.4783
16.112	63.8923
16.196	63.2534
16.28	63.0063
16.364	63.1747
16.448	63.4546
16.532	63.6666
16.616	63.8678
16.7	64.1262
16.784	64.3772
16.868	64.5159
16.952	64.4778
17.036	64.2695
17.12	64.0406
17.204	64.0126
17.288	64.24
17.372	64.5665
17.456	64.7751
17.54	64.7054
17.624	64.3939
17.708	64.104
17.792	64.0808
17.876	64.3015
17.96	64.5525
18.044	64.6773
18.128	64.6373
18.212	64.4749
18.296	64.2598
18.38	64.0139
18.464	63.7761
18.548	63.6609
18.632	63.7192
18.716	63.8541
18.8	63.9594
18.884	64.0397
18.968	64.1399
19.052	64.2313
19.136	64.2401
19.22	64.1493
19.304	64.0138
19.388	63.9025
19.472	63.8652
19.556	63.9239
19.64	64.0619
19.724	64.2264
19.808	64.3567
19.892	64.4234
19.976	64.4236
20.06	64.3613
20.144	64.2605
20.228	64.1777
20.312	64.1547
20.396	64.1697
20.48	64.174
20.564	64.1657
20.648	64.1837
20.732	64.233
20.816	64.2381
20.9	64.1097
20.984	63.8627
21.068	63.6346
21.152	63.5681
21.236	63.671
21.32	63.8107
21.404	63.8306
21.488	63.6799
21.572	63.4392
21.656	63.2486
21.74	63.2131
21.824	63.3431
21.908	63.566
21.992	63.7877
22.076	63.9405
22.16	64.0035
22.244	63.9826
22.328	63.8817
22.412	63.6882
22.496	63.3932
22.58	63.0185
22.664	62.6298
22.748	62.3281
22.832	62.19
22.916	62.2266
23	62.3942
23.084	62.6183
23.168	62.8481
23.252	63.0934
23.336	63.3936
23.42	63.768
23.504	64.1932
23.588	64.5731
23.672	64.7951
23.756	64.8287
23.84	64.7309
23.924	64.649
24.008	64.7337
24.092	65.0338
24.176	65.4344
24.26	65.7043
24.344	65.5553
24.428	64.7884
24.512	63.3929
24.596	61.5252
24.68	59.4713
24.764	57.5835
24.848	56.1382
24.932	55.4075
25.016	55.6319
25.1	56.9733
25.184	59.4999
25.268	63.0836
25.352	67.3582
25.436	71.7662
25.52	75.6625
25.604	78.4557
25.688	79.7219
25.772	79.3207
25.856	77.3736
25.94	74.2008
26.024	70.2165
26.108	65.8125
26.192	61.3386
26.276	57.0527
26.36	53.1407
26.444	49.6829
26.528	46.707
26.612	44.233
26.696	42.3057
26.78	40.9482
26.864	40.2454
26.948	40.2023
27.028	40.5212