File: Bakgrunnsmateriale/MATLAB/FTIR/ftir_data/subAa/Mapping_121/BZ1503107-1_t12.asc
PE IR       SPECTRUM    SPECTRUM    ASCII       PEDS        1.60
  -1
BZ215B~1.ASC
17/04/07
14:11:54.00
17/04/07
14:12:20.00
tln
$BZ1503107-1_t0012$<tbV0>[13.0,-10.4,8.0,0.0,27,1,0]
27.028
64

2002,4.07
MIRTGS : RIGHTBACK : INTERNAL 2
MIR : ON : INTERNAL 2
OPTKBR

0.200000
8
8.000000
FILLER
RATIO
SPECTRUM
UNLOCKED 256

DOUBLE
64
COMBINED
1
0
0

0.002000
RATIO

1
0
TRUE
51149
0
LEFT NOT FITTED RIGHT NOT FITTED 0
NONE
NONE
15600
12
4.427000
51148
TRUE
1 0 8 72 0 0 0 0

15798

#HDR
-1
-1
#GR
µM
%T
2.38419e-05
0.0
2.000000
0.002000
12515
8
79.6671
46.2642
#DATA
2.000000	 66.2944
2.084000	 66.2576
2.168000	 64.8609
2.252000	 67.4181
2.336000	 65.1401
2.420000	 65.0669
2.504000	 65.288
2.588000	 65.2703
2.672000	 65.4957
2.756000	 65.4865
2.840000	 65.1254
2.924000	 65.3256
3.008000	 65.2742
3.092000	 65.2088
3.176000	 65.0434
3.260000	 65.1758
3.344000	 65.1772
3.428000	 65.0056
3.512000	 65.0515
3.596000	 65.1539
3.680000	 65.0961
3.764000	 65.1364
3.848000	 64.9927
3.932000	 65.0545
4.016000	 65.0441
4.100000	 65.0043
4.184000	 65.0271
4.268000	 65.0098
4.352000	 64.9534
4.436000	 65.0328
4.520000	 65.0816
4.604000	 64.9134
4.688000	 64.9418
4.772000	 64.8697
4.856000	 64.887
4.940000	 64.959
5.024000	 64.8688
5.108000	 64.9189
5.192000	 64.7491
5.276000	 64.8235
5.359999	 64.8483
5.444000	 64.8202
5.528000	 64.9193
5.612000	 64.8081
5.696000	 64.7546
5.780000	 64.5149
5.864000	 64.838
5.948000	 64.8503
6.032000	 64.8235
6.116000	 64.773
6.200000	 64.6932
6.284000	 64.6881
6.368000	 64.6761
6.452000	 64.5886
6.536000	 64.6456
6.620000	 64.7162
6.704000	 64.7044
6.788000	 64.7023
6.872000	 64.5267
6.956000	 64.5466
7.040000	 64.6352
7.124000	 64.4531
7.208000	 64.4092
7.292000	 64.3344
7.376000	 64.4845
7.460000	 64.5038
7.544000	 64.3681
7.628000	 64.3876
7.712000	 64.3765
7.796000	 64.3872
7.880000	 64.2637
7.964000	 64.3739
8.048000	 64.2209
8.132000	 64.2494
8.216000	 64.2787
8.300000	 64.2331
8.384000	 64.3071
8.468000	 64.203
8.552000	 64.2594
8.635999	 64.153
8.719999	 63.9758
8.804000	 64.4404
8.888000	 64.3012
8.972000	 64.4993
9.056000	 64.3473
9.140000	 64.3028
9.224000	 64.3771
9.308000	 64.3216
9.391999	 64.0474
9.475999	 64.2973
9.560000	 64.2346
9.644000	 64.237
9.728000	 64.2181
9.812000	 64.1534
9.896000	 64.0785
9.980000	 64.1887
10.064	64.2619
10.148	64.269
10.232	64.3129
10.316	64.195
10.4	64.2891
10.484	64.2292
10.568	64.4765
10.652	64.3559
10.736	64.2852
10.82	64.2339
10.904	64.2459
10.988	64.2961
11.072	64.1851
11.156	64.3328
11.24	64.1216
11.324	64.2201
11.408	64.2483
11.492	64.1821
11.576	64.2739
11.66	64.3305
11.744	64.3989
11.828	64.4417
11.912	64.3277
11.996	63.9482
12.08	63.8652
12.164	64.219
12.248	64.2665
12.332	64.2127
12.416	64.1577
12.5	64.0077
12.584	64.0508
12.668	64.1277
12.752	64.0602
12.836	64.0714
12.92	64.1859
13.004	64.1807
13.088	64.1715
13.172	64.1759
13.256	64.0896
13.34	64.1396
13.424	64.1594
13.508	64.1285
13.592	64.1341
13.676	64.0847
13.76	64.0472
13.844	64.0193
13.928	63.9956
14.012	63.9801
14.096	63.9049
14.18	63.8393
14.264	63.8144
14.348	63.8268
14.432	63.9777
14.516	64.1839
14.6	64.2845
14.684	64.2451
14.768	64.2674
14.852	64.3443
14.936	64.2406
15.02	64.0351
15.104	63.9912
15.188	64.121
15.272	64.202
15.356	64.1995
15.44	64.2508
15.524	64.3406
15.608	64.3822
15.692	64.3386
15.776	64.2606
15.86	64.2335
15.944	64.2276
16.028	64.2055
16.112	64.1993
16.196	64.1673
16.28	64.0921
16.364	64.0972
16.448	64.1765
16.532	64.075
16.616	63.6947
16.7	63.3322
16.784	63.2722
16.868	63.4052
16.952	63.4462
17.036	63.4
17.12	63.4961
17.204	63.7697
17.288	64.0649
17.372	64.232
17.456	64.1641
17.54	63.9069
17.624	63.7158
17.708	63.7463
17.792	63.849
17.876	63.8866
17.96	63.9539
18.044	64.1116
18.128	64.2384
18.212	64.2702
18.296	64.3444
18.38	64.5762
18.464	64.8339
18.548	64.8877
18.632	64.7079
18.716	64.4892
18.8	64.4101
18.884	64.4655
18.968	64.5567
19.052	64.6482
19.136	64.7749
19.22	64.9463
19.304	65.1221
19.388	65.2494
19.472	65.2975
19.556	65.2676
19.64	65.1922
19.724	65.1199
19.808	65.0889
19.892	65.1038
19.976	65.1357
20.06	65.1263
20.144	65.0129
20.228	64.7637
20.312	64.4217
20.396	64.1008
20.48	63.9126
20.564	63.883
20.648	63.9501
20.732	64.0358
20.816	64.1203
20.9	64.2445
20.984	64.4486
21.068	64.7034
21.152	64.9113
21.236	64.9719
21.32	64.8503
21.404	64.6084
21.488	64.36
21.572	64.1977
21.656	64.1365
21.74	64.1242
21.824	64.1046
21.908	64.0725
21.992	64.0596
22.076	64.0804
22.16	64.0896
22.244	64.0064
22.328	63.7967
22.412	63.5229
22.496	63.3344
22.58	63.3701
22.664	63.6778
22.748	64.1721
22.832	64.6944
22.916	65.0904
23	65.2686
23.084	65.2129
23.168	64.9521
23.252	64.5329
23.336	64.0265
23.42	63.5273
23.504	63.155
23.588	63.0249
23.672	63.192
23.756	63.5996
23.84	64.1151
23.924	64.5516
24.008	64.7735
24.092	64.7714
24.176	64.6322
24.26	64.4952
24.344	64.4969
24.428	64.6959
24.512	65.0389
24.596	65.4497
24.68	65.874
24.764	66.2942
24.848	66.7286
24.932	67.191
25.016	67.6447
25.1	67.9936
25.184	68.0727
25.268	67.6929
25.352	66.6922
25.436	64.993
25.52	62.6485
25.604	59.8191
25.688	56.5928
25.772	53.1175
25.856	49.7078
25.94	47.2114
26.024	46.2841
26.108	46.6569
26.192	48.1471
26.276	50.9859
26.36	56.5047
26.444	64.681
26.528	73.7718
26.612	79.2895
26.696	78.2643
26.78	71.7625
26.864	65.5779
26.948	65.9893
27.028	72.1028