File: Bakgrunnsmateriale/MATLAB/FTIR/ftir_data/subAa/Mapping_121/BZ1503107-1_t61.asc
PE IR       SPECTRUM    SPECTRUM    ASCII       PEDS        1.60
  -1
BZ2D41~1.ASC
17/04/07
18:13:35.00
17/04/07
18:14:02.00
tln
$BZ1503107-1_t0061$<tbV0>[0.0,0.0,8.0,0.0,27,1,0]
27.028
64

2002,4.07
MIRTGS : RIGHTBACK : INTERNAL 2
MIR : ON : INTERNAL 2
OPTKBR

0.200000
8
8.000000
FILLER
RATIO
SPECTRUM
UNLOCKED 256

DOUBLE
64
COMBINED
1
0
0

0.002000
RATIO

1
0
TRUE
51149
0
LEFT NOT FITTED RIGHT NOT FITTED 0
NONE
NONE
15600
12
4.427000
51148
TRUE
1 0 8 72 0 0 0 0

15798

#HDR
-1
-1
#GR
µM
%T
2.38419e-05
0.0
2.000000
0.002000
12515
8
74.6345
50.4873
#DATA
2.000000	 64.7628
2.084000	 64.4563
2.168000	 64.6848
2.252000	 54.0223
2.336000	 65.0971
2.420000	 64.9936
2.504000	 65.0437
2.588000	 65.0806
2.672000	 64.9179
2.756000	 64.9184
2.840000	 65.1912
2.924000	 65.0629
3.008000	 64.9767
3.092000	 64.8853
3.176000	 64.8216
3.260000	 64.8881
3.344000	 64.9167
3.428000	 64.8295
3.512000	 64.9767
3.596000	 65.0271
3.680000	 64.974
3.764000	 64.8426
3.848000	 64.9303
3.932000	 64.7889
4.016000	 64.8826
4.100000	 64.9138
4.184000	 64.8357
4.268000	 64.6848
4.352000	 64.8529
4.436000	 64.7452
4.520000	 64.7642
4.604000	 64.5971
4.688000	 64.5635
4.772000	 64.6175
4.856000	 64.6306
4.940000	 64.6129
5.024000	 64.5506
5.108000	 64.4799
5.192000	 64.475
5.276000	 64.3963
5.359999	 64.4453
5.444000	 64.4541
5.528000	 64.423
5.612000	 64.4364
5.696000	 64.2973
5.780000	 64.1199
5.864000	 64.2527
5.948000	 64.1469
6.032000	 64.2491
6.116000	 64.1031
6.200000	 64.2785
6.284000	 64.1387
6.368000	 64.1672
6.452000	 64.1608
6.536000	 63.9822
6.620000	 64.122
6.704000	 64.1686
6.788000	 64.0464
6.872000	 63.8979
6.956000	 64.0024
7.040000	 64.0993
7.124000	 63.9816
7.208000	 64.0023
7.292000	 63.8881
7.376000	 63.8834
7.460000	 63.8136
7.544000	 63.8657
7.628000	 63.7822
7.712000	 63.9982
7.796000	 63.7118
7.880000	 63.7514
7.964000	 63.8178
8.048000	 63.6274
8.132000	 63.6823
8.216000	 63.7964
8.300000	 63.7637
8.384000	 63.662
8.468000	 63.7485
8.552000	 63.7377
8.635999	 63.5516
8.719999	 63.5619
8.804000	 63.8064
8.888000	 63.6039
8.972000	 63.6886
9.056000	 63.6587
9.140000	 63.693
9.224000	 63.5177
9.308000	 63.7616
9.391999	 63.6899
9.475999	 63.6298
9.560000	 63.5282
9.644000	 63.4969
9.728000	 63.4811
9.812000	 63.5991
9.896000	 63.7345
9.980000	 63.6464
10.064	63.6123
10.148	63.6735
10.232	63.8536
10.316	63.7146
10.4	63.5005
10.484	63.4305
10.568	63.4892
10.652	63.5391
10.736	63.5805
10.82	63.6255
10.904	63.5468
10.988	63.464
11.072	63.5964
11.156	63.5964
11.24	63.4673
11.324	63.5078
11.408	63.5843
11.492	63.5399
11.576	63.5818
11.66	63.816
11.744	63.8454
11.828	63.6315
11.912	63.4842
11.996	63.5171
12.08	63.6086
12.164	63.8792
12.248	63.8415
12.332	63.6008
12.416	63.4248
12.5	63.4181
12.584	63.4819
12.668	63.4816
12.752	63.35
12.836	63.2124
12.92	63.1617
13.004	63.331
13.088	63.4222
13.172	63.4131
13.256	63.347
13.34	63.347
13.424	63.4514
13.508	63.3707
13.592	63.2353
13.676	63.1868
13.76	63.2737
13.844	63.3259
13.928	63.2698
14.012	63.2601
14.096	63.1678
14.18	62.9572
14.264	62.8995
14.348	63.0269
14.432	63.2784
14.516	63.5969
14.6	63.567
14.684	63.4033
14.768	63.4759
14.852	63.3575
14.936	63.0623
15.02	63.0169
15.104	63.2432
15.188	63.4503
15.272	63.4373
15.356	63.3794
15.44	63.2837
15.524	62.9528
15.608	62.7055
15.692	62.7988
15.776	62.88
15.86	62.839
15.944	63.0827
16.028	63.6941
16.112	64.1563
16.196	63.9557
16.28	63.1755
16.364	62.4743
16.448	62.4099
16.532	62.8083
16.616	63.1095
16.7	63.1311
16.784	63.0372
16.868	62.8593
16.952	62.5922
17.036	62.4484
17.12	62.6082
17.204	62.9314
17.288	63.1203
17.372	63.0763
17.456	62.9883
17.54	63.0823
17.624	63.341
17.708	63.5437
17.792	63.5417
17.876	63.3395
17.96	63.0163
18.044	62.6931
18.128	62.5249
18.212	62.5861
18.296	62.7423
18.38	62.7356
18.464	62.4951
18.548	62.2642
18.632	62.2935
18.716	62.4803
18.8	62.4776
18.884	62.1373
18.968	61.7203
19.052	61.6114
19.136	61.9172
19.22	62.4264
19.304	62.8885
19.388	63.1828
19.472	63.2366
19.556	62.9813
19.64	62.4913
19.724	62.0741
19.808	62.0965
19.892	62.6781
19.976	63.5575
20.06	64.2826
20.144	64.5397
20.228	64.3273
20.312	63.8519
20.396	63.3155
20.48	62.8074
20.564	62.3431
20.648	61.9437
20.732	61.6573
20.816	61.5282
20.9	61.5496
20.984	61.6677
21.068	61.8229
21.152	61.9906
21.236	62.1881
21.32	62.4394
21.404	62.724
21.488	62.9746
21.572	63.1271
21.656	63.1824
21.74	63.2196
21.824	63.3241
21.908	63.4937
21.992	63.6204
22.076	63.5671
22.16	63.2873
22.244	62.8875
22.328	62.5644
22.412	62.4912
22.496	62.6915
22.58	63.0474
22.664	63.3882
22.748	63.5873
22.832	63.6277
22.916	63.5648
23	63.4845
23.084	63.4295
23.168	63.404
23.252	63.4088
23.336	63.4633
23.42	63.6183
23.504	63.9254
23.588	64.3514
23.672	64.7537
23.756	64.9166
23.84	64.6156
23.924	63.7436
24.008	62.3896
24.092	60.8275
24.176	59.4022
24.26	58.3668
24.344	57.7783
24.428	57.4688
24.512	57.1202
24.596	56.4589
24.68	55.3618
24.764	53.9104
24.848	52.3534
24.932	51.0837
25.016	50.4983
25.1	50.8749
25.184	52.3399
25.268	54.807
25.352	58.0115
25.436	61.5265
25.52	64.8335
25.604	67.4255
25.688	68.8951
25.772	69.0514
25.856	67.9627
25.94	65.8921
26.024	63.3166
26.108	60.8643
26.192	59.1852
26.276	58.7896
26.36	59.9364
26.444	62.4855
26.528	65.9261
26.612	69.5103
26.696	72.4678
26.78	74.216
26.864	74.6128
26.948	73.9542
27.028	72.9014