File: Bakgrunnsmateriale/MATLAB/FTIR/ftir_data/subAa/Mapping_121/BZ1503107-1_t31.asc
PE IR       SPECTRUM    SPECTRUM    ASCII       PEDS        1.60
  -1
BZ2D47~1.ASC
17/04/07
15:46:48.00
17/04/07
15:47:14.00
tln
$BZ1503107-1_t0031$<tbV0>[-7.8,-7.8,8.0,0.0,27,1,0]
27.028
64

2002,4.07
MIRTGS : RIGHTBACK : INTERNAL 2
MIR : ON : INTERNAL 2
OPTKBR

0.200000
8
8.000000
FILLER
RATIO
SPECTRUM
UNLOCKED 256

DOUBLE
64
COMBINED
1
0
0

0.002000
RATIO

1
0
TRUE
51149
0
LEFT NOT FITTED RIGHT NOT FITTED 0
NONE
NONE
15600
12
4.427000
51148
TRUE
1 0 8 72 0 0 0 0

15798

#HDR
-1
-1
#GR
µM
%T
2.38419e-05
0.0
2.000000
0.002000
12515
8
87.6863
44.0556
#DATA
2.000000	 64.7804
2.084000	 64.9897
2.168000	 65.195
2.252000	 65.4074
2.336000	 64.9933
2.420000	 65.0733
2.504000	 65.1521
2.588000	 65.0917
2.672000	 65.0634
2.756000	 65.2098
2.840000	 64.9094
2.924000	 65.107
3.008000	 65.0708
3.092000	 65.074
3.176000	 65.0198
3.260000	 65.0081
3.344000	 65.2236
3.428000	 65.0375
3.512000	 64.9704
3.596000	 65.022
3.680000	 65.091
3.764000	 64.971
3.848000	 65.0814
3.932000	 64.9787
4.016000	 64.8969
4.100000	 65.0188
4.184000	 65.0205
4.268000	 64.9415
4.352000	 64.8602
4.436000	 64.8979
4.520000	 64.8465
4.604000	 64.8661
4.688000	 64.8214
4.772000	 64.8937
4.856000	 64.728
4.940000	 64.8645
5.024000	 64.7161
5.108000	 64.6085
5.192000	 64.6882
5.276000	 64.6722
5.359999	 64.6184
5.444000	 64.6802
5.528000	 64.5462
5.612000	 64.6133
5.696000	 64.5286
5.780000	 64.3045
5.864000	 64.4681
5.948000	 64.495
6.032000	 64.4583
6.116000	 64.5105
6.200000	 64.4231
6.284000	 64.4216
6.368000	 64.5186
6.452000	 64.4132
6.536000	 64.3053
6.620000	 64.4402
6.704000	 64.3982
6.788000	 64.4045
6.872000	 64.2442
6.956000	 64.4184
7.040000	 64.37
7.124000	 64.2696
7.208000	 64.1892
7.292000	 64.3412
7.376000	 64.1694
7.460000	 64.3613
7.544000	 64.2506
7.628000	 64.2925
7.712000	 64.1362
7.796000	 64.1136
7.880000	 64.2221
7.964000	 64.1679
8.048000	 64.2385
8.132000	 64.1352
8.216000	 64.2296
8.300000	 64.0767
8.384000	 64.1923
8.468000	 64.0225
8.552000	 64.0913
8.635999	 64.0968
8.719999	 64.0163
8.804000	 63.9604
8.888000	 64.0556
8.972000	 64.1896
9.056000	 64.1173
9.140000	 64.0742
9.224000	 64.1466
9.308000	 64.0914
9.391999	 64.0935
9.475999	 64.0396
9.560000	 64.212
9.644000	 63.9565
9.728000	 64.0697
9.812000	 64.0246
9.896000	 64.0494
9.980000	 63.9678
10.064	64.1107
10.148	63.9406
10.232	64.019
10.316	64.0433
10.4	64.0199
10.484	64.1525
10.568	64.1513
10.652	63.9742
10.736	64.0283
10.82	64.1035
10.904	64.3619
10.988	64.0558
11.072	63.8672
11.156	63.9911
11.24	63.9621
11.324	63.9831
11.408	64.1411
11.492	64.0836
11.576	64.1211
11.66	64.0952
11.744	64.1004
11.828	63.9917
11.912	63.9384
11.996	64.0446
12.08	63.9834
12.164	63.9126
12.248	63.9434
12.332	64.0686
12.416	64.1791
12.5	64.1587
12.584	64.1612
12.668	64.2796
12.752	64.3227
12.836	64.3644
12.92	64.228
13.004	64.0064
13.088	63.9244
13.172	63.7405
13.256	63.6451
13.34	63.7619
13.424	63.9553
13.508	63.9285
13.592	63.7532
13.676	63.8779
13.76	64.1962
13.844	64.2163
13.928	64.1161
14.012	63.6268
14.096	62.7532
14.18	62.6499
14.264	63.3206
14.348	63.7871
14.432	63.618
14.516	63.6287
14.6	64.0635
14.684	64.079
14.768	63.9101
14.852	64.0603
14.936	64.3152
15.02	64.1237
15.104	63.3315
15.188	62.7531
15.272	62.7835
15.356	62.9678
15.44	63.152
15.524	63.4127
15.608	63.6403
15.692	63.8073
15.776	63.9872
15.86	64.1369
15.944	64.1893
16.028	64.1269
16.112	63.9801
16.196	63.8755
16.28	63.9247
16.364	63.9973
16.448	63.8483
16.532	63.6155
16.616	63.7123
16.7	64.1047
16.784	64.2889
16.868	64.0535
16.952	63.6946
17.036	63.5276
17.12	63.5913
17.204	63.7756
17.288	63.9988
17.372	64.1979
17.456	64.278
17.54	64.1894
17.624	64.0209
17.708	63.9022
17.792	63.8572
17.876	63.855
17.96	63.9104
18.044	64.0217
18.128	64.0911
18.212	64.0404
18.296	63.9275
18.38	63.8606
18.464	63.8648
18.548	63.8959
18.632	63.9214
18.716	63.9473
18.8	63.9879
18.884	64.036
18.968	64.0751
19.052	64.0944
19.136	64.0702
19.22	63.966
19.304	63.784
19.388	63.6021
19.472	63.5312
19.556	63.6246
19.64	63.8393
19.724	64.0806
19.808	64.2604
19.892	64.3151
19.976	64.2151
20.06	63.9949
20.144	63.7533
20.228	63.5922
20.312	63.5475
20.396	63.5772
20.48	63.6258
20.564	63.685
20.648	63.7901
20.732	63.9572
20.816	64.1382
20.9	64.2437
20.984	64.2087
21.068	64.0469
21.152	63.839
21.236	63.6679
21.32	63.5582
21.404	63.4678
21.488	63.3366
21.572	63.1455
21.656	62.9291
21.74	62.744
21.824	62.6233
21.908	62.555
21.992	62.5184
22.076	62.5286
22.16	62.6308
22.244	62.842
22.328	63.1179
22.412	63.3618
22.496	63.4772
22.58	63.4223
22.664	63.2235
22.748	62.9722
22.832	62.7761
22.916	62.7194
23	62.8212
23.084	63.0147
23.168	63.1677
23.252	63.1647
23.336	62.9628
23.42	62.6581
23.504	62.4509
23.588	62.5331
23.672	62.9744
23.756	63.6799
23.84	64.4501
23.924	65.0885
24.008	65.4923
24.092	65.6678
24.176	65.6853
24.26	65.6265
24.344	65.5017
24.428	65.2253
24.512	64.6866
24.596	63.8115
24.68	62.5998
24.764	61.1517
24.848	59.6853
24.932	58.4906
25.016	57.8252
25.1	57.8781
25.184	58.6549
25.268	59.9624
25.352	61.5085
25.436	63.0473
25.52	64.4749
25.604	65.7969
25.688	67.0103
25.772	67.9704
25.856	68.3502
25.94	67.7016
26.024	65.6093
26.108	61.9455
26.192	57.05
26.276	51.7405
26.36	47.1478
26.444	44.4217
26.528	44.4162
26.612	47.4204
26.696	53.2278
26.78	61.2023
26.864	70.4153
26.948	79.7747
27.028	87.6863