File: Bakgrunnsmateriale/MATLAB/FTIR/ftir_data/subAa/Mapping_121/BZ1503107-1_t87.asc
PE IR       SPECTRUM    SPECTRUM    ASCII       PEDS        1.60
  -1
BZ2565~1.ASC
17/04/07
20:21:02.00
17/04/07
20:21:28.00
tln
$BZ1503107-1_t0087$<tbV0>[-10.4,5.2,8.0,0.0,27,1,0]
27.028
64

2002,4.07
MIRTGS : RIGHTBACK : INTERNAL 2
MIR : ON : INTERNAL 2
OPTKBR

0.200000
8
8.000000
FILLER
RATIO
SPECTRUM
UNLOCKED 256

DOUBLE
64
COMBINED
1
0
0

0.002000
RATIO

1
0
TRUE
51149
0
LEFT NOT FITTED RIGHT NOT FITTED 0
NONE
NONE
15600
12
4.427000
51148
TRUE
1 0 8 72 0 0 0 0

15798

#HDR
-1
-1
#GR
µM
%T
2.38419e-05
0.0
2.000000
0.002000
12515
8
68.8017
40.6801
#DATA
2.000000	 63.8935
2.084000	 63.6342
2.168000	 64.2849
2.252000	 62.5559
2.336000	 63.7717
2.420000	 64.1336
2.504000	 64.2358
2.588000	 64.5105
2.672000	 64.5652
2.756000	 64.3733
2.840000	 64.4556
2.924000	 64.3624
3.008000	 64.3871
3.092000	 64.3518
3.176000	 64.4392
3.260000	 64.5141
3.344000	 64.3399
3.428000	 64.1825
3.512000	 64.304
3.596000	 64.253
3.680000	 64.311
3.764000	 64.1143
3.848000	 64.1329
3.932000	 64.1871
4.016000	 64.2297
4.100000	 64.05
4.184000	 63.975
4.268000	 64.0793
4.352000	 63.9839
4.436000	 64.0648
4.520000	 63.9809
4.604000	 63.9187
4.688000	 63.8702
4.772000	 63.8422
4.856000	 63.899
4.940000	 63.8002
5.024000	 63.694
5.108000	 63.8146
5.192000	 63.8123
5.276000	 63.7227
5.359999	 63.7138
5.444000	 63.625
5.528000	 63.6157
5.612000	 63.6392
5.696000	 63.5989
5.780000	 63.3273
5.864000	 63.4563
5.948000	 63.4825
6.032000	 63.5353
6.116000	 63.4335
6.200000	 63.49
6.284000	 63.3633
6.368000	 63.3005
6.452000	 63.2968
6.536000	 63.3051
6.620000	 63.3656
6.704000	 63.2797
6.788000	 63.3265
6.872000	 63.3807
6.956000	 63.2774
7.040000	 63.4018
7.124000	 63.2751
7.208000	 63.2463
7.292000	 63.3059
7.376000	 63.1871
7.460000	 63.16
7.544000	 63.156
7.628000	 63.0845
7.712000	 62.9938
7.796000	 62.9975
7.880000	 63.0265
7.964000	 62.9413
8.048000	 62.8384
8.132000	 63.0251
8.216000	 62.9899
8.300000	 62.9752
8.384000	 62.876
8.468000	 62.9422
8.552000	 62.8012
8.635999	 62.9639
8.719999	 62.9647
8.804000	 62.8841
8.888000	 62.8767
8.972000	 62.9865
9.056000	 62.7671
9.140000	 62.8257
9.224000	 63.0081
9.308000	 62.8742
9.391999	 62.8975
9.475999	 62.8632
9.560000	 62.9119
9.644000	 62.8054
9.728000	 62.8618
9.812000	 63.0106
9.896000	 63.0027
9.980000	 62.8656
10.064	62.6896
10.148	62.9111
10.232	63.0406
10.316	62.8849
10.4	62.9259
10.484	62.9253
10.568	62.9176
10.652	62.9977
10.736	62.946
10.82	63.0277
10.904	62.7462
10.988	62.9043
11.072	62.9373
11.156	62.7795
11.24	62.9354
11.324	63.0695
11.408	62.9393
11.492	63.0259
11.576	62.82
11.66	62.7581
11.744	62.8351
11.828	62.7949
11.912	62.9164
11.996	62.8203
12.08	62.8133
12.164	62.9693
12.248	62.7842
12.332	62.6372
12.416	62.6478
12.5	62.6236
12.584	62.6693
12.668	62.6694
12.752	62.6192
12.836	62.7805
12.92	62.9209
13.004	62.7711
13.088	62.6818
13.172	62.6521
13.256	62.5748
13.34	62.4954
13.424	62.4344
13.508	62.4772
13.592	62.4971
13.676	62.4301
13.76	62.3841
13.844	62.4116
13.928	62.6195
14.012	62.8381
14.096	62.61
14.18	62.2697
14.264	62.2862
14.348	62.4296
14.432	62.6335
14.516	62.8371
14.6	62.8424
14.684	62.845
14.768	62.8981
14.852	62.7909
14.936	62.5213
15.02	62.2839
15.104	62.3145
15.188	62.4549
15.272	62.462
15.356	62.4161
15.44	62.3248
15.524	62.1276
15.608	61.8605
15.692	61.6076
15.776	61.5802
15.86	61.8654
15.944	62.1458
16.028	62.1739
16.112	62.1905
16.196	62.4818
16.28	62.8953
16.364	63.0488
16.448	62.8205
16.532	62.5258
16.616	62.4025
16.7	62.263
16.784	62.0191
16.868	61.923
16.952	62.029
17.036	62.0989
17.12	62.0991
17.204	62.1683
17.288	62.2593
17.372	62.3274
17.456	62.5227
17.54	62.8486
17.624	63.0341
17.708	62.9778
17.792	62.8896
17.876	62.9088
17.96	62.9516
18.044	62.9389
18.128	62.8607
18.212	62.7284
18.296	62.6434
18.38	62.736
18.464	62.8792
18.548	62.7261
18.632	62.2266
18.716	61.8119
18.8	61.8978
18.884	62.4129
18.968	62.945
19.052	63.1894
19.136	63.1688
19.22	63.092
19.304	63.1265
19.388	63.2887
19.472	63.4613
19.556	63.5028
19.64	63.3623
19.724	63.106
19.808	62.8614
19.892	62.7496
19.976	62.8159
20.06	62.9976
20.144	63.1907
20.228	63.3369
20.312	63.4268
20.396	63.4339
20.48	63.2805
20.564	62.9125
20.648	62.4044
20.732	61.9406
20.816	61.6821
20.9	61.646
20.984	61.7379
21.068	61.8753
21.152	62.0493
21.236	62.2895
21.32	62.5983
21.404	62.93
21.488	63.2226
21.572	63.4348
21.656	63.5432
21.74	63.5123
21.824	63.2838
21.908	62.8257
21.992	62.2045
22.076	61.5963
22.16	61.2275
22.244	61.2401
22.328	61.6021
22.412	62.1315
22.496	62.5949
22.58	62.8652
22.664	62.9543
22.748	62.9676
22.832	62.9895
22.916	63.0141
23	62.9693
23.084	62.8021
23.168	62.5435
23.252	62.3025
23.336	62.2044
23.42	62.2898
23.504	62.4917
23.588	62.6771
23.672	62.737
23.756	62.6421
23.84	62.4315
23.924	62.1681
24.008	61.8847
24.092	61.5551
24.176	61.1038
24.26	60.4839
24.344	59.7037
24.428	58.8379
24.512	58.0436
24.596	57.4857
24.68	57.295
24.764	57.5183
24.848	58.085
24.932	58.7996
25.016	59.4089
25.1	59.7066
25.184	59.5729
25.268	59.0515
25.352	58.3543
25.436	57.7608
25.52	57.4675
25.604	57.4881
25.688	57.6308
25.772	57.5568
25.856	56.9312
25.94	55.4867
26.024	53.1881
26.108	50.3442
26.192	47.3587
26.276	44.6386
26.36	42.5878
26.444	41.3457
26.528	40.8005
26.612	40.6807
26.696	40.8017
26.78	41.1659
26.864	42.1239
26.948	44.1749
27.028	47.4088