File: Bakgrunnsmateriale/MATLAB/FTIR/ftir_data/subAa/Mapping_121/BZ1503107-1_t38.asc
PE IR       SPECTRUM    SPECTRUM    ASCII       PEDS        1.60
  -1
BZ2967~1.ASC
17/04/07
16:19:45.00
17/04/07
16:20:11.00
tln
$BZ1503107-1_t0038$<tbV0>[2.6,-5.2,8.0,0.0,27,1,0]
27.028
64

2002,4.07
MIRTGS : RIGHTBACK : INTERNAL 2
MIR : ON : INTERNAL 2
OPTKBR

0.200000
8
8.000000
FILLER
RATIO
SPECTRUM
UNLOCKED 256

DOUBLE
64
COMBINED
1
0
0

0.002000
RATIO

1
0
TRUE
51149
0
LEFT NOT FITTED RIGHT NOT FITTED 0
NONE
NONE
15600
12
4.427000
51148
TRUE
1 0 8 72 0 0 0 0

15798

#HDR
-1
-1
#GR
µM
%T
2.38419e-05
0.0
2.000000
0.002000
12515
8
79.4086
53.2934
#DATA
2.000000	 65.5348
2.084000	 64.6128
2.168000	 64.7383
2.252000	 67.3715
2.336000	 65.1662
2.420000	 65.0761
2.504000	 65.2068
2.588000	 65.0987
2.672000	 65.2265
2.756000	 65.5247
2.840000	 65.1639
2.924000	 65.1985
3.008000	 65.0274
3.092000	 65.0197
3.176000	 65.1171
3.260000	 65.1266
3.344000	 65.1481
3.428000	 65.0191
3.512000	 64.9683
3.596000	 64.9651
3.680000	 64.9844
3.764000	 65.0528
3.848000	 64.9246
3.932000	 64.8921
4.016000	 64.9998
4.100000	 64.9897
4.184000	 65.0451
4.268000	 64.894
4.352000	 64.8737
4.436000	 64.7946
4.520000	 64.8381
4.604000	 64.7657
4.688000	 64.8739
4.772000	 64.8342
4.856000	 64.6331
4.940000	 64.8463
5.024000	 64.6079
5.108000	 64.705
5.192000	 64.623
5.276000	 64.5402
5.359999	 64.6274
5.444000	 64.6077
5.528000	 64.5662
5.612000	 64.5564
5.696000	 64.4766
5.780000	 64.2507
5.864000	 64.5038
5.948000	 64.517
6.032000	 64.3729
6.116000	 64.481
6.200000	 64.2702
6.284000	 64.4004
6.368000	 64.4239
6.452000	 64.2541
6.536000	 64.308
6.620000	 64.4788
6.704000	 64.4432
6.788000	 64.3219
6.872000	 64.2515
6.956000	 64.3787
7.040000	 64.4031
7.124000	 64.3094
7.208000	 64.2898
7.292000	 64.2333
7.376000	 64.2717
7.460000	 64.258
7.544000	 64.1906
7.628000	 64.1064
7.712000	 64.1123
7.796000	 64.1459
7.880000	 64.0969
7.964000	 64.0459
8.048000	 64.1098
8.132000	 64.1004
8.216000	 64.1836
8.300000	 64.1137
8.384000	 64.1654
8.468000	 64.046
8.552000	 63.8184
8.635999	 64.0963
8.719999	 64.0198
8.804000	 63.9305
8.888000	 63.8077
8.972000	 64.003
9.056000	 63.88
9.140000	 63.7551
9.224000	 63.9722
9.308000	 64.0265
9.391999	 63.925
9.475999	 63.8984
9.560000	 63.9069
9.644000	 63.7593
9.728000	 64.0494
9.812000	 63.9955
9.896000	 64.0028
9.980000	 64.0369
10.064	63.9518
10.148	63.9973
10.232	63.891
10.316	63.9538
10.4	64.0051
10.484	63.8785
10.568	64.0878
10.652	64.1442
10.736	64.1416
10.82	64.2504
10.904	64.212
10.988	63.9948
11.072	63.8968
11.156	64.1125
11.24	64.1239
11.324	63.9696
11.408	64.2274
11.492	64.239
11.576	64.0375
11.66	63.8998
11.744	63.818
11.828	63.7785
11.912	63.8197
11.996	63.736
12.08	63.74
12.164	63.6626
12.248	63.6812
12.332	63.8771
12.416	63.7455
12.5	63.7109
12.584	63.8666
12.668	63.9402
12.752	64.0453
12.836	64.0794
12.92	63.9425
13.004	63.8094
13.088	63.6228
13.172	63.5544
13.256	63.5178
13.34	63.7363
13.424	64.0349
13.508	63.6023
13.592	63.4383
13.676	63.7378
13.76	63.8145
13.844	63.7909
13.928	63.6481
14.012	63.5363
14.096	63.6234
14.18	63.8727
14.264	63.9382
14.348	63.5749
14.432	63.3476
14.516	63.2709
14.6	63.1233
14.684	63.4549
14.768	64.0873
14.852	64.3532
14.936	64.1011
15.02	63.4234
15.104	63.0904
15.188	63.4289
15.272	63.4415
15.356	63.117
15.44	63.3859
15.524	64.1045
15.608	64.6872
15.692	64.9737
15.776	64.8414
15.86	64.4021
15.944	64.0726
16.028	63.8968
16.112	63.5448
16.196	62.9318
16.28	62.4638
16.364	62.6328
16.448	63.2952
16.532	63.8015
16.616	63.9235
16.7	63.9366
16.784	63.8914
16.868	63.6029
16.952	63.1818
17.036	63.0019
17.12	63.211
17.204	63.5802
17.288	63.8439
17.372	63.9728
17.456	64.0506
17.54	64.0713
17.624	63.9793
17.708	63.8241
17.792	63.7401
17.876	63.799
17.96	63.9493
18.044	64.0827
18.128	64.0975
18.212	63.9943
18.296	63.8609
18.38	63.725
18.464	63.549
18.548	63.3618
18.632	63.2552
18.716	63.2782
18.8	63.4175
18.884	63.6366
18.968	63.891
19.052	64.1145
19.136	64.2392
19.22	64.2421
19.304	64.1642
19.388	64.0569
19.472	63.9316
19.556	63.7815
19.64	63.641
19.724	63.5859
19.808	63.6582
19.892	63.7963
19.976	63.8536
20.06	63.7007
20.144	63.3392
20.228	62.9142
20.312	62.6067
20.396	62.512
20.48	62.6138
20.564	62.8413
20.648	63.1223
20.732	63.3949
20.816	63.6046
20.9	63.7219
20.984	63.7581
21.068	63.757
21.152	63.7437
21.236	63.6977
21.32	63.5834
21.404	63.4005
21.488	63.2036
21.572	63.0717
21.656	63.0501
21.74	63.1269
21.824	63.2483
21.908	63.3558
21.992	63.4292
22.076	63.4959
22.16	63.6049
22.244	63.7957
22.328	64.0544
22.412	64.3003
22.496	64.4147
22.58	64.3147
22.664	64.0086
22.748	63.6254
22.832	63.348
22.916	63.3305
23	63.6065
23.084	64.0769
23.168	64.5317
23.252	64.7607
23.336	64.6294
23.42	64.1419
23.504	63.4256
23.588	62.6806
23.672	62.0985
23.756	61.817
23.84	61.8803
23.924	62.2597
24.008	62.8608
24.092	63.5302
24.176	64.1007
24.26	64.4457
24.344	64.5063
24.428	64.3156
24.512	63.9866
24.596	63.6789
24.68	63.547
24.764	63.6822
24.848	64.0808
24.932	64.6688
25.016	65.3427
25.1	65.9915
25.184	66.5669
25.268	67.1086
25.352	67.7014
25.436	68.5437
25.52	69.8441
25.604	71.6872
25.688	73.9508
25.772	76.2702
25.856	78.1605
25.94	79.2304
26.024	79.3362
26.108	78.6606
26.192	77.6538
26.276	76.8285
26.36	76.5602
26.444	76.9554
26.528	77.8148
26.612	78.7475
26.696	79.2654
26.78	78.9739
26.864	77.6407
26.948	75.2091
27.028	71.9525