File: Bakgrunnsmateriale/MATLAB/FTIR/ftir_data/subAa/Mapping_121/BZ1503107-1_t12_cm-1.asc
PE IR       SPECTRUM    SPECTRUM    ASCII       PEDS        1.60
  -1
BZ6AA1~1.ASC
17/04/07
14:11:54.00
17/04/07
14:11:54.00
tln
$BZ1503107-1_t0012$<tbV0>[13.0,-10.4,8.0,0.0,27,1,0]
370
64

2002,4.07
MIRTGS : RIGHTBACK : INTERNAL 2
MIR : ON : INTERNAL 2
OPTKBR

0.200000
8
8.000000
FILLER
RATIO
SPECTRUM
UNLOCKED 256

DOUBLE
64
COMBINED
1
0
0

1.000000
RATIO

1
0
TRUE
51149
0
LEFT NOT FITTED RIGHT NOT FITTED 0
NONE
NONE
15600
12
4.427000
51148
TRUE
1 0 8 72 0 0 0 0

15798

#HDR
-1
-1
#GR
CM-1
%T
2.38419e-05
0.0
5000
-1.000000
4631
8
79.3809
46.2643
#DATA
5000	66.2944
4984	65.2677
4968	65.8005
4952	65.7132
4936	64.1293
4920	64.2736
4904	65.6111
4888	65.1499
4872	65.0492
4856	65.5097
4840	65.25
4824	65.1352
4808	64.9838
4792	65.7991
4776	64.5768
4760	65.2751
4744	64.7928
4728	64.4615
4712	64.6466
4696	65.1313
4680	65.1652
4664	64.8021
4648	65.2598
4632	64.8112
4616	64.6396
4600	65.0437
4584	64.9389
4568	64.8661
4552	64.9944
4536	64.9373
4520	65.081
4504	65.5937
4488	68.1982
4472	65.4031
4456	62.267
4440	68.9769
4424	66.5717
4408	65.3475
4392	65.2836
4376	65.1207
4360	64.8884
4344	65.5195
4328	65.1053
4312	65.0089
4296	64.8545
4280	65.1167
4264	64.8184
4248	65.2225
4232	65.2451
4216	65.1473
4200	65.3022
4184	64.8823
4168	65.1824
4152	65.0882
4136	64.9729
4120	65.0327
4104	65.6791
4088	65.3393
4072	65.1561
4056	65.4018
4040	65.1361
4024	65.0154
4008	65.0667
3992	65.2624
3976	65.499
3960	65.3881
3944	65.499
3928	65.3764
3912	65.2577
3896	65.3061
3880	65.2499
3864	65.2702
3848	65.2681
3832	65.2932
3816	65.2304
3800	65.2956
3784	65.0235
3768	65.3554
3752	65.4281
3736	65.4539
3720	65.2809
3704	65.3664
3688	65.3189
3672	65.4466
3656	65.1866
3640	65.3637
3624	65.4754
3608	65.2464
3592	65.2116
3576	65.2187
3560	65.3098
3544	65.3123
3528	65.1965
3512	65.2311
3496	65.1887
3480	65.2828
3464	65.1025
3448	65.1783
3432	65.1179
3416	65.3075
3400	65.1312
3384	65.3318
3368	65.1661
3352	65.1112
3336	65.1607
3320	65.3125
3304	65.215
3288	65.2054
3272	65.1497
3256	65.2288
3240	65.117
3224	65.1237
3208	65.2236
3192	65.226
3176	65.1415
3160	65.216
3144	65.0407
3128	65.1356
3112	65.1271
3096	65.2259
3080	65.3299
3064	65.1108
3048	65.1358
3032	65.0075
3016	65.1907
3000	65.2545
2984	65.1005
2968	65.0881
2952	65.0432
2936	65.0586
2920	64.9972
2904	64.9494
2888	65.0444
2872	65.1748
2856	65.1948
2840	65.1321
2824	65.1422
2808	65.0071
2792	65.0162
2776	65.1161
2760	65.1472
2744	65.0968
2728	65.1695
2712	65.1394
2696	65.2531
2680	65.1959
2664	65.137
2648	64.8689
2632	64.9514
2616	64.9961
2600	64.9917
2584	65.1026
2568	65.113
2552	65.1067
2536	65.0874
2520	65.1637
2504	65.1244
2488	65.0645
2472	65.0723
2456	65.0375
2440	65.0112
2424	65.0109
2408	64.9565
2392	65.0205
2376	65.0728
2360	65.0798
2344	65.028
2328	64.959
2312	65.0297
2296	64.9298
2280	65.0725
2264	64.9349
2248	65.0306
2232	64.9221
2216	65.1029
2200	64.942
2184	64.9913
2168	64.8891
2152	64.8576
2136	64.9192
2120	65.0053
2104	64.981
2088	64.8635
2072	64.9186
2056	64.895
2040	64.8815
2024	64.958
2008	64.8894
1992	64.8544
1976	64.8516
1960	64.94
1944	64.9178
1928	64.7628
1912	64.872
1896	64.8288
1880	64.8669
1864	64.8437
1848	64.8285
1832	64.8598
1816	64.9479
1800	64.8768
1784	64.8197
1768	64.7056
1752	64.7272
1736	64.6229
1720	64.6063
1704	64.8987
1688	64.8264
1672	64.9172
1656	64.8494
1640	64.6952
1624	64.7494
1608	64.7308
1592	64.6715
1576	64.7674
1560	65.0038
1544	64.7534
1528	64.6702
1512	64.6925
1496	64.68
1480	64.6041
1464	64.6011
1448	64.5984
1432	64.5526
1416	64.5326
1400	64.422
1384	64.4641
1368	64.336
1352	64.5961
1336	64.4991
1320	64.4171
1304	64.4085
1288	64.4179
1272	64.2327
1256	64.3749
1240	64.227
1224	64.3138
1208	64.2673
1192	64.2992
1176	64.2172
1160	64.1843
1144	64.0277
1128	64.3335
1112	64.4603
1096	64.2625
1080	64.3987
1064	64.0457
1048	64.3095
1032	64.2686
1016	64.1222
1000	64.2257
984	 64.295
968	 64.2243
952	 64.2841
936	 64.3102
920	 64.1992
904	 64.1701
888	 64.1227
872	 64.1954
856	 64.3542
840	 64.3532
824	 64.1136
808	 64.1916
792	 64.1121
776	 64.1446
760	 64.1852
744	 64.15
728	 64.0546
712	 63.958
696	 63.8496
680	 64.2369
664	 63.9841
648	 64.2429
632	 64.238
616	 64.1332
600	 63.4483
584	 63.5041
568	 63.7388
552	 64.227
536	 64.6366
520	 64.9697
504	 65.0901
488	 63.8995
472	 64.9582
456	 64.0657
440	 64.0411
424	 63.0244
408	 65.0289
392	 62.9484
376	 78.7398
370	 72.1028