File: Bakgrunnsmateriale/MATLAB/FTIR/ftir_data/subAa/Mapping_121/BZ1503107-1_t22_cm-1.asc
PE IR       SPECTRUM    SPECTRUM    ASCII       PEDS        1.60
  -1
BZ6A23~1.ASC
17/04/07
14:58:05.00
17/04/07
14:58:05.00
tln
$BZ1503107-1_t0022$<tbV0>[-13.0,-10.4,8.0,0.0,27,1,0]
370
64

2002,4.07
MIRTGS : RIGHTBACK : INTERNAL 2
MIR : ON : INTERNAL 2
OPTKBR

0.200000
8
8.000000
FILLER
RATIO
SPECTRUM
UNLOCKED 256

DOUBLE
64
COMBINED
1
0
0

1.000000
RATIO

1
0
TRUE
51149
0
LEFT NOT FITTED RIGHT NOT FITTED 0
NONE
NONE
15600
12
4.427000
51148
TRUE
1 0 8 72 0 0 0 0

15798

#HDR
-1
-1
#GR
CM-1
%T
2.38419e-05
0.0
5000
-1.000000
4631
8
109.254
47.2682
#DATA
5000	64.6861
4984	64.5603
4968	64.3219
4952	64.8128
4936	64.6106
4920	65.0924
4904	64.7236
4888	64.9684
4872	64.3617
4856	65.615
4840	65.2747
4824	65.1904
4808	64.5348
4792	65.5285
4776	65.0216
4760	65.5349
4744	64.7978
4728	64.7809
4712	64.7193
4696	64.705
4680	64.964
4664	64.9678
4648	64.8683
4632	64.6734
4616	64.6052
4600	64.8882
4584	64.9261
4568	64.6021
4552	64.554
4536	64.7292
4520	64.7054
4504	65.2591
4488	67.8363
4472	65.0121
4456	62.1937
4440	63.2074
4424	67.8149
4408	66.1122
4392	66.3278
4376	64.6176
4360	64.7616
4344	65.0518
4328	64.9041
4312	64.8954
4296	64.8173
4280	64.8864
4264	65.0058
4248	64.8576
4232	65.1479
4216	65.0371
4200	64.8799
4184	65.2373
4168	65.1603
4152	64.8076
4136	65.0146
4120	65.2571
4104	65.2049
4088	65.3023
4072	65.2025
4056	65.3637
4040	65.1177
4024	65.1759
4008	65.038
3992	65.0376
3976	65.1289
3960	65.11
3944	65.3902
3928	64.856
3912	65.0177
3896	65.1728
3880	65.2524
3864	64.9525
3848	65.4507
3832	65.4043
3816	65.0428
3800	65.0991
3784	65.0914
3768	65.0136
3752	65.3654
3736	65.2949
3720	65.1195
3704	65.3088
3688	65.3084
3672	65.5545
3656	65.1533
3640	65.3832
3624	65.376
3608	65.2519
3592	65.2422
3576	65.3504
3560	65.125
3544	65.1349
3528	65.0925
3512	65.2556
3496	65.1458
3480	65.2124
3464	65.228
3448	65.0773
3432	65.2368
3416	65.09
3400	65.1232
3384	65.2136
3368	65.1326
3352	65.051
3336	65.2152
3320	65.2641
3304	65.2935
3288	65.2421
3272	65.0811
3256	65.261
3240	64.9131
3224	65.0082
3208	65.3406
3192	65.16
3176	65.2074
3160	65.174
3144	65.2225
3128	65.1272
3112	64.9467
3096	65.1474
3080	65.0294
3064	65.2627
3048	65.2143
3032	65.2341
3016	65.3259
3000	65.2508
2984	65.0271
2968	65.0186
2952	64.9167
2936	64.9963
2920	65.0255
2904	65.0709
2888	65.1057
2872	65.1339
2856	64.9517
2840	65.088
2824	65.0578
2808	65.1129
2792	65.1301
2776	65.0864
2760	65.0642
2744	65.1695
2728	65.2049
2712	65.0906
2696	65.1818
2680	65.1387
2664	65.1246
2648	64.9893
2632	65.0206
2616	65.1048
2600	64.9447
2584	65.1515
2568	65.0536
2552	65.0294
2536	65.0344
2520	65.1258
2504	65.0432
2488	65.0717
2472	65.0574
2456	64.9538
2440	65.0915
2424	64.9729
2408	65.0631
2392	65.017
2376	65.0855
2360	65.1041
2344	65.1273
2328	65.1765
2312	65.0674
2296	64.8767
2280	65.0167
2264	64.9776
2248	64.9607
2232	64.8931
2216	65.08
2200	65.0322
2184	64.8824
2168	64.9774
2152	64.8356
2136	64.878
2120	64.879
2104	64.926
2088	64.94
2072	64.9153
2056	64.9458
2040	64.9659
2024	64.8898
2008	64.9739
1992	64.8234
1976	65.014
1960	64.9645
1944	64.9305
1928	64.8145
1912	64.9565
1896	64.8768
1880	64.8151
1864	64.9542
1848	64.8446
1832	64.8374
1816	64.8752
1800	64.82
1784	64.8014
1768	64.8132
1752	64.8256
1736	64.5362
1720	64.6723
1704	64.8545
1688	64.7952
1672	64.7882
1656	64.8764
1640	64.729
1624	64.708
1608	64.8361
1592	64.6831
1576	64.7269
1560	64.9504
1544	64.76
1528	64.6585
1512	64.7042
1496	64.6795
1480	64.5688
1464	64.6704
1448	64.5669
1432	64.6742
1416	64.5889
1400	64.5172
1384	64.3977
1368	64.4831
1352	64.5248
1336	64.5277
1320	64.3712
1304	64.3737
1288	64.5149
1272	64.2835
1256	64.4292
1240	64.273
1224	64.4723
1208	64.4288
1192	64.4655
1176	64.1822
1160	64.0901
1144	64.2059
1128	64.5076
1112	64.4989
1096	64.264
1080	64.2836
1064	64.1832
1048	64.4237
1032	64.331
1016	64.0922
1000	64.29
984	 64.4759
968	 64.3486
952	 64.4347
936	 64.4402
920	 64.3071
904	 64.2411
888	 64.3351
872	 64.3146
856	 64.1818
840	 64.2628
824	 64.1765
808	 64.2317
792	 64.2016
776	 64.2314
760	 64.4397
744	 63.8765
728	 64.2856
712	 64.0958
696	 64.3544
680	 63.9487
664	 63.9674
648	 63.9791
632	 64.6245
616	 64.4185
600	 63.1675
584	 63.9159
568	 63.3899
552	 64.3339
536	 64.2275
520	 64.5759
504	 64.4839
488	 64.4987
472	 64.9536
456	 63.624
440	 63.4843
424	 64.0283
408	 63.441
392	 52.5825
376	 84.0806
370	 109.254