File: Bakgrunnsmateriale/MATLAB/FTIR/ftir_data/subAa/Mapping_121/BZ1503107-1_t54.asc
PE IR       SPECTRUM    SPECTRUM    ASCII       PEDS        1.60
  -1
BZ2953~1.ASC
17/04/07
17:40:37.00
17/04/07
17:41:04.00
tln
$BZ1503107-1_t0054$<tbV0>[-10.4,-2.6,8.0,0.0,27,1,0]
27.028
64

2002,4.07
MIRTGS : RIGHTBACK : INTERNAL 2
MIR : ON : INTERNAL 2
OPTKBR

0.200000
8
8.000000
FILLER
RATIO
SPECTRUM
UNLOCKED 256

DOUBLE
64
COMBINED
1
0
0

0.002000
RATIO

1
0
TRUE
51149
0
LEFT NOT FITTED RIGHT NOT FITTED 0
NONE
NONE
15600
12
4.427000
51148
TRUE
1 0 8 72 0 0 0 0

15798

#HDR
-1
-1
#GR
µM
%T
2.38419e-05
0.0
2.000000
0.002000
12515
8
67.1027
45.0945
#DATA
2.000000	 64.8395
2.084000	 64.9272
2.168000	 64.5435
2.252000	 67.1027
2.336000	 64.9576
2.420000	 64.9956
2.504000	 65.1215
2.588000	 65.1874
2.672000	 64.9345
2.756000	 65.0354
2.840000	 65.0208
2.924000	 65.0539
3.008000	 65.1653
3.092000	 65.004
3.176000	 65.0533
3.260000	 65.0794
3.344000	 65.0475
3.428000	 64.7631
3.512000	 64.9265
3.596000	 64.9758
3.680000	 64.9545
3.764000	 64.8932
3.848000	 64.8992
3.932000	 64.8841
4.016000	 64.9803
4.100000	 64.874
4.184000	 64.8614
4.268000	 64.7812
4.352000	 64.8389
4.436000	 64.8115
4.520000	 64.7478
4.604000	 64.7251
4.688000	 64.7314
4.772000	 64.8313
4.856000	 64.7299
4.940000	 64.6472
5.024000	 64.5911
5.108000	 64.4885
5.192000	 64.6508
5.276000	 64.5654
5.359999	 64.5537
5.444000	 64.5655
5.528000	 64.4991
5.612000	 64.4474
5.696000	 64.3939
5.780000	 64.0993
5.864000	 64.3799
5.948000	 64.3245
6.032000	 64.3804
6.116000	 64.2653
6.200000	 64.251
6.284000	 64.2985
6.368000	 64.1637
6.452000	 64.1488
6.536000	 64.2299
6.620000	 64.2637
6.704000	 64.2617
6.788000	 64.1401
6.872000	 64.1359
6.956000	 63.9567
7.040000	 64.2862
7.124000	 64.1295
7.208000	 64.0359
7.292000	 64.0682
7.376000	 64.1825
7.460000	 63.9691
7.544000	 64.0652
7.628000	 64.12
7.712000	 64.1302
7.796000	 64.0579
7.880000	 63.9908
7.964000	 63.9606
8.048000	 64.0487
8.132000	 63.8584
8.216000	 63.9145
8.300000	 63.9483
8.384000	 63.873
8.468000	 63.9815
8.552000	 63.998
8.635999	 63.7174
8.719999	 63.7063
8.804000	 63.9884
8.888000	 63.8799
8.972000	 63.814
9.056000	 63.7275
9.140000	 63.8792
9.224000	 63.6926
9.308000	 63.8594
9.391999	 63.7559
9.475999	 63.7854
9.560000	 63.6644
9.644000	 63.7421
9.728000	 63.767
9.812000	 63.7057
9.896000	 63.8258
9.980000	 63.883
10.064	63.9226
10.148	63.8764
10.232	63.9672
10.316	63.8775
10.4	63.6665
10.484	63.5744
10.568	63.5241
10.652	63.6202
10.736	63.7675
10.82	63.8418
10.904	63.875
10.988	63.6805
11.072	63.6992
11.156	63.7562
11.24	63.7695
11.324	63.8851
11.408	64.0111
11.492	63.8772
11.576	63.6674
11.66	63.7925
11.744	63.8149
11.828	63.7587
11.912	63.8291
11.996	63.7719
12.08	63.6867
12.164	63.7301
12.248	63.7077
12.332	63.6066
12.416	63.6437
12.5	63.5952
12.584	63.6052
12.668	63.754
12.752	63.9045
12.836	63.8553
12.92	63.6678
13.004	63.69
13.088	63.6496
13.172	63.4637
13.256	63.2308
13.34	63.2594
13.424	63.5159
13.508	63.7021
13.592	63.6447
13.676	63.5077
13.76	63.6857
13.844	63.9041
13.928	63.8402
14.012	63.7638
14.096	63.6839
14.18	63.4416
14.264	63.3828
14.348	63.4507
14.432	63.4202
14.516	63.5335
14.6	63.5939
14.684	63.4897
14.768	63.4778
14.852	63.3551
14.936	63.0953
15.02	63.0385
15.104	63.341
15.188	63.7626
15.272	63.8833
15.356	63.8232
15.44	63.7608
15.524	63.4154
15.608	62.9706
15.692	62.8275
15.776	62.7866
15.86	62.6306
15.944	62.5937
16.028	62.8782
16.112	63.2901
16.196	63.394
16.28	63.0318
16.364	62.6897
16.448	62.9456
16.532	63.5859
16.616	63.9021
16.7	63.8099
16.784	63.8003
16.868	63.8624
16.952	63.5756
17.036	63.0932
17.12	62.9907
17.204	63.3436
17.288	63.7446
17.372	63.9319
17.456	63.9059
17.54	63.7237
17.624	63.4596
17.708	63.1783
17.792	62.9175
17.876	62.7693
17.96	62.8304
18.044	63.0346
18.128	63.2202
18.212	63.3657
18.296	63.5056
18.38	63.4917
18.464	63.1673
18.548	62.7129
18.632	62.4937
18.716	62.6331
18.8	62.9577
18.884	63.2969
18.968	63.6366
19.052	63.9827
19.136	64.2374
19.22	64.2833
19.304	64.1167
19.388	63.8459
19.472	63.6017
19.556	63.4718
19.64	63.4699
19.724	63.5239
19.808	63.5247
19.892	63.4341
19.976	63.3182
20.06	63.2635
20.144	63.2797
20.228	63.3086
20.312	63.3028
20.396	63.2721
20.48	63.2575
20.564	63.2754
20.648	63.2941
20.732	63.2539
20.816	63.1001
20.9	62.8151
20.984	62.4564
21.068	62.1494
21.152	62.0252
21.236	62.1408
21.32	62.4475
21.404	62.8246
21.488	63.1455
21.572	63.3358
21.656	63.3931
21.74	63.3581
21.824	63.2551
21.908	63.0614
21.992	62.7391
22.076	62.288
22.16	61.7821
22.244	61.3456
22.328	61.0809
22.412	61.0269
22.496	61.144
22.58	61.3627
22.664	61.6237
22.748	61.884
22.832	62.1016
22.916	62.2238
23	62.2407
23.084	62.1845
23.168	62.1376
23.252	62.1895
23.336	62.384
23.42	62.6798
23.504	62.9921
23.588	63.2169
23.672	63.2683
23.756	63.1086
23.84	62.7459
23.924	62.2321
24.008	61.663
24.092	61.1669
24.176	60.8541
24.26	60.7323
24.344	60.6543
24.428	60.364
24.512	59.5711
24.596	58.1255
24.68	56.1405
24.764	54.0216
24.848	52.2945
24.932	51.5114
25.016	51.9964
25.1	53.7031
25.184	56.2145
25.268	58.8757
25.352	61.0103
25.436	62.1199
25.52	62.0596
25.604	60.9991
25.688	59.3529
25.772	57.6138
25.856	56.1746
25.94	55.2717
26.024	54.9827
26.108	55.2581
26.192	55.9405
26.276	56.805
26.36	57.6191
26.444	58.1295
26.528	58.0976
26.612	57.3578
26.696	55.844
26.78	53.6197
26.864	50.889
26.948	47.9174
27.028	45.0945