File: Bakgrunnsmateriale/MATLAB/FTIR/ftir_data/subAa/Mapping_121/BZ1503107-1_e123_cm-1.asc
PE IR       SPECTRUM    SPECTRUM    ASCII       PEDS        1.60
  -1
BZ09FA~1.ASC
17/04/07
15:04:00.00
17/04/07
15:04:00.00
tln
$BZ1503107-1_e0123$<ebV0>[-23.3,12.1,10.0,0.0,27,1,0]
370
64

2002,4.07
MIRTGS : RIGHTBACK : INTERNAL 2
MIR : ON : INTERNAL 2
OPTKBR

0.200000
8
8.000000
FILLER
SINGLE
SPECTRUM
UNLOCKED 256

DOUBLE

COMBINED
1
0
0

1.000000
BACKG

1
0
TRUE
51149
0
LEFT NOT FITTED RIGHT NOT FITTED 0
NONE
NONE
15600
12
4.427000
51148
TRUE
1 0 8 72 0 0 0 0

15798

#HDR
-1
-1
#GR
CM-1
EGY
2.38419e-05
0.0
5000
-1.000000
4631
8
2.463483
0.008559
#DATA
5000	0.770044
4984	0.786471
4968	0.796604
4952	0.800919
4936	0.806093
4920	0.809764
4904	0.814890
4888	0.822591
4872	0.828528
4856	0.834989
4840	0.845813
4824	0.856924
4808	0.869870
4792	0.880861
4776	0.888872
4760	0.894284
4744	0.901365
4728	0.905966
4712	0.903701
4696	0.913429
4680	0.916957
4664	0.920414
4648	0.921940
4632	0.930404
4616	0.938677
4600	0.949788
4584	0.960755
4568	0.971603
4552	0.985574
4536	0.994753
4520	1.006793
4504	1.010441
4488	1.016855
4472	1.021122
4456	1.014947
4440	0.995516
4424	0.831365
4408	1.047158
4392	1.052498
4376	1.056647
4360	1.068472
4344	1.083326
4328	1.102042
4312	1.118755
4296	1.134037
4280	1.149773
4264	1.163959
4248	1.181650
4232	1.187396
4216	1.195287
4200	1.201677
4184	1.209998
4168	1.215744
4152	1.226162
4136	1.235699
4120	1.250839
4104	1.266407
4088	1.287460
4072	1.308965
4056	1.332688
4040	1.354527
4024	1.374244
4008	1.388907
3992	1.401615
3976	1.415181
3960	1.422309
3944	1.427531
3928	1.432085
3912	1.436781
3896	1.439595
3880	1.452231
3864	1.459074
3848	1.471948
3832	1.490068
3816	1.505756
3800	1.519131
3784	1.549887
3768	1.560759
3752	1.556181
3736	1.568031
3720	1.580858
3704	1.582932
3688	1.577901
3672	1.571750
3656	1.578402
3640	1.588177
3624	1.585650
3608	1.592159
3592	1.601552
3576	1.618957
3560	1.625919
3544	1.634049
3528	1.636624
3512	1.637125
3496	1.633119
3480	1.625204
3464	1.616764
3448	1.604723
3432	1.594448
3416	1.596140
3400	1.604008
3384	1.613068
3368	1.630425
3352	1.653933
3336	1.677846
3320	1.702737
3304	1.728153
3288	1.749777
3272	1.764774
3256	1.781272
3240	1.788759
3224	1.796531
3208	1.799345
3192	1.803660
3176	1.806807
3160	1.813840
3144	1.829981
3128	1.842522
3112	1.867055
3096	1.893210
3080	1.925873
3064	1.945543
3048	1.974797
3032	1.990437
3016	1.975822
3000	2.033662
2984	2.033352
2968	1.970934
2952	1.927542
2936	1.823115
2920	1.809859
2904	1.955342
2888	2.004599
2872	1.992464
2856	1.934051
2840	2.080082
2824	2.138924
2808	2.176928
2792	2.201151
2776	2.234339
2760	2.253365
2744	2.261066
2728	2.266454
2712	2.262163
2696	2.251052
2680	2.244091
2664	2.234053
2648	2.225756
2632	2.225923
2616	2.230954
2600	2.235102
2584	2.248692
2568	2.274060
2552	2.293634
2536	2.311897
2520	2.327704
2504	2.333045
2488	2.334523
2472	2.326941
2456	2.315044
2440	2.296638
2424	2.279233
2408	2.265715
2392	2.254915
2376	2.250647
2360	2.242994
2344	2.268815
2328	2.291750
2312	2.324938
2296	2.352809
2280	2.370834
2264	2.383875
2248	2.389311
2232	2.385377
2216	2.378749
2200	2.363824
2184	2.351546
2168	2.343535
2152	2.341628
2136	2.341032
2120	2.342128
2104	2.345561
2088	2.345776
2072	2.363753
2056	2.397847
2040	2.430748
2024	2.446866
2008	2.458477
1992	2.463221
1976	2.451896
1960	2.436828
1944	2.423262
1928	2.410340
1912	2.393054
1896	2.378749
1880	2.382087
1864	2.388215
1848	2.398467
1832	2.413439
1816	2.430033
1800	2.435278
1784	2.435779
1768	2.419352
1752	2.393865
1736	2.335238
1720	2.314925
1704	2.278661
1688	2.252125
1672	2.228474
1656	2.184939
1640	2.160239
1624	2.110743
1608	1.976823
1592	2.020931
1576	1.990580
1560	1.933741
1544	1.962804
1528	2.110815
1512	2.090930
1496	1.704192
1480	1.960802
1464	1.939153
1448	1.783823
1432	1.869750
1416	1.845645
1400	1.733565
1384	1.788496
1368	1.817297
1352	1.818346
1336	1.826620
1320	1.856017
1304	1.856923
1288	1.856017
1272	1.807236
1256	1.758933
1240	1.836585
1224	1.816129
1208	1.750779
1192	1.741695
1176	1.700401
1160	1.630306
1144	1.598715
1128	1.543426
1112	1.459479
1096	1.426386
1080	1.428794
1064	1.436519
1048	1.306152
1032	1.378202
1016	1.365852
1000	1.398420
984	 1.383447
968	 1.344203
952	 1.286673
936	 1.252198
920	 1.214241
904	 1.162219
888	 1.119756
872	 1.037001
856	 1.092815
840	 1.060199
824	 0.847387
808	 0.949478
792	 0.957846
776	 0.978779
760	 0.964927
744	 0.942564
728	 0.902152
712	 0.859165
696	 0.791978
680	 0.737237
664	 0.707101
648	 0.669145
632	 0.620818
616	 0.579667
600	 0.520610
584	 0.509285
568	 0.492191
552	 0.463247
536	 0.439095
520	 0.400066
504	 0.360131
488	 0.305986
472	 0.252890
456	 0.197219
440	 0.151467
424	 0.099873
408	 0.055623
392	 0.025725
376	 0.012063
370	 0.008559