File: Bakgrunnsmateriale/MATLAB/FTIR/ftir_data/subAa/Mapping_121/BZ1503107-1_t58_cm-1.asc
PE IR       SPECTRUM    SPECTRUM    ASCII       PEDS        1.60
  -1
BZ60B3~1.ASC
17/04/07
17:59:44.00
17/04/07
17:59:44.00
tln
$BZ1503107-1_t0058$<tbV0>[7.8,0.0,8.0,0.0,27,1,0]
370
64

2002,4.07
MIRTGS : RIGHTBACK : INTERNAL 2
MIR : ON : INTERNAL 2
OPTKBR

0.200000
8
8.000000
FILLER
RATIO
SPECTRUM
UNLOCKED 256

DOUBLE
64
COMBINED
1
0
0

1.000000
RATIO

1
0
TRUE
51149
0
LEFT NOT FITTED RIGHT NOT FITTED 0
NONE
NONE
15600
12
4.427000
51148
TRUE
1 0 8 72 0 0 0 0

15798

#HDR
-1
-1
#GR
CM-1
%T
2.38419e-05
0.0
5000
-1.000000
4631
8
82.9054
49.0258
#DATA
5000	65.79
4984	65.9927
4968	65.4088
4952	64.1325
4936	66.8293
4920	65.8243
4904	64.5994
4888	64.143
4872	64.967
4856	64.4588
4840	64.9497
4824	64.534
4808	64.9838
4792	64.7888
4776	64.9013
4760	64.9038
4744	64.8383
4728	64.9836
4712	64.7497
4696	64.7394
4680	64.9878
4664	64.6004
4648	65.0381
4632	64.9556
4616	65.0794
4600	64.9163
4584	64.7566
4568	64.8956
4552	65.5391
4536	64.8416
4520	65.4018
4504	65.1481
4488	64.5473
4472	64.1778
4456	64.9842
4440	74.3438
4424	60.0621
4408	64.6495
4392	65.0004
4376	65.1313
4360	65.5882
4344	65.1851
4328	65.2947
4312	64.9853
4296	65.0304
4280	65.2392
4264	65.2431
4248	65.4857
4232	65.3759
4216	65.0469
4200	65.0089
4184	65.0094
4168	65.217
4152	64.9522
4136	64.823
4120	65.0647
4104	65.1337
4088	65.1024
4072	64.6785
4056	65.2424
4040	64.8649
4024	64.925
4008	65.0604
3992	65.0581
3976	65.4079
3960	65.1853
3944	65.4421
3928	65.0393
3912	65.4148
3896	65.1079
3880	65.3323
3864	65.1146
3848	65.1865
3832	65.0936
3816	65.1859
3800	65.2231
3784	65.2792
3768	65.1727
3752	64.9286
3736	65.0408
3720	65.1307
3704	65.2973
3688	65.1269
3672	65.0762
3656	65.1046
3640	65.124
3624	65.0032
3608	65.2242
3592	64.9926
3576	65.1148
3560	65.0831
3544	65.0386
3528	65.1083
3512	65.1371
3496	65.2009
3480	65.2806
3464	64.8751
3448	65.161
3432	65.007
3416	65.0083
3400	64.9684
3384	65.0805
3368	65.1794
3352	64.8721
3336	65.0639
3320	64.9647
3304	65.1481
3288	64.9174
3272	64.9178
3256	65.1777
3240	65.1464
3224	65.0808
3208	65.1013
3192	65.0337
3176	65.0656
3160	65.0161
3144	64.9886
3128	64.8941
3112	65.0596
3096	65.2228
3080	64.977
3064	65.0611
3048	64.8421
3032	65.0549
3016	64.986
3000	65.045
2984	65.0765
2968	64.8014
2952	64.9238
2936	64.9381
2920	64.8913
2904	64.9542
2888	65.0154
2872	64.9258
2856	64.9021
2840	64.9392
2824	64.9685
2808	64.9376
2792	64.9092
2776	64.9676
2760	64.9653
2744	64.9351
2728	64.9042
2712	64.8849
2696	64.9124
2680	64.9112
2664	64.8854
2648	64.9331
2632	64.8321
2616	64.85
2600	64.816
2584	64.8802
2568	64.7952
2552	64.855
2536	64.7377
2520	64.979
2504	64.9162
2488	64.962
2472	64.7069
2456	64.8643
2440	64.8134
2424	64.9254
2408	64.8178
2392	64.8379
2376	64.8893
2360	64.7605
2344	64.7982
2328	64.6861
2312	64.8301
2296	64.8249
2280	64.7409
2264	64.7927
2248	64.6715
2232	64.7322
2216	64.8494
2200	64.7046
2184	64.6316
2168	64.5806
2152	64.6881
2136	64.7183
2120	64.8065
2104	64.6438
2088	64.6343
2072	64.5553
2056	64.6374
2040	64.669
2024	64.469
2008	64.7192
1992	64.5794
1976	64.56
1960	64.5962
1944	64.5595
1928	64.5367
1912	64.5985
1896	64.4793
1880	64.4995
1864	64.5121
1848	64.467
1832	64.4565
1816	64.4604
1800	64.3257
1784	64.3927
1768	64.4236
1752	64.3987
1736	64.2254
1720	64.1959
1704	64.1778
1688	64.1584
1672	64.2196
1656	64.253
1640	64.2586
1624	64.226
1608	64.1757
1592	64.1523
1576	64.03
1560	64.1341
1544	64.1192
1528	64.1486
1512	64.1488
1496	64.1979
1480	64.1588
1464	64.1172
1448	64.0418
1432	64.0535
1416	64.1126
1400	64.0165
1384	63.9919
1368	64.1334
1352	63.9332
1336	63.9864
1320	63.9921
1304	63.9438
1288	63.9231
1272	63.8721
1256	63.8561
1240	63.8436
1224	63.8021
1208	63.8706
1192	63.727
1176	63.7568
1160	63.6564
1144	63.6493
1128	63.7309
1112	63.7734
1096	63.8421
1080	63.7692
1064	63.6632
1048	63.6908
1032	63.6827
1016	63.6946
1000	63.7029
984	 63.76
968	 63.6814
952	 63.5453
936	 63.706
920	 63.5931
904	 63.673
888	 63.563
872	 63.6536
856	 63.6078
840	 63.7828
824	 63.632
808	 63.4698
792	 63.5244
776	 63.448
760	 63.2912
744	 63.2932
728	 63.0323
712	 63.2817
696	 63.1722
680	 63.4397
664	 63.3126
648	 63.2939
632	 63.1109
616	 63.5303
600	 62.9981
584	 63.2181
568	 63.6265
552	 63.4178
536	 61.7679
520	 63.2531
504	 64.3077
488	 62.6077
472	 62.7754
456	 63.18
440	 63.2085
424	 65.4665
408	 54.9024
392	 56.6677
376	 70.7155
370	 82.9054