File: Bakgrunnsmateriale/MATLAB/FTIR/ftir_data/subAa/Mapping_121/BZ1503107-1_t117_cm-1.asc
PE IR       SPECTRUM    SPECTRUM    ASCII       PEDS        1.60
  -1
BZ4CFC~1.ASC
17/04/07
22:52:59.00
17/04/07
22:52:59.00
tln
$BZ1503107-1_t0117$<tbV0>[-2.6,13.0,8.0,0.0,27,1,0]
370
64

2002,4.07
MIRTGS : RIGHTBACK : INTERNAL 2
MIR : ON : INTERNAL 2
OPTKBR

0.200000
8
8.000000
FILLER
RATIO
SPECTRUM
UNLOCKED 256

DOUBLE
64
COMBINED
1
0
0

1.000000
RATIO

1
0
TRUE
51149
0
LEFT NOT FITTED RIGHT NOT FITTED 0
NONE
NONE
15600
12
4.427000
51148
TRUE
1 0 8 72 0 0 0 0

15798

#HDR
-1
-1
#GR
CM-1
%T
2.38419e-05
0.0
5000
-1.000000
4631
8
86.4435
38.889
#DATA
5000	65.3796
4984	65.7146
4968	65.0338
4952	65.4511
4936	65.2142
4920	65.5306
4904	65.1725
4888	65.2976
4872	65.3793
4856	64.8314
4840	65.2565
4824	64.6804
4808	65.0856
4792	64.7061
4776	64.7111
4760	64.9444
4744	65.0328
4728	65.1804
4712	65.0677
4696	64.7863
4680	64.634
4664	64.9581
4648	64.5034
4632	65.0034
4616	65.4611
4600	65.0975
4584	65.0623
4568	65.2551
4552	64.8171
4536	64.7284
4520	65.0603
4504	65.18
4488	64.6487
4472	64.5431
4456	65.7949
4440	60.1886
4424	85.4366
4408	66.0097
4392	65.4851
4376	65.6306
4360	65.2879
4344	64.7176
4328	64.8992
4312	64.6887
4296	64.8647
4280	64.9546
4264	65.1606
4248	64.7025
4232	64.9196
4216	65.0886
4200	64.8793
4184	64.889
4168	64.9945
4152	65.0125
4136	65.1625
4120	65.1748
4104	65.0775
4088	64.9398
4072	65.2931
4056	65.2534
4040	65.0271
4024	65.0803
4008	65.0504
3992	65.0139
3976	64.8641
3960	65.095
3944	65.2833
3928	64.8949
3912	65.0891
3896	65.0343
3880	65.1597
3864	65.1914
3848	64.8428
3832	65.2146
3816	64.8396
3800	65.0563
3784	65.0205
3768	65.1014
3752	65.0503
3736	65.0713
3720	65.2611
3704	65.1028
3688	65.157
3672	65.0554
3656	65.2439
3640	65.0994
3624	65.1252
3608	65.1971
3592	64.9356
3576	64.9275
3560	65.1271
3544	65.0442
3528	65.0703
3512	65.0894
3496	65.055
3480	65.0098
3464	64.9869
3448	64.9383
3432	65.0145
3416	65.1866
3400	64.9886
3384	64.8126
3368	64.9662
3352	65.0536
3336	64.9783
3320	64.8926
3304	64.8434
3288	64.8718
3272	65.0261
3256	64.938
3240	64.8627
3224	64.6838
3208	64.8724
3192	64.8973
3176	64.9532
3160	64.8596
3144	64.8253
3128	64.7231
3112	64.9182
3096	64.7642
3080	64.8818
3064	64.9219
3048	64.7452
3032	64.9162
3016	64.7545
3000	64.8742
2984	64.6754
2968	64.4282
2952	64.5593
2936	64.4541
2920	64.487
2904	64.4877
2888	64.8016
2872	64.5603
2856	64.6675
2840	64.6347
2824	64.7281
2808	64.8067
2792	64.5974
2776	64.6899
2760	64.6802
2744	64.7095
2728	64.677
2712	64.5976
2696	64.6374
2680	64.6917
2664	64.6389
2648	64.6526
2632	64.7051
2616	64.4893
2600	64.495
2584	64.5442
2568	64.5041
2552	64.5349
2536	64.588
2520	64.5897
2504	64.453
2488	64.4628
2472	64.4909
2456	64.5203
2440	64.4327
2424	64.3458
2408	64.3725
2392	64.3565
2376	64.4008
2360	64.3602
2344	64.4005
2328	64.3095
2312	64.2476
2296	64.2006
2280	64.2792
2264	64.2759
2248	64.2527
2232	64.096
2216	64.2745
2200	64.1894
2184	64.2271
2168	64.1923
2152	64.1438
2136	64.2067
2120	64.1791
2104	64.1019
2088	64.0704
2072	64.0718
2056	64.0787
2040	64.0238
2024	64.0493
2008	64.0444
1992	63.8469
1976	63.9321
1960	63.8055
1944	63.8685
1928	63.9043
1912	63.9208
1896	63.8117
1880	63.8431
1864	63.8272
1848	63.7837
1832	63.7487
1816	63.758
1800	63.713
1784	63.6495
1768	63.5545
1752	63.4143
1736	62.7537
1720	63.248
1704	63.4712
1688	63.6075
1672	63.5795
1656	63.5589
1640	63.4468
1624	63.3716
1608	63.2717
1592	63.3855
1576	63.3438
1560	63.3835
1544	63.3028
1528	63.2303
1512	63.2471
1496	63.2257
1480	63.1029
1464	63.2172
1448	63.0465
1432	63.0509
1416	63.1514
1400	62.9662
1384	63.0427
1368	62.9887
1352	63.0788
1336	63.0755
1320	62.8999
1304	62.9792
1288	62.8548
1272	62.8237
1256	62.5694
1240	62.6765
1224	62.7147
1208	62.7843
1192	62.6155
1176	62.3954
1160	62.4773
1144	62.5548
1128	62.6546
1112	62.5641
1096	62.6258
1080	62.6548
1064	62.4585
1048	62.5237
1032	62.2935
1016	62.3808
1000	62.3852
984	 62.4626
968	 62.3229
952	 62.3612
936	 62.3499
920	 62.3955
904	 62.2691
888	 62.3053
872	 62.2059
856	 62.3856
840	 62.1686
824	 62.2809
808	 62.2626
792	 62.1734
776	 61.9053
760	 62.0005
744	 61.8465
728	 61.9283
712	 61.6047
696	 61.5152
680	 61.7364
664	 61.5155
648	 61.569
632	 61.5453
616	 61.3949
600	 61.2839
584	 60.9398
568	 60.9441
552	 60.9457
536	 61.8145
520	 60.5598
504	 60.8833
488	 60.6676
472	 60.8841
456	 60.115
440	 58.7107
424	 60.1512
408	 62.2004
392	 53.9402
376	 44.331
370	 38.889