File: Bakgrunnsmateriale/MATLAB/FTIR/ftir_data/subAa/Mapping_121/BZ1503107-1_t106_cm-1.asc
PE IR       SPECTRUM    SPECTRUM    ASCII       PEDS        1.60
  -1
BZCB79~1.ASC
17/04/07
21:55:55.00
17/04/07
21:55:55.00
tln
$BZ1503107-1_t0106$<tbV0>[-2.6,10.4,8.0,0.0,27,1,0]
370
64

2002,4.07
MIRTGS : RIGHTBACK : INTERNAL 2
MIR : ON : INTERNAL 2
OPTKBR

0.200000
8
8.000000
FILLER
RATIO
SPECTRUM
UNLOCKED 256

DOUBLE
64
COMBINED
1
0
0

1.000000
RATIO

1
0
TRUE
51149
0
LEFT NOT FITTED RIGHT NOT FITTED 0
NONE
NONE
15600
12
4.427000
51148
TRUE
1 0 8 72 0 0 0 0

15798

#HDR
-1
-1
#GR
CM-1
%T
2.38419e-05
0.0
5000
-1.000000
4631
8
85.0374
52.6392
#DATA
5000	63.984
4984	64.7501
4968	63.8898
4952	66.5377
4936	64.4624
4920	65.3848
4904	64.937
4888	64.7868
4872	64.3778
4856	64.8359
4840	64.8282
4824	65.088
4808	65.1386
4792	65.0806
4776	64.8799
4760	65.1368
4744	64.6708
4728	64.8695
4712	65.257
4696	65.2108
4680	65.3171
4664	65.3804
4648	65.2238
4632	65.1451
4616	64.8749
4600	64.4862
4584	64.6472
4568	64.6437
4552	64.5011
4536	64.353
4520	64.3917
4504	64.7604
4488	64.1519
4472	64.3383
4456	65.9663
4440	78.6044
4424	54.2985
4408	65.1656
4392	64.9967
4376	64.6478
4360	64.835
4344	65.1641
4328	64.7661
4312	64.8898
4296	64.8295
4280	64.8374
4264	64.9112
4248	64.8628
4232	64.7665
4216	64.7865
4200	65.1824
4184	65.0824
4168	64.9835
4152	65.1982
4136	64.8583
4120	65.1027
4104	65.0623
4088	65.0862
4072	65.0929
4056	65.0078
4040	64.798
4024	64.9597
4008	64.9912
3992	64.9176
3976	65.1165
3960	64.9881
3944	64.6171
3928	64.9841
3912	64.7064
3896	64.8995
3880	65.0808
3864	65.155
3848	65.1726
3832	64.959
3816	64.9824
3800	65.0857
3784	64.9084
3768	65.0069
3752	65.0777
3736	65.3161
3720	65.2699
3704	65.0728
3688	65.0332
3672	65.0642
3656	65.0089
3640	65.1111
3624	64.8254
3608	65.0964
3592	65.1127
3576	64.8351
3560	64.8438
3544	64.9998
3528	64.8707
3512	64.9999
3496	65.0659
3480	64.924
3464	64.9521
3448	64.8087
3432	65.099
3416	65.1137
3400	65.0947
3384	64.9128
3368	64.8472
3352	65.0328
3336	64.9127
3320	64.9611
3304	64.8497
3288	65.0182
3272	64.9054
3256	65.0053
3240	64.8686
3224	64.8016
3208	64.863
3192	64.9131
3176	65.0294
3160	64.6988
3144	64.8167
3128	64.7934
3112	64.9006
3096	64.8597
3080	64.7399
3064	64.8298
3048	64.9753
3032	64.8962
3016	64.8717
3000	64.7369
2984	64.7202
2968	64.6154
2952	64.5504
2936	64.8136
2920	64.7248
2904	64.6318
2888	64.6987
2872	64.7264
2856	64.5229
2840	64.6356
2824	64.7562
2808	64.7151
2792	64.7288
2776	64.6229
2760	64.7283
2744	64.7583
2728	64.801
2712	64.7964
2696	64.6402
2680	64.5782
2664	64.6114
2648	64.7719
2632	64.6615
2616	64.5833
2600	64.5149
2584	64.6246
2568	64.5648
2552	64.7047
2536	64.5134
2520	64.5056
2504	64.5902
2488	64.6684
2472	64.558
2456	64.6452
2440	64.4326
2424	64.5822
2408	64.4867
2392	64.4384
2376	64.4512
2360	64.6274
2344	64.3727
2328	64.4334
2312	64.3989
2296	64.4801
2280	64.3789
2264	64.3951
2248	64.3426
2232	64.3908
2216	64.3011
2200	64.2437
2184	64.1888
2168	64.296
2152	64.1977
2136	64.2573
2120	64.168
2104	64.1737
2088	64.0848
2072	64.1415
2056	64.1607
2040	64.1782
2024	64.0135
2008	64.0792
1992	64.143
1976	63.9806
1960	64.1233
1944	63.9393
1928	63.9443
1912	63.9847
1896	64.0036
1880	64.0029
1864	63.9294
1848	63.8393
1832	63.9645
1816	63.9572
1800	63.9332
1784	63.7595
1768	63.8134
1752	63.6039
1736	63.4378
1720	63.6064
1704	63.6714
1688	63.7129
1672	63.5494
1656	63.698
1640	63.5584
1624	63.629
1608	63.5903
1592	63.6539
1576	63.4366
1560	63.5449
1544	63.512
1528	63.4938
1512	63.4798
1496	63.4718
1480	63.4318
1464	63.3615
1448	63.3988
1432	63.3348
1416	63.3673
1400	63.2079
1384	63.3105
1368	63.2045
1352	63.1945
1336	63.2421
1320	63.0682
1304	63.1662
1288	63.0637
1272	63.1333
1256	63.1379
1240	62.9977
1224	62.9862
1208	63.0737
1192	63.0558
1176	62.8839
1160	62.7804
1144	62.9977
1128	62.8319
1112	62.8229
1096	62.9104
1080	62.6275
1064	62.7045
1048	62.7519
1032	62.5279
1016	62.7055
1000	62.5518
984	 62.7854
968	 62.6519
952	 62.7705
936	 62.6096
920	 62.6936
904	 62.5143
888	 62.5765
872	 62.6625
856	 62.5755
840	 62.4981
824	 62.4843
808	 62.5806
792	 62.5208
776	 62.3993
760	 62.3638
744	 62.3978
728	 62.3418
712	 62.2245
696	 62.2174
680	 62.1565
664	 62.4556
648	 62.015
632	 62.3177
616	 61.8084
600	 61.9573
584	 60.9883
568	 60.9937
552	 61.6554
536	 61.8248
520	 62.2215
504	 61.6083
488	 61.8663
472	 61.3007
456	 60.8145
440	 59.812
424	 60.2897
408	 61.9324
392	 65.996
376	 63.6787
370	 64.0568