File: Bakgrunnsmateriale/MATLAB/FTIR/ftir_data/subAa/Mapping_121/BZ1503107-1_t23.asc
PE IR       SPECTRUM    SPECTRUM    ASCII       PEDS        1.60
  -1
BZ2559~1.ASC
17/04/07
15:09:50.00
17/04/07
15:10:17.00
tln
$BZ1503107-1_t0023$<tbV0>[13.0,-7.8,8.0,0.0,27,1,0]
27.028
64

2002,4.07
MIRTGS : RIGHTBACK : INTERNAL 2
MIR : ON : INTERNAL 2
OPTKBR

0.200000
8
8.000000
FILLER
RATIO
SPECTRUM
UNLOCKED 256

DOUBLE
64
COMBINED
1
0
0

0.002000
RATIO

1
0
TRUE
51149
0
LEFT NOT FITTED RIGHT NOT FITTED 0
NONE
NONE
15600
12
4.427000
51148
TRUE
1 0 8 72 0 0 0 0

15798

#HDR
-1
-1
#GR
µM
%T
2.38419e-05
0.0
2.000000
0.002000
12515
8
83.0084
54.1496
#DATA
2.000000	 64.8986
2.084000	 64.7814
2.168000	 64.9822
2.252000	 63.7199
2.336000	 65.1903
2.420000	 65.4128
2.504000	 65.1716
2.588000	 64.9869
2.672000	 65.0361
2.756000	 65.2276
2.840000	 65.1967
2.924000	 65.41
3.008000	 65.1132
3.092000	 65.2678
3.176000	 64.9899
3.260000	 65.1492
3.344000	 65.1405
3.428000	 64.9655
3.512000	 65.1372
3.596000	 64.9754
3.680000	 65.1265
3.764000	 65.0918
3.848000	 65.0532
3.932000	 64.8968
4.016000	 64.9285
4.100000	 65.0295
4.184000	 65.0758
4.268000	 65.0554
4.352000	 64.9552
4.436000	 64.9195
4.520000	 64.8219
4.604000	 64.7675
4.688000	 64.7341
4.772000	 64.8431
4.856000	 64.7909
4.940000	 64.8186
5.024000	 64.7832
5.108000	 64.7191
5.192000	 64.7228
5.276000	 64.8145
5.359999	 64.7295
5.444000	 64.696
5.528000	 64.5973
5.612000	 64.5904
5.696000	 64.5067
5.780000	 64.3128
5.864000	 64.6457
5.948000	 64.5224
6.032000	 64.5347
6.116000	 64.6233
6.200000	 64.4341
6.284000	 64.4783
6.368000	 64.4378
6.452000	 64.4636
6.536000	 64.475
6.620000	 64.5162
6.704000	 64.5851
6.788000	 64.4291
6.872000	 64.618
6.956000	 64.5221
7.040000	 64.4176
7.124000	 64.2989
7.208000	 64.3469
7.292000	 64.4074
7.376000	 64.2681
7.460000	 64.3739
7.544000	 64.2403
7.628000	 64.3252
7.712000	 64.2226
7.796000	 64.0817
7.880000	 64.1033
7.964000	 64.1199
8.048000	 64.1895
8.132000	 64.221
8.216000	 64.1766
8.300000	 64.1216
8.384000	 64.1968
8.468000	 64.1375
8.552000	 64.0512
8.635999	 64.0112
8.719999	 64.1175
8.804000	 64.0382
8.888000	 63.9765
8.972000	 64.003
9.056000	 64.2696
9.140000	 63.9183
9.224000	 64.0299
9.308000	 64.192
9.391999	 64.1165
9.475999	 64.0863
9.560000	 63.9302
9.644000	 64.071
9.728000	 64.0734
9.812000	 64.1275
9.896000	 64.0498
9.980000	 64.1139
10.064	64.249
10.148	63.9561
10.232	63.9622
10.316	64.0901
10.4	64.0454
10.484	64.2508
10.568	64.2516
10.652	64.0259
10.736	64.2578
10.82	64.2616
10.904	64.4114
10.988	64.1153
11.072	64.0304
11.156	64.0468
11.24	64.0572
11.324	64.2735
11.408	64.3856
11.492	64.053
11.576	64.1257
11.66	64.1802
11.744	64.0986
11.828	63.9433
11.912	64.1907
11.996	64.3299
12.08	64.2698
12.164	64.2882
12.248	64.1886
12.332	64.0506
12.416	63.8883
12.5	64.1096
12.584	64.3883
12.668	64.1182
12.752	64.0308
12.836	64.057
12.92	64.2
13.004	64.1235
13.088	64.0003
13.172	63.972
13.256	63.7604
13.34	63.5633
13.424	63.8181
13.508	63.9763
13.592	63.7537
13.676	63.5643
13.76	63.6541
13.844	63.9762
13.928	64.0395
14.012	63.7124
14.096	63.6025
14.18	63.8393
14.264	64.1365
14.348	64.0511
14.432	63.7267
14.516	63.437
14.6	63.0928
14.684	63.0531
14.768	63.3181
14.852	63.4256
14.936	63.4264
15.02	63.5051
15.104	63.7268
15.188	64.2361
15.272	64.6749
15.356	64.6052
15.44	64.35
15.524	64.239
15.608	64.1412
15.692	64.0092
15.776	64.0338
15.86	64.3222
15.944	64.7033
16.028	64.7594
16.112	64.2142
16.196	63.3914
16.28	62.9975
16.364	63.2402
16.448	63.5665
16.532	63.5189
16.616	63.3314
16.7	63.2904
16.784	63.2161
16.868	63.0087
16.952	62.8796
17.036	62.8558
17.12	62.7791
17.204	62.7377
17.288	62.9222
17.372	63.2742
17.456	63.615
17.54	63.8788
17.624	64.0518
17.708	64.0945
17.792	64.0255
17.876	63.9463
17.96	63.9389
18.044	63.9923
18.128	64.0107
18.212	63.9094
18.296	63.6823
18.38	63.3915
18.464	63.1638
18.548	63.1334
18.632	63.3007
18.716	63.5003
18.8	63.5734
18.884	63.5277
18.968	63.4739
19.052	63.4589
19.136	63.4417
19.22	63.4047
19.304	63.4047
19.388	63.4947
19.472	63.6513
19.556	63.7922
19.64	63.8594
19.724	63.8694
19.808	63.8777
19.892	63.9154
19.976	63.9676
20.06	64.0098
20.144	64.0297
20.228	64.0182
20.312	63.9589
20.396	63.8529
20.48	63.7497
20.564	63.7288
20.648	63.8312
20.732	64.0074
20.816	64.1388
20.9	64.1225
20.984	63.9393
21.068	63.6558
21.152	63.3664
21.236	63.1396
21.32	63.0023
21.404	62.953
21.488	62.9756
21.572	63.0399
21.656	63.1059
21.74	63.1414
21.824	63.1443
21.908	63.1463
21.992	63.1932
22.076	63.3192
22.16	63.522
22.244	63.7652
22.328	64.0004
22.412	64.1856
22.496	64.2979
22.58	64.3271
22.664	64.274
22.748	64.158
22.832	64.0175
22.916	63.9051
23	63.8609
23.084	63.8733
23.168	63.8711
23.252	63.7633
23.336	63.4794
23.42	63.0279
23.504	62.5096
23.588	62.0832
23.672	61.8851
23.756	61.9697
23.84	62.3024
23.924	62.7737
24.008	63.2571
24.092	63.6645
24.176	63.9807
24.26	64.2095
24.344	64.3372
24.428	64.3136
24.512	64.0465
24.596	63.438
24.68	62.4758
24.764	61.3101
24.848	60.2057
24.932	59.4991
25.016	59.4405
25.1	60.0847
25.184	61.2211
25.268	62.4357
25.352	63.2823
25.436	63.4165
25.52	62.786
25.604	61.6602
25.688	60.6366
25.772	60.4334
25.856	61.5693
25.94	64.1774
26.024	67.8401
26.108	71.6398
26.192	74.5562
26.276	75.7737
26.36	74.9312
26.444	72.1712
26.528	68.0695
26.612	63.4103
26.696	59.0713
26.78	55.8171
26.864	54.2452
26.948	54.6091
27.028	56.4813