File: Bakgrunnsmateriale/MATLAB/FTIR/ftir_data/subAa/Mapping_121/BZ1503107-1_t30_cm-1.asc
PE IR       SPECTRUM    SPECTRUM    ASCII       PEDS        1.60
  -1
BZ68A4~1.ASC
17/04/07
15:42:11.00
17/04/07
15:42:11.00
tln
$BZ1503107-1_t0030$<tbV0>[-5.2,-7.8,8.0,0.0,27,1,0]
370
64

2002,4.07
MIRTGS : RIGHTBACK : INTERNAL 2
MIR : ON : INTERNAL 2
OPTKBR

0.200000
8
8.000000
FILLER
RATIO
SPECTRUM
UNLOCKED 256

DOUBLE
64
COMBINED
1
0
0

1.000000
RATIO

1
0
TRUE
51149
0
LEFT NOT FITTED RIGHT NOT FITTED 0
NONE
NONE
15600
12
4.427000
51148
TRUE
1 0 8 72 0 0 0 0

15798

#HDR
-1
-1
#GR
CM-1
%T
2.38419e-05
0.0
5000
-1.000000
4631
8
76.5669
43.9576
#DATA
5000	64.9832
4984	64.9768
4968	64.111
4952	64.1131
4936	64.228
4920	64.2686
4904	64.3044
4888	64.0831
4872	64.7419
4856	64.5002
4840	64.3266
4824	64.7849
4808	64.4843
4792	64.4701
4776	64.886
4760	64.7578
4744	64.4584
4728	64.4436
4712	65.4303
4696	64.9576
4680	64.3166
4664	64.5965
4648	64.7103
4632	64.5649
4616	64.6069
4600	64.6682
4584	64.2765
4568	64.4128
4552	64.2331
4536	64.4932
4520	64.1957
4504	64.0807
4488	63.6777
4472	63.5431
4456	64.7662
4440	66.1046
4424	76.5669
4408	62.1247
4392	64.0717
4376	65.0966
4360	64.2331
4344	64.1015
4328	64.2527
4312	64.3872
4296	64.8573
4280	64.4537
4264	64.4601
4248	64.3581
4232	64.8184
4216	64.585
4200	65.1109
4184	64.726
4168	65.0444
4152	64.8244
4136	64.8914
4120	64.611
4104	64.8004
4088	64.9666
4072	64.7624
4056	64.7598
4040	64.6412
4024	64.585
4008	64.9062
3992	65.2128
3976	64.7402
3960	64.6032
3944	64.5886
3928	64.9145
3912	64.8659
3896	64.8896
3880	64.6509
3864	64.7698
3848	64.7885
3832	64.7152
3816	64.8898
3800	64.9248
3784	64.7916
3768	64.9214
3752	64.8417
3736	64.9171
3720	65.0833
3704	64.968
3688	65.0178
3672	65.0742
3656	64.9676
3640	64.8919
3624	64.9122
3608	65.1719
3592	65.0187
3576	64.6933
3560	64.8683
3544	64.8239
3528	64.6648
3512	65.1051
3496	65.0495
3480	64.8689
3464	64.7665
3448	64.8365
3432	64.6219
3416	65.0052
3400	64.911
3384	65.0384
3368	64.9211
3352	64.962
3336	64.9354
3320	64.8177
3304	64.8003
3288	64.8107
3272	64.8427
3256	64.7684
3240	64.8775
3224	64.6355
3208	64.9377
3192	64.6271
3176	64.7887
3160	64.8845
3144	64.7103
3128	64.9036
3112	64.6307
3096	64.8354
3080	65.0173
3064	64.9536
3048	64.8564
3032	64.8882
3016	64.8152
3000	64.9227
2984	64.7396
2968	64.5959
2952	64.8375
2936	64.7267
2920	64.7044
2904	64.7836
2888	64.8246
2872	64.6875
2856	64.9258
2840	64.6918
2824	64.7756
2808	64.9166
2792	64.9423
2776	64.8496
2760	64.9115
2744	64.8875
2728	64.8504
2712	64.8737
2696	64.8361
2680	64.8332
2664	64.6888
2648	64.8622
2632	64.8904
2616	64.7154
2600	64.7481
2584	64.6739
2568	64.7249
2552	64.7309
2536	64.8797
2520	64.7152
2504	64.8441
2488	64.6313
2472	64.8442
2456	64.624
2440	64.7386
2424	64.7418
2408	64.828
2392	64.8542
2376	64.5965
2360	64.6955
2344	64.7796
2328	64.7183
2312	64.7547
2296	64.6016
2280	64.7677
2264	64.7246
2248	64.638
2232	64.7373
2216	64.5916
2200	64.7017
2184	64.6872
2168	64.7042
2152	64.5802
2136	64.5812
2120	64.7031
2104	64.5589
2088	64.6707
2072	64.6777
2056	64.6226
2040	64.5613
2024	64.7091
2008	64.631
1992	64.6456
1976	64.6251
1960	64.6479
1944	64.5819
1928	64.5679
1912	64.5211
1896	64.4657
1880	64.4851
1864	64.5184
1848	64.5109
1832	64.4773
1816	64.505
1800	64.4718
1784	64.5091
1768	64.3599
1752	64.2482
1736	63.8035
1720	64.0657
1704	64.3187
1688	64.374
1672	64.3883
1656	64.2761
1640	64.2274
1624	64.2918
1608	64.2927
1592	64.2565
1576	64.1139
1560	64.3529
1544	64.2591
1528	64.2563
1512	64.3184
1496	64.29
1480	64.2407
1464	64.0672
1448	64.1192
1432	64.2915
1416	64.2611
1400	64.1352
1384	64.0768
1368	64.1187
1352	64.0759
1336	64.0353
1320	64.1473
1304	64.0812
1288	64.0291
1272	64.0796
1256	63.9703
1240	64.047
1224	64.0106
1208	63.9167
1192	63.8093
1176	63.8729
1160	63.7948
1144	63.9102
1128	63.8948
1112	63.8949
1096	63.7686
1080	63.9214
1064	63.9561
1048	63.9415
1032	63.8707
1016	64.0954
1000	63.981
984	 63.7831
968	 63.8149
952	 64.1348
936	 64.006
920	 64.099
904	 63.9565
888	 63.8352
872	 63.9596
856	 63.9419
840	 63.9598
824	 63.5643
808	 63.8054
792	 63.8794
776	 63.7781
760	 64.0232
744	 63.427
728	 64.4319
712	 63.19
696	 63.7964
680	 63.4698
664	 63.8253
648	 62.9984
632	 64.0162
616	 63.22
600	 64.0927
584	 63.3174
568	 63.5519
552	 64.0111
536	 63.5621
520	 63.7444
504	 63.4502
488	 63.3543
472	 63.6481
456	 62.7309
440	 61.7964
424	 63.357
408	 61.0432
392	 51.6847
376	 74.0966
370	 43.9576