File: Bakgrunnsmateriale/MATLAB/FTIR/ftir_data/subAa/Mapping_121/BZ1503107-1_e125_cm-1.asc
PE IR       SPECTRUM    SPECTRUM    ASCII       PEDS        1.60
  -1
BZ09FB~1.ASC
17/04/07
18:42:25.00
17/04/07
18:42:25.00
tln
$BZ1503107-1_e0125$<ebV0>[-23.3,12.1,10.0,0.0,27,1,0]
370
64

2002,4.07
MIRTGS : RIGHTBACK : INTERNAL 2
MIR : ON : INTERNAL 2
OPTKBR

0.200000
8
8.000000
FILLER
SINGLE
SPECTRUM
UNLOCKED 256

DOUBLE

COMBINED
1
0
0

1.000000
BACKG

1
0
TRUE
51149
0
LEFT NOT FITTED RIGHT NOT FITTED 0
NONE
NONE
15600
12
4.427000
51148
TRUE
1 0 8 72 0 0 0 0

15798

#HDR
-1
-1
#GR
CM-1
EGY
2.38419e-05
0.0
5000
-1.000000
4631
8
2.468705
0.006961
#DATA
5000	0.774884
4984	0.783467
4968	0.795269
4952	0.799536
4936	0.806665
4920	0.812554
4904	0.817012
4888	0.822472
4872	0.830149
4856	0.841546
4840	0.852131
4824	0.863766
4808	0.873827
4792	0.883364
4776	0.893902
4760	0.901007
4744	0.906372
4728	0.911569
4712	0.915718
4696	0.916457
4680	0.923395
4664	0.923371
4648	0.928878
4632	0.931406
4616	0.937461
4600	0.948715
4584	0.958919
4568	0.970315
4552	0.984573
4536	0.992298
4520	1.001453
4504	1.007056
4488	1.008105
4472	1.018452
4456	1.020598
4440	1.008605
4424	1.056742
4408	1.009750
4392	1.056098
4376	1.055908
4360	1.057267
4344	1.075363
4328	1.096343
4312	1.114535
4296	1.132321
4280	1.151585
4264	1.166939
4248	1.179432
4232	1.192021
4216	1.199769
4200	1.205110
4184	1.215219
4168	1.221203
4152	1.231431
4136	1.245212
4120	1.253795
4104	1.270914
4088	1.292252
4072	1.315259
4056	1.336264
4040	1.357889
4024	1.378130
4008	1.392745
3992	1.410746
3976	1.419115
3960	1.427912
3944	1.430678
3928	1.440238
3912	1.441001
3896	1.442027
3880	1.453685
3864	1.459789
3848	1.478099
3832	1.496529
3816	1.510381
3800	1.526021
3784	1.549696
3768	1.566767
3752	1.562404
3736	1.569223
3720	1.586961
3704	1.586437
3688	1.582193
3672	1.575040
3656	1.584529
3640	1.591157
3624	1.592421
3608	1.596784
3592	1.607584
3576	1.620554
3560	1.628327
3544	1.635718
3528	1.635217
3512	1.640033
3496	1.635980
3480	1.627182
3464	1.617527
3448	1.604819
3432	1.600289
3416	1.600146
3400	1.610422
3384	1.620817
3368	1.633501
3352	1.657772
3336	1.681518
3320	1.706552
3304	1.728820
3288	1.753020
3272	1.770353
3256	1.784729
3240	1.794600
3224	1.797914
3208	1.801395
3192	1.803493
3176	1.808667
3160	1.815986
3144	1.827049
3128	1.849913
3112	1.868247
3096	1.899433
3080	1.929855
3064	1.947355
3048	1.977682
3032	1.993322
3016	1.978445
3000	2.038931
2984	2.039718
2968	1.972341
2952	1.935386
2936	1.826381
2920	1.814413
2904	1.957893
2888	2.008700
2872	1.995754
2856	1.939201
2840	2.083373
2824	2.144002
2808	2.178955
2792	2.209734
2776	2.238059
2760	2.254962
2744	2.267003
2728	2.268767
2712	2.264165
2696	2.256464
2680	2.244997
2664	2.237796
2648	2.230405
2632	2.230286
2616	2.232289
2600	2.239251
2584	2.252912
2568	2.277565
2552	2.299833
2536	2.316737
2520	2.329564
2504	2.337241
2488	2.337527
2472	2.329897
2456	2.314758
2440	2.299928
2424	2.281856
2408	2.268934
2392	2.263116
2376	2.252078
2360	2.247095
2344	2.274394
2328	2.294039
2312	2.327513
2296	2.357888
2280	2.373647
2264	2.384257
2248	2.391099
2232	2.389430
2216	2.381086
2200	2.370619
2184	2.355146
2168	2.346706
2152	2.342724
2136	2.342844
2120	2.346563
2104	2.347707
2088	2.348875
2072	2.367401
2056	2.402257
2040	2.433872
2024	2.451777
2008	2.464342
1992	2.467989
1976	2.454805
1960	2.439260
1944	2.426791
1928	2.413034
1912	2.393889
1896	2.381706
1880	2.383446
1864	2.391767
1848	2.401018
1832	2.416968
1816	2.432656
1800	2.438902
1784	2.438354
1768	2.419066
1752	2.395820
1736	2.336406
1720	2.317333
1704	2.282786
1688	2.256250
1672	2.235102
1656	2.187728
1640	2.162241
1624	2.108883
1608	1.979875
1592	2.023959
1576	1.990771
1560	1.938080
1544	1.962518
1528	2.113890
1512	2.094841
1496	1.709103
1480	1.963806
1464	1.942253
1448	1.787257
1432	1.872253
1416	1.847147
1400	1.735877
1384	1.789665
1368	1.820540
1352	1.820158
1336	1.828217
1320	1.854944
1304	1.858139
1288	1.858615
1272	1.809906
1256	1.760125
1240	1.839017
1224	1.815462
1208	1.751351
1192	1.742291
1176	1.702332
1160	1.632189
1144	1.598954
1128	1.542997
1112	1.459383
1096	1.427221
1080	1.429462
1064	1.435995
1048	1.306891
1032	1.380276
1016	1.369023
1000	1.400184
984	 1.383066
968	 1.344680
952	 1.288342
936	 1.253724
920	 1.216411
904	 1.162624
888	 1.119875
872	 1.035737
856	 1.094508
840	 1.060461
824	 0.845408
808	 0.950551
792	 0.962781
776	 0.976729
760	 0.966286
744	 0.943970
728	 0.905799
712	 0.856804
696	 0.793528
680	 0.730323
664	 0.709271
648	 0.668478
632	 0.627303
616	 0.576424
600	 0.521874
584	 0.509977
568	 0.491690
552	 0.465536
536	 0.437426
520	 0.399160
504	 0.361514
488	 0.303816
472	 0.252723
456	 0.196361
440	 0.150132
424	 0.098395
408	 0.055003
392	 0.027084
376	 0.011301
370	 0.006961