File: Bakgrunnsmateriale/MATLAB/FTIR/ftir_data/subAa/Mapping_121/BZ1503107-1_t08_cm-1.asc
PE IR       SPECTRUM    SPECTRUM    ASCII       PEDS        1.60
  -1
BZ6032~1.ASC
17/04/07
13:52:49.00
17/04/07
13:52:49.00
tln
$BZ1503107-1_t0008$<tbV0>[-5.2,-13.0,8.0,0.0,27,1,0]
370
64

2002,4.07
MIRTGS : RIGHTBACK : INTERNAL 2
MIR : ON : INTERNAL 2
OPTKBR

0.200000
8
8.000000
FILLER
RATIO
SPECTRUM
UNLOCKED 256

DOUBLE
64
COMBINED
1
0
0

1.000000
RATIO

1
0
TRUE
51149
0
LEFT NOT FITTED RIGHT NOT FITTED 0
NONE
NONE
15600
12
4.427000
51148
TRUE
1 0 8 72 0 0 0 0

15798

#HDR
-1
-1
#GR
CM-1
%T
2.38419e-05
0.0
5000
-1.000000
4631
8
85.573
44.0665
#DATA
5000	61.9254
4984	63.9917
4968	62.5059
4952	62.9741
4936	63.0022
4920	62.2161
4904	63.0948
4888	63.1348
4872	62.6981
4856	63.7542
4840	63.4962
4824	63.2048
4808	63.1689
4792	63.8677
4776	63.0831
4760	63.7372
4744	63.2404
4728	63.372
4712	62.9553
4696	62.8103
4680	63.1214
4664	63.1592
4648	63.0615
4632	62.7372
4616	62.5975
4600	62.9096
4584	62.8822
4568	62.8297
4552	62.1122
4536	62.8437
4520	61.6351
4504	63.1778
4488	65.9159
4472	62.682
4456	56.4815
4440	76.4361
4424	63.7935
4408	63.6329
4392	62.6527
4376	62.76
4360	62.9105
4344	62.8477
4328	62.8115
4312	63.0313
4296	63.1292
4280	62.9841
4264	63.0869
4248	63.1073
4232	63.3643
4216	63.337
4200	63.4126
4184	63.3102
4168	63.4717
4152	63.5214
4136	63.5517
4120	63.768
4104	63.9307
4088	63.728
4072	63.8082
4056	63.7989
4040	63.7418
4024	63.4546
4008	63.4384
3992	63.4027
3976	63.5138
3960	63.63
3944	63.5698
3928	63.3573
3912	63.5889
3896	63.5549
3880	63.3603
3864	63.3368
3848	63.631
3832	63.7791
3816	63.63
3800	63.6451
3784	63.6712
3768	63.7763
3752	63.9797
3736	63.7742
3720	63.8003
3704	63.9098
3688	63.8318
3672	64.1715
3656	63.8698
3640	63.9361
3624	63.8969
3608	63.901
3592	63.6878
3576	63.7368
3560	63.6911
3544	63.7206
3528	63.4962
3512	63.6863
3496	63.8628
3480	63.7295
3464	63.545
3448	63.6765
3432	63.7509
3416	63.7489
3400	63.7077
3384	63.7316
3368	63.7858
3352	63.5854
3336	63.9228
3320	63.6914
3304	63.7908
3288	63.7942
3272	63.8049
3256	63.8172
3240	63.732
3224	63.7388
3208	63.9965
3192	63.9259
3176	63.7406
3160	63.919
3144	63.8341
3128	63.7204
3112	63.6821
3096	63.9018
3080	63.8652
3064	63.8828
3048	63.8465
3032	63.943
3016	64.1401
3000	63.8077
2984	63.7703
2968	63.7563
2952	63.6122
2936	63.8075
2920	63.6473
2904	63.6584
2888	63.905
2872	63.8901
2856	63.746
2840	63.9337
2824	63.9319
2808	63.8761
2792	63.8726
2776	63.9415
2760	63.9711
2744	63.938
2728	64.0278
2712	63.967
2696	64.0461
2680	63.9621
2664	63.8892
2648	63.9306
2632	63.9651
2616	64.0448
2600	63.9966
2584	64.0824
2568	64.0439
2552	64.0322
2536	64.0384
2520	64.0555
2504	63.9112
2488	64.0674
2472	64.0224
2456	64.0718
2440	64.0141
2424	63.9186
2408	63.9742
2392	64.0116
2376	64.1161
2360	64.0327
2344	64.063
2328	64.1369
2312	64.0738
2296	64.0352
2280	63.9038
2264	64.044
2248	64.1481
2232	64.084
2216	63.9961
2200	64.0872
2184	64.0642
2168	64.1469
2152	63.9198
2136	64.0619
2120	64.0922
2104	64.1275
2088	64.1654
2072	64.0774
2056	64.1103
2040	64.0954
2024	64.0443
2008	64.2824
1992	64.1224
1976	64.1584
1960	64.2346
1944	64.0722
1928	64.0262
1912	64.195
1896	64.1362
1880	64.0603
1864	64.132
1848	64.1731
1832	64.1097
1816	64.1778
1800	64.1554
1784	64.0456
1768	64.2523
1752	63.9688
1736	63.8727
1720	63.9938
1704	64.0395
1688	63.9201
1672	64.0884
1656	64.0721
1640	63.8769
1624	64.0248
1608	63.9671
1592	64.0661
1576	64.0634
1560	64.034
1544	64.0698
1528	63.9714
1512	64.1379
1496	64.2351
1480	64.0412
1464	64.006
1448	63.8751
1432	64.0819
1416	63.9776
1400	63.8783
1384	63.7893
1368	63.9143
1352	64.0344
1336	64.0701
1320	63.9133
1304	63.8113
1288	63.8808
1272	63.7618
1256	63.6901
1240	63.6318
1224	63.7025
1208	63.6951
1192	63.7128
1176	63.7189
1160	63.5872
1144	63.7683
1128	63.8071
1112	64.0124
1096	63.962
1080	63.9923
1064	63.7819
1048	63.8783
1032	63.8631
1016	63.8515
1000	63.7312
984	 63.8566
968	 63.8174
952	 64.0248
936	 64.1327
920	 63.9658
904	 63.9779
888	 63.7269
872	 64.0607
856	 63.8515
840	 64.1203
824	 63.7413
808	 63.8808
792	 63.8004
776	 64.0296
760	 63.8105
744	 63.8577
728	 63.9635
712	 63.9769
696	 63.8289
680	 63.4241
664	 63.8688
648	 63.7163
632	 63.7547
616	 63.8536
600	 63.8433
584	 63.8971
568	 63.6649
552	 64.472
536	 64.9316
520	 62.0957
504	 64.2021
488	 64.0069
472	 64.0703
456	 64.647
440	 63.6006
424	 66.2527
408	 65.1427
392	 60.1144
376	 60.2453
370	 85.573