File: Bakgrunnsmateriale/MATLAB/FTIR/ftir_data/subAa/Mapping_121/BZ1503107-1_t72.asc
PE IR       SPECTRUM    SPECTRUM    ASCII       PEDS        1.60
  -1
BZ215F~1.ASC
17/04/07
19:11:09.00
17/04/07
19:11:35.00
tln
$BZ1503107-1_t0072$<tbV0>[0.0,2.6,8.0,0.0,27,1,0]
27.028
64

2002,4.07
MIRTGS : RIGHTBACK : INTERNAL 2
MIR : ON : INTERNAL 2
OPTKBR

0.200000
8
8.000000
FILLER
RATIO
SPECTRUM
UNLOCKED 256

DOUBLE
64
COMBINED
1
0
0

0.002000
RATIO

1
0
TRUE
51149
0
LEFT NOT FITTED RIGHT NOT FITTED 0
NONE
NONE
15600
12
4.427000
51148
TRUE
1 0 8 72 0 0 0 0

15798

#HDR
-1
-1
#GR
µM
%T
2.38419e-05
0.0
2.000000
0.002000
12515
8
73.2549
51.2085
#DATA
2.000000	 64.8177
2.084000	 64.2922
2.168000	 64.8737
2.252000	 65.383
2.336000	 64.7195
2.420000	 64.5284
2.504000	 64.679
2.588000	 64.9973
2.672000	 64.8305
2.756000	 64.8516
2.840000	 64.9773
2.924000	 64.7879
3.008000	 64.8091
3.092000	 64.9545
3.176000	 64.8277
3.260000	 64.8534
3.344000	 64.6684
3.428000	 64.6959
3.512000	 64.6544
3.596000	 64.7005
3.680000	 64.7106
3.764000	 64.5485
3.848000	 64.5452
3.932000	 64.6092
4.016000	 64.5164
4.100000	 64.5837
4.184000	 64.3904
4.268000	 64.505
4.352000	 64.341
4.436000	 64.4151
4.520000	 64.3818
4.604000	 64.1354
4.688000	 64.3089
4.772000	 64.2984
4.856000	 64.2556
4.940000	 64.1652
5.024000	 64.1129
5.108000	 64.2763
5.192000	 64.2146
5.276000	 64.0706
5.359999	 64.1174
5.444000	 63.9739
5.528000	 64.0751
5.612000	 63.9979
5.696000	 63.9763
5.780000	 63.8876
5.864000	 63.8902
5.948000	 63.7501
6.032000	 63.8001
6.116000	 63.675
6.200000	 63.9174
6.284000	 63.7128
6.368000	 63.786
6.452000	 63.6558
6.536000	 63.7492
6.620000	 63.8206
6.704000	 63.6912
6.788000	 63.6445
6.872000	 63.7259
6.956000	 63.6167
7.040000	 63.6644
7.124000	 63.5408
7.208000	 63.5856
7.292000	 63.4879
7.376000	 63.5229
7.460000	 63.5764
7.544000	 63.6686
7.628000	 63.5445
7.712000	 63.4868
7.796000	 63.5369
7.880000	 63.4804
7.964000	 63.391
8.048000	 63.3866
8.132000	 63.4619
8.216000	 63.3925
8.300000	 63.4267
8.384000	 63.3366
8.468000	 63.3583
8.552000	 63.2328
8.635999	 63.2183
8.719999	 63.272
8.804000	 63.4283
8.888000	 63.2953
8.972000	 63.2676
9.056000	 63.1451
9.140000	 63.1442
9.224000	 63.2735
9.308000	 63.0981
9.391999	 63.2228
9.475999	 63.1621
9.560000	 63.1146
9.644000	 63.1064
9.728000	 63.2929
9.812000	 63.0678
9.896000	 63.1531
9.980000	 63.1438
10.064	63.0426
10.148	63.3343
10.232	63.2466
10.316	63.0663
10.4	63.2962
10.484	63.1769
10.568	62.898
10.652	63.2286
10.736	63.2845
10.82	63.1885
10.904	63.0479
10.988	63.0454
11.072	63.0672
11.156	63.0882
11.24	63.0964
11.324	62.9136
11.408	63.1696
11.492	63.3724
11.576	63.1579
11.66	63.1526
11.744	63.1302
11.828	63.1416
11.912	63.2829
11.996	63.308
12.08	63.1674
12.164	63.5056
12.248	63.5785
12.332	63.4475
12.416	63.3022
12.5	63.2116
12.584	63.1011
12.668	63.0027
12.752	62.9777
12.836	63.0725
12.92	63.0004
13.004	62.7252
13.088	62.6379
13.172	62.4743
13.256	62.2764
13.34	62.0908
13.424	62.2908
13.508	62.4841
13.592	62.4484
13.676	62.5437
13.76	62.664
13.844	62.6648
13.928	62.4318
14.012	62.212
14.096	62.2556
14.18	62.6771
14.264	63.2998
14.348	63.2413
14.432	63.0953
14.516	63.6035
14.6	63.838
14.684	63.6582
14.768	63.4644
14.852	63.1383
14.936	62.727
15.02	62.463
15.104	62.6188
15.188	62.8383
15.272	62.6359
15.356	62.331
15.44	62.2582
15.524	62.2528
15.608	62.0721
15.692	61.7969
15.776	61.8443
15.86	62.2543
15.944	62.5521
16.028	62.5676
16.112	62.566
16.196	62.7114
16.28	62.9327
16.364	63.0473
16.448	62.9247
16.532	62.664
16.616	62.4242
16.7	62.2018
16.784	61.9779
16.868	61.817
16.952	61.7675
17.036	61.8543
17.12	62.087
17.204	62.3814
17.288	62.6143
17.372	62.7535
17.456	62.8413
17.54	62.9084
17.624	62.9364
17.708	62.8993
17.792	62.812
17.876	62.7236
17.96	62.6751
18.044	62.6488
18.128	62.5653
18.212	62.4023
18.296	62.262
18.38	62.2536
18.464	62.3422
18.548	62.4032
18.632	62.4065
18.716	62.4382
18.8	62.5644
18.884	62.7617
18.968	62.9511
19.052	63.0343
19.136	62.9574
19.22	62.771
19.304	62.594
19.388	62.4938
19.472	62.4305
19.556	62.3307
19.64	62.1906
19.724	62.0754
19.808	62.0321
19.892	62.0622
19.976	62.1499
20.06	62.2924
20.144	62.4837
20.228	62.6825
20.312	62.8053
20.396	62.7789
20.48	62.6124
20.564	62.4056
20.648	62.2638
20.732	62.2102
20.816	62.1719
20.9	62.062
20.984	61.8715
21.068	61.6822
21.152	61.5989
21.236	61.675
21.32	61.8935
21.404	62.1938
21.488	62.5001
21.572	62.7346
21.656	62.8455
21.74	62.8341
21.824	62.7608
21.908	62.7165
21.992	62.7605
22.076	62.88
22.16	63.0016
22.244	63.0488
22.328	63.0012
22.412	62.9087
22.496	62.8601
22.58	62.9153
22.664	63.066
22.748	63.2249
22.832	63.2796
22.916	63.1491
23	62.8486
23.084	62.4775
23.168	62.199
23.252	62.1456
23.336	62.3509
23.42	62.7182
23.504	63.0708
23.588	63.2404
23.672	63.1504
23.756	62.8459
23.84	62.4413
23.924	62.0501
24.008	61.7258
24.092	61.4575
24.176	61.2108
24.26	60.9861
24.344	60.8131
24.428	60.7035
24.512	60.602
24.596	60.3966
24.68	59.9544
24.764	59.1944
24.848	58.1742
24.932	57.1156
25.016	56.3147
25.1	55.9749
25.184	56.1592
25.268	56.7449
25.352	57.4755
25.436	58.1049
25.52	58.5123
25.604	58.711
25.688	58.7632
25.772	58.686
25.856	58.4117
25.94	57.7752
26.024	56.6722
26.108	55.2298
26.192	53.7957
26.276	52.8603
26.36	52.9334
26.444	54.2964
26.528	56.8063
26.612	59.9208
26.696	62.7237
26.78	64.1654
26.864	63.4309
26.948	60.2283
27.028	55.2502