File: Bakgrunnsmateriale/MATLAB/FTIR/ftir_data/subAa/Mapping_121/BZ1503107-1_e126.asc
PE IR       SPECTRUM    SPECTRUM    ASCII       PEDS        1.60
  -1
BZE0AA~1.ASC
17/04/07
20:31:16.00
17/04/07
20:31:42.00
tln
$BZ1503107-1_e0126$<ebV0>[-23.3,12.1,10.0,0.0,27,1,0]
27.028
64

2002,4.07
MIRTGS : RIGHTBACK : INTERNAL 2
MIR : ON : INTERNAL 2
OPTKBR

0.200000
8
8.000000
FILLER
SINGLE
SPECTRUM
UNLOCKED 256

DOUBLE

COMBINED
1
0
0

0.002000
BACKG

1
0
TRUE
51149
0
LEFT NOT FITTED RIGHT NOT FITTED 0
NONE
NONE
15600
12
4.427000
51148
TRUE
1 0 8 72 0 0 0 0

15798

#HDR
-1
-1
#GR
µM
EGY
2.38419e-05
0.0
2.000000
0.002000
12515
8
2.464176
0.007677
#DATA
2.000000	 0.780081
2.084000	 0.874826
2.168000	 0.940932
2.252000	 0.807501
2.336000	 1.151888
2.420000	 1.241547
2.504000	 1.405614
2.588000	 1.461494
2.672000	 1.563505
2.756000	 1.585987
2.840000	 1.639354
2.924000	 1.596716
3.008000	 1.700198
3.092000	 1.793740
3.176000	 1.826629
3.260000	 1.946520
3.344000	 2.044258
3.428000	 1.846040
3.512000	 2.026163
3.596000	 2.226789
3.680000	 2.264387
3.764000	 2.231237
3.848000	 2.238090
3.932000	 2.307250
4.016000	 2.334620
4.100000	 2.297118
4.184000	 2.257827
4.268000	 2.272644
4.352000	 2.349490
4.436000	 2.386136
4.520000	 2.376948
4.604000	 2.346246
4.688000	 2.341113
4.772000	 2.345426
4.856000	 2.389157
4.940000	 2.450691
5.024000	 2.459743
5.108000	 2.434771
5.192000	 2.410680
5.276000	 2.376008
5.359999	 2.386191
5.444000	 2.410298
5.528000	 2.434646
5.612000	 2.435915
5.696000	 2.404883
5.780000	 2.329207
5.864000	 2.286591
5.948000	 2.244644
6.032000	 2.194172
6.116000	 2.143377
6.200000	 2.010297
6.284000	 2.018260
6.368000	 1.982128
6.452000	 1.963007
6.536000	 2.102546
6.620000	 2.087260
6.704000	 1.690333
6.788000	 1.975064
6.872000	 1.796204
6.956000	 1.866431
7.040000	 1.859154
7.124000	 1.727721
7.208000	 1.790643
7.292000	 1.817938
7.376000	 1.820096
7.460000	 1.819049
7.544000	 1.850408
7.628000	 1.856264
7.712000	 1.857988
7.796000	 1.854574
7.880000	 1.777056
7.964000	 1.762909
8.048000	 1.835292
8.132000	 1.827784
8.216000	 1.785451
8.300000	 1.746451
8.384000	 1.741933
8.468000	 1.715082
8.552000	 1.675867
8.635999	 1.623780
8.719999	 1.603671
8.804000	 1.574281
8.888000	 1.527057
8.972000	 1.472098
9.056000	 1.433982
9.140000	 1.424022
9.224000	 1.431616
9.308000	 1.431719
9.391999	 1.437889
9.475999	 1.360363
9.560000	 1.326545
9.644000	 1.385005
9.728000	 1.369744
9.812000	 1.362876
9.896000	 1.383617
9.980000	 1.401491
10.064	1.399335
10.148	1.384940
10.232	1.368839
10.316	1.348168
10.4	1.321464
10.484	1.293863
10.568	1.273197
10.652	1.257026
10.736	1.241606
10.82	1.224571
10.904	1.206986
10.988	1.178578
11.072	1.162148
11.156	1.153093
11.24	1.131896
11.324	1.079294
11.408	1.033571
11.492	1.047992
11.576	1.083839
11.66	1.094542
11.744	1.088585
11.828	1.078956
11.912	1.058663
11.996	0.993853
12.08	0.883774
12.164	0.852252
12.248	0.913443
12.332	0.946280
12.416	0.947333
12.5	0.946927
12.584	0.953340
12.668	0.965891
12.752	0.976105
12.836	0.979872
12.92	0.977797
13.004	0.973171
13.088	0.968628
13.172	0.964041
13.256	0.958590
13.34	0.951179
13.424	0.942268
13.508	0.932926
13.592	0.922428
13.676	0.910291
13.76	0.897828
13.844	0.886056
13.928	0.874316
14.012	0.862607
14.096	0.849973
14.18	0.835911
14.264	0.819941
14.348	0.799010
14.432	0.769151
14.516	0.739908
14.6	0.730020
14.684	0.734765
14.768	0.735410
14.852	0.728192
14.936	0.718946
15.02	0.710843
15.104	0.703117
15.188	0.694971
15.272	0.685939
15.356	0.675403
15.44	0.664366
15.524	0.654329
15.608	0.645153
15.692	0.636079
15.776	0.626946
15.86	0.618449
15.944	0.610946
16.028	0.603678
16.112	0.595442
16.196	0.585128
16.28	0.571508
16.364	0.553992
16.448	0.536593
16.532	0.526134
16.616	0.523673
16.7	0.523673
16.784	0.521832
16.868	0.518352
16.952	0.514549
17.036	0.511208
17.12	0.508409
17.204	0.505943
17.288	0.503265
17.372	0.500308
17.456	0.497136
17.54	0.493712
17.624	0.490148
17.708	0.486610
17.792	0.482873
17.876	0.478573
17.96	0.473637
18.044	0.468420
18.128	0.463362
18.212	0.458907
18.296	0.455353
18.38	0.452634
18.464	0.450145
18.548	0.446689
18.632	0.441428
18.716	0.434808
18.8	0.428291
18.884	0.422827
18.968	0.418050
19.052	0.412553
19.136	0.405923
19.22	0.399124
19.304	0.393592
19.388	0.389300
19.472	0.384948
19.556	0.379543
19.64	0.373178
19.724	0.367203
19.808	0.362562
19.892	0.359151
19.976	0.355644
20.06	0.350471
20.144	0.342652
20.228	0.332377
20.312	0.321050
20.396	0.310394
20.48	0.301569
20.564	0.294836
20.648	0.289378
20.732	0.284056
20.816	0.278025
20.9	0.271287
20.984	0.264404
21.068	0.258181
21.152	0.253050
21.236	0.248785
21.32	0.244764
21.404	0.240095
21.488	0.234333
21.572	0.227449
21.656	0.219939
21.74	0.212233
21.824	0.204767
21.908	0.197700
21.992	0.191217
22.076	0.185501
22.16	0.180613
22.244	0.176488
22.328	0.172782
22.412	0.169076
22.496	0.164953
22.58	0.160307
22.664	0.155207
22.748	0.149805
22.832	0.144324
22.916	0.138831
23	0.133460
23.084	0.128331
23.168	0.123442
23.252	0.118797
23.336	0.114224
23.42	0.109435
23.504	0.104348
23.588	0.098831
23.672	0.093157
23.756	0.087616
23.84	0.082539
23.924	0.078150
24.008	0.074469
24.092	0.071321
24.176	0.068510
24.26	0.065788
24.344	0.062941
24.428	0.059862
24.512	0.056535
24.596	0.053096
24.68	0.049622
24.764	0.046317
24.848	0.043295
24.932	0.040583
25.016	0.038159
25.1	0.036016
25.184	0.034017
25.268	0.032108
25.352	0.030301
25.436	0.028477
25.52	0.026688
25.604	0.024933
25.688	0.023163
25.772	0.021434
25.856	0.019761
25.94	0.018210
26.024	0.016795
26.108	0.015589
26.192	0.014629
26.276	0.013811
26.36	0.013154
26.444	0.012567
26.528	0.011996
26.612	0.011367
26.696	0.010712
26.78	0.010000
26.864	0.009206
26.948	0.008402
27.028	0.007677