File: Bakgrunnsmateriale/MATLAB/FTIR/ftir_data/subAa/Mapping_121/BZ1503107-1_t89.asc
PE IR       SPECTRUM    SPECTRUM    ASCII       PEDS        1.60
  -1
BZ2D65~1.ASC
17/04/07
20:36:45.00
17/04/07
20:37:11.00
tln
$BZ1503107-1_t0089$<tbV0>[13.0,7.8,8.0,0.0,27,1,0]
27.028
64

2002,4.07
MIRTGS : RIGHTBACK : INTERNAL 2
MIR : ON : INTERNAL 2
OPTKBR

0.200000
8
8.000000
FILLER
RATIO
SPECTRUM
UNLOCKED 256

DOUBLE
64
COMBINED
1
0
0

0.002000
RATIO

1
0
TRUE
51149
0
LEFT NOT FITTED RIGHT NOT FITTED 0
NONE
NONE
15600
12
4.427000
51148
TRUE
1 0 8 72 0 0 0 0

15798

#HDR
-1
-1
#GR
µM
%T
2.38419e-05
0.0
2.000000
0.002000
12515
8
82.3045
42.5834
#DATA
2.000000	 64.1441
2.084000	 63.7079
2.168000	 64.693
2.252000	 50.0276
2.336000	 64.7258
2.420000	 64.3484
2.504000	 64.4197
2.588000	 64.4829
2.672000	 64.5701
2.756000	 64.3925
2.840000	 64.646
2.924000	 64.5456
3.008000	 64.3502
3.092000	 64.4302
3.176000	 64.4519
3.260000	 64.481
3.344000	 64.3778
3.428000	 64.4966
3.512000	 64.3663
3.596000	 64.4854
3.680000	 64.4332
3.764000	 64.4263
3.848000	 64.4132
3.932000	 64.3468
4.016000	 64.4128
4.100000	 64.3836
4.184000	 64.2602
4.268000	 64.306
4.352000	 64.2857
4.436000	 64.3039
4.520000	 64.3029
4.604000	 64.2125
4.688000	 64.3442
4.772000	 64.1678
4.856000	 64.2328
4.940000	 64.1761
5.024000	 64.141
5.108000	 64.1442
5.192000	 63.933
5.276000	 64.1205
5.359999	 64.1079
5.444000	 64.0887
5.528000	 64.0192
5.612000	 63.9315
5.696000	 63.8829
5.780000	 63.765
5.864000	 63.8584
5.948000	 63.8459
6.032000	 63.8676
6.116000	 63.8679
6.200000	 63.7614
6.284000	 63.9406
6.368000	 63.8631
6.452000	 63.7755
6.536000	 63.7307
6.620000	 63.7221
6.704000	 63.8107
6.788000	 63.7738
6.872000	 63.7373
6.956000	 63.4119
7.040000	 63.6126
7.124000	 63.5921
7.208000	 63.4774
7.292000	 63.5835
7.376000	 63.5718
7.460000	 63.4749
7.544000	 63.481
7.628000	 63.566
7.712000	 63.5062
7.796000	 63.3675
7.880000	 63.4878
7.964000	 63.4091
8.048000	 63.4273
8.132000	 63.4213
8.216000	 63.5403
8.300000	 63.4096
8.384000	 63.4537
8.468000	 63.3025
8.552000	 63.3369
8.635999	 63.3008
8.719999	 63.2937
8.804000	 63.4454
8.888000	 63.2628
8.972000	 63.1168
9.056000	 63.0758
9.140000	 63.2725
9.224000	 63.11
9.308000	 63.1736
9.391999	 63.1549
9.475999	 63.1186
9.560000	 63.235
9.644000	 63.2492
9.728000	 63.1212
9.812000	 63.111
9.896000	 63.0582
9.980000	 63.0857
10.064	63.2256
10.148	63.329
10.232	63.2759
10.316	63.1233
10.4	63.137
10.484	63.0165
10.568	63.0817
10.652	63.312
10.736	63.2143
10.82	63.2882
10.904	63.0322
10.988	63.1072
11.072	63.1338
11.156	63.0902
11.24	63.0491
11.324	63.0772
11.408	63.1134
11.492	63.1995
11.576	63.2158
11.66	63.0976
11.744	63.055
11.828	63.1929
11.912	63.1334
11.996	63.0992
12.08	63.1147
12.164	63.1595
12.248	63.266
12.332	63.2047
12.416	62.9793
12.5	62.8044
12.584	63.0617
12.668	63.2709
12.752	63.2827
12.836	63.1326
12.92	63.0641
13.004	63.0213
13.088	62.9972
13.172	62.9519
13.256	62.7772
13.34	62.8439
13.424	63.08
13.508	63.0626
13.592	63.0279
13.676	63.0746
13.76	62.9859
13.844	62.7813
13.928	62.7202
14.012	62.7285
14.096	62.8015
14.18	62.8428
14.264	62.7715
14.348	62.6646
14.432	62.7153
14.516	62.8931
14.6	62.8629
14.684	62.6491
14.768	62.5444
14.852	62.5767
14.936	62.6486
15.02	62.744
15.104	62.8267
15.188	62.7713
15.272	62.5622
15.356	62.4135
15.44	62.4756
15.524	62.6042
15.608	62.6679
15.692	62.7443
15.776	62.8855
15.86	62.9904
15.944	62.8981
16.028	62.5951
16.112	62.2657
16.196	62.0016
16.28	61.7772
16.364	61.7148
16.448	61.8993
16.532	62.1565
16.616	62.3427
16.7	62.483
16.784	62.5759
16.868	62.6302
16.952	62.7182
17.036	62.81
17.12	62.7799
17.204	62.6038
17.288	62.392
17.372	62.2635
17.456	62.2926
17.54	62.4726
17.624	62.6712
17.708	62.7494
17.792	62.748
17.876	62.8201
17.96	62.988
18.044	63.1219
18.128	63.144
18.212	63.0975
18.296	62.989
18.38	62.7167
18.464	62.2481
18.548	61.774
18.632	61.5566
18.716	61.6514
18.8	61.8567
18.884	61.9685
18.968	61.995
19.052	62.0985
19.136	62.2944
19.22	62.3752
19.304	62.1814
19.388	61.8629
19.472	61.7254
19.556	61.8723
19.64	62.0469
19.724	61.8458
19.808	61.0955
19.892	60.0203
19.976	59.0931
20.06	58.7255
20.144	59.0523
20.228	59.9354
20.312	61.0811
20.396	62.1623
20.48	62.8984
20.564	63.1383
20.648	62.9223
20.732	62.4788
20.816	62.0863
20.9	61.8967
20.984	61.8566
21.068	61.7902
21.152	61.5875
21.236	61.317
21.32	61.1621
21.404	61.2715
21.488	61.6401
21.572	62.1302
21.656	62.5895
21.74	62.9385
21.824	63.1821
21.908	63.3426
21.992	63.3905
22.076	63.245
22.16	62.83
22.244	62.1656
22.328	61.3974
22.412	60.7636
22.496	60.4871
22.58	60.6594
22.664	61.2081
22.748	61.9073
22.832	62.5105
22.916	62.8561
23	62.9496
23.084	62.9266
23.168	62.9405
23.252	63.0297
23.336	63.1085
23.42	63.0392
23.504	62.7306
23.588	62.1806
23.672	61.4449
23.756	60.5891
23.84	59.6482
23.924	58.644
24.008	57.622
24.092	56.685
24.176	55.9879
24.26	55.6775
24.344	55.8588
24.428	56.5493
24.512	57.6627
24.596	59.0429
24.68	60.4881
24.764	61.786
24.848	62.783
24.932	63.3777
25.016	63.5525
25.1	63.3957
25.184	63.08
25.268	62.7813
25.352	62.5971
25.436	62.5667
25.52	62.6245
25.604	62.6129
25.688	62.4332
25.772	62.1493
25.856	61.9826
25.94	62.1681
26.024	62.8732
26.108	64.1258
26.192	65.7851
26.276	67.6162
26.36	69.3853
26.444	70.9259
26.528	72.2053
26.612	73.2798
26.696	74.3541
26.78	75.7422
26.864	77.6991
26.948	80.1341
27.028	82.3045