File: Bakgrunnsmateriale/MATLAB/FTIR/ftir_data/subAa/Mapping_121/BZ1503107-1_t75.asc
PE IR       SPECTRUM    SPECTRUM    ASCII       PEDS        1.60
  -1
BZ2D5F~1.ASC
17/04/07
19:25:00.00
17/04/07
19:25:26.00
tln
$BZ1503107-1_t0075$<tbV0>[-7.8,2.6,8.0,0.0,27,1,0]
27.028
64

2002,4.07
MIRTGS : RIGHTBACK : INTERNAL 2
MIR : ON : INTERNAL 2
OPTKBR

0.200000
8
8.000000
FILLER
RATIO
SPECTRUM
UNLOCKED 256

DOUBLE
64
COMBINED
1
0
0

0.002000
RATIO

1
0
TRUE
51149
0
LEFT NOT FITTED RIGHT NOT FITTED 0
NONE
NONE
15600
12
4.427000
51148
TRUE
1 0 8 72 0 0 0 0

15798

#HDR
-1
-1
#GR
µM
%T
2.38419e-05
0.0
2.000000
0.002000
12515
8
78.5345
48.9913
#DATA
2.000000	 64.6806
2.084000	 64.5792
2.168000	 65.0927
2.252000	 63.3061
2.336000	 64.4766
2.420000	 64.8988
2.504000	 64.7488
2.588000	 65.0717
2.672000	 65.1295
2.756000	 65.0521
2.840000	 64.9858
2.924000	 64.9331
3.008000	 65.0054
3.092000	 64.9645
3.176000	 64.8353
3.260000	 65.028
3.344000	 64.8286
3.428000	 64.7093
3.512000	 64.7481
3.596000	 64.8978
3.680000	 64.7351
3.764000	 64.679
3.848000	 64.7703
3.932000	 64.662
4.016000	 64.5665
4.100000	 64.5771
4.184000	 64.4623
4.268000	 64.5129
4.352000	 64.4771
4.436000	 64.5933
4.520000	 64.5312
4.604000	 64.3642
4.688000	 64.4342
4.772000	 64.3948
4.856000	 64.3344
4.940000	 64.4717
5.024000	 64.2605
5.108000	 64.4225
5.192000	 64.3047
5.276000	 64.3193
5.359999	 64.282
5.444000	 64.2146
5.528000	 64.2486
5.612000	 64.1968
5.696000	 64.0929
5.780000	 63.8906
5.864000	 63.993
5.948000	 64.0256
6.032000	 64.075
6.116000	 63.9029
6.200000	 64.0244
6.284000	 63.8428
6.368000	 63.8984
6.452000	 63.8805
6.536000	 63.9052
6.620000	 63.989
6.704000	 63.8969
6.788000	 63.8558
6.872000	 63.919
6.956000	 63.7938
7.040000	 63.9268
7.124000	 63.6362
7.208000	 63.7902
7.292000	 63.5952
7.376000	 63.591
7.460000	 63.7276
7.544000	 63.767
7.628000	 63.7145
7.712000	 63.531
7.796000	 63.5646
7.880000	 63.4859
7.964000	 63.5522
8.048000	 63.5292
8.132000	 63.535
8.216000	 63.5312
8.300000	 63.5257
8.384000	 63.4362
8.468000	 63.4849
8.552000	 63.3046
8.635999	 63.3229
8.719999	 63.4704
8.804000	 63.5477
8.888000	 63.3338
8.972000	 63.2962
9.056000	 63.432
9.140000	 63.4858
9.224000	 63.4153
9.308000	 63.5159
9.391999	 63.5296
9.475999	 63.2653
9.560000	 63.3947
9.644000	 63.2657
9.728000	 63.2703
9.812000	 63.2904
9.896000	 63.1896
9.980000	 63.3921
10.064	63.3543
10.148	63.4965
10.232	63.3862
10.316	63.2823
10.4	63.5023
10.484	63.3614
10.568	63.2742
10.652	63.3523
10.736	63.3712
10.82	63.4149
10.904	63.1617
10.988	63.3632
11.072	63.4275
11.156	63.3279
11.24	63.3438
11.324	63.3771
11.408	63.4855
11.492	63.6781
11.576	63.4098
11.66	63.2639
11.744	63.3201
11.828	63.2372
11.912	63.1428
11.996	63.1989
12.08	63.2445
12.164	63.4271
12.248	63.4249
12.332	63.2857
12.416	63.2726
12.5	63.2617
12.584	63.0676
12.668	63.1196
12.752	63.2721
12.836	63.3231
12.92	63.1649
13.004	62.9414
13.088	63.0138
13.172	63.2117
13.256	63.1882
13.34	63.2457
13.424	63.3065
13.508	63.0955
13.592	63.0225
13.676	62.9102
13.76	62.6473
13.844	62.7556
13.928	62.9778
14.012	63.0397
14.096	62.8967
14.18	62.5748
14.264	62.4045
14.348	62.5296
14.432	62.9115
14.516	63.4365
14.6	63.732
14.684	63.7809
14.768	63.7674
14.852	63.4914
14.936	63.2158
15.02	63.2267
15.104	63.2853
15.188	63.2878
15.272	63.2894
15.356	63.2076
15.44	62.9654
15.524	62.531
15.608	61.9255
15.692	61.5392
15.776	61.8186
15.86	62.4527
15.944	62.8045
16.028	62.7555
16.112	62.5309
16.196	62.4278
16.28	62.7582
16.364	63.4187
16.448	63.8606
16.532	63.8205
16.616	63.5296
16.7	63.1938
16.784	62.851
16.868	62.6021
16.952	62.5323
17.036	62.6255
17.12	62.8763
17.204	63.2274
17.288	63.4665
17.372	63.4325
17.456	63.2003
17.54	62.9528
17.624	62.8209
17.708	62.8377
17.792	62.9131
17.876	62.9125
17.96	62.8317
18.044	62.7972
18.128	62.8743
18.212	63.0014
18.296	63.1102
18.38	63.1913
18.464	63.2367
18.548	63.2204
18.632	63.1408
18.716	63.0512
18.8	63.0242
18.884	63.0921
18.968	63.1928
19.052	63.1834
19.136	62.9712
19.22	62.631
19.304	62.3517
19.388	62.257
19.472	62.312
19.556	62.3878
19.64	62.3903
19.724	62.3178
19.808	62.227
19.892	62.1825
19.976	62.2312
20.06	62.3844
20.144	62.6058
20.228	62.8182
20.312	62.9435
20.396	62.9503
20.48	62.8684
20.564	62.7641
20.648	62.6879
20.732	62.6576
20.816	62.6765
20.9	62.7486
20.984	62.8648
21.068	62.9845
21.152	63.0467
21.236	63.005
21.32	62.8525
21.404	62.6288
21.488	62.3983
21.572	62.2249
21.656	62.1521
21.74	62.1846
21.824	62.2834
21.908	62.3813
21.992	62.4239
22.076	62.4
22.16	62.3386
22.244	62.275
22.328	62.2208
22.412	62.1782
22.496	62.1623
22.58	62.218
22.664	62.3941
22.748	62.6966
22.832	63.0685
22.916	63.4071
23	63.6084
23.084	63.6265
23.168	63.4933
23.252	63.289
23.336	63.0966
23.42	62.9589
23.504	62.8709
23.588	62.7993
23.672	62.7102
23.756	62.5766
23.84	62.3781
23.924	62.0935
24.008	61.7033
24.092	61.2082
24.176	60.6568
24.26	60.1711
24.344	59.9121
24.428	59.9826
24.512	60.3797
24.596	60.9608
24.68	61.5018
24.764	61.7973
24.848	61.7616
24.932	61.4166
25.016	60.8627
25.1	60.2394
25.184	59.6215
25.268	59.021
25.352	58.4774
25.436	58.0452
25.52	57.7995
25.604	57.8106
25.688	58.0758
25.772	58.468
25.856	58.7564
25.94	58.6752
26.024	58.0255
26.108	56.7828
26.192	55.096
26.276	53.2297
26.36	51.4812
26.444	50.0888
26.528	49.2279
26.612	49.009
26.696	49.5874
26.78	51.1366
26.864	53.9102
26.948	58.1539
27.028	63.6214