File: Bakgrunnsmateriale/MATLAB/FTIR/ftir_data/subAa/Mapping_121/BZ1503107-1_t91.asc
PE IR       SPECTRUM    SPECTRUM    ASCII       PEDS        1.60
  -1
BZ3D4B~1.ASC
17/04/07
20:46:00.00
17/04/07
20:46:26.00
tln
$BZ1503107-1_t0091$<tbV0>[7.8,7.8,8.0,0.0,27,1,0]
27.028
64

2002,4.07
MIRTGS : RIGHTBACK : INTERNAL 2
MIR : ON : INTERNAL 2
OPTKBR

0.200000
8
8.000000
FILLER
RATIO
SPECTRUM
UNLOCKED 256

DOUBLE
64
COMBINED
1
0
0

0.002000
RATIO

1
0
TRUE
51149
0
LEFT NOT FITTED RIGHT NOT FITTED 0
NONE
NONE
15600
12
4.427000
51148
TRUE
1 0 8 72 0 0 0 0

15798

#HDR
-1
-1
#GR
µM
%T
2.38419e-05
0.0
2.000000
0.002000
12515
8
80.4322
51.448
#DATA
2.000000	 64.25
2.084000	 65.165
2.168000	 64.9931
2.252000	 80.4322
2.336000	 64.6724
2.420000	 65.1346
2.504000	 65.0688
2.588000	 65.0761
2.672000	 65.1873
2.756000	 65.0482
2.840000	 65.0308
2.924000	 65.0272
3.008000	 64.9041
3.092000	 65.0449
3.176000	 64.8231
3.260000	 64.8255
3.344000	 64.7873
3.428000	 64.7579
3.512000	 64.7148
3.596000	 64.9015
3.680000	 64.7377
3.764000	 64.7985
3.848000	 64.741
3.932000	 64.617
4.016000	 64.7747
4.100000	 64.5957
4.184000	 64.62
4.268000	 64.5892
4.352000	 64.5649
4.436000	 64.51
4.520000	 64.4675
4.604000	 64.3495
4.688000	 64.4109
4.772000	 64.3555
4.856000	 64.4569
4.940000	 64.2682
5.024000	 64.3793
5.108000	 64.2495
5.192000	 64.2176
5.276000	 64.2786
5.359999	 64.1744
5.444000	 64.193
5.528000	 64.2117
5.612000	 63.987
5.696000	 64.0455
5.780000	 63.7779
5.864000	 63.865
5.948000	 63.947
6.032000	 64.0482
6.116000	 63.9515
6.200000	 63.914
6.284000	 63.8075
6.368000	 63.8374
6.452000	 63.7342
6.536000	 63.7586
6.620000	 63.6532
6.704000	 63.8538
6.788000	 63.7805
6.872000	 63.6314
6.956000	 63.6356
7.040000	 63.6495
7.124000	 63.7278
7.208000	 63.6536
7.292000	 63.6232
7.376000	 63.4509
7.460000	 63.5365
7.544000	 63.471
7.628000	 63.552
7.712000	 63.4846
7.796000	 63.3564
7.880000	 63.3402
7.964000	 63.339
8.048000	 63.3543
8.132000	 63.2961
8.216000	 63.4005
8.300000	 63.3956
8.384000	 63.2749
8.468000	 63.2096
8.552000	 63.0968
8.635999	 63.191
8.719999	 63.2026
8.804000	 63.2988
8.888000	 63.2257
8.972000	 63.2476
9.056000	 63.2806
9.140000	 63.2619
9.224000	 63.0475
9.308000	 63.0632
9.391999	 63.1321
9.475999	 63.1511
9.560000	 63.1531
9.644000	 63.1727
9.728000	 63.1249
9.812000	 63.0369
9.896000	 62.9415
9.980000	 62.9973
10.064	63.0976
10.148	63.2367
10.232	63.3375
10.316	63.1247
10.4	62.9927
10.484	63.0124
10.568	63.1364
10.652	63.2013
10.736	63.1286
10.82	63.2827
10.904	62.9529
10.988	63.1101
11.072	63.0767
11.156	63.018
11.24	63.128
11.324	62.9585
11.408	62.9666
11.492	63.1291
11.576	63.1088
11.66	63.0657
11.744	63.0661
11.828	62.8625
11.912	62.8761
11.996	62.8781
12.08	62.8386
12.164	62.8539
12.248	62.9973
12.332	63.1142
12.416	62.9939
12.5	62.8701
12.584	62.9334
12.668	62.9009
12.752	62.8208
12.836	62.8097
12.92	62.8962
13.004	62.8777
13.088	62.7425
13.172	62.6839
13.256	62.7821
13.34	62.9173
13.424	62.9074
13.508	62.9095
13.592	63.013
13.676	63.0931
13.76	63.0571
13.844	62.9818
13.928	62.9864
14.012	62.7966
14.096	62.4848
14.18	62.3196
14.264	62.2919
14.348	62.2838
14.432	62.3182
14.516	62.4263
14.6	62.4548
14.684	62.359
14.768	62.3623
14.852	62.5023
14.936	62.6384
15.02	62.7401
15.104	62.7678
15.188	62.6648
15.272	62.546
15.356	62.4464
15.44	62.2738
15.524	62.143
15.608	62.1727
15.692	62.2625
15.776	62.3149
15.86	62.2976
15.944	62.2087
16.028	62.0985
16.112	62.0333
16.196	62.0224
16.28	62.0576
16.364	62.2007
16.448	62.4187
16.532	62.5036
16.616	62.422
16.7	62.386
16.784	62.4398
16.868	62.4128
16.952	62.216
17.036	61.9299
17.12	61.7286
17.204	61.7915
17.288	62.1481
17.372	62.6117
17.456	62.9566
17.54	63.0893
17.624	62.9845
17.708	62.6338
17.792	62.1711
17.876	61.8821
17.96	61.9551
18.044	62.2707
18.128	62.5151
18.212	62.4724
18.296	62.1686
18.38	61.7819
18.464	61.4723
18.548	61.3331
18.632	61.4265
18.716	61.7175
18.8	61.9814
18.884	61.9739
18.968	61.7436
19.052	61.6672
19.136	61.9756
19.22	62.4143
19.304	62.5233
19.388	62.2219
19.472	61.9095
19.556	62.0242
19.64	62.5594
19.724	63.0452
19.808	62.9712
19.892	62.2102
19.976	61.0936
20.06	60.1626
20.144	59.8558
20.228	60.327
20.312	61.4073
20.396	62.6869
20.48	63.6992
20.564	64.126
20.648	63.9195
20.732	63.275
20.816	62.4856
20.9	61.8054
20.984	61.3793
21.068	61.238
21.152	61.3185
21.236	61.4922
21.32	61.6135
21.404	61.5918
21.488	61.427
21.572	61.1983
21.656	61.0152
21.74	60.9461
21.824	60.9872
21.908	61.0727
21.992	61.1197
22.076	61.0801
22.16	60.9679
22.244	60.8395
22.328	60.7597
22.412	60.7697
22.496	60.8748
22.58	61.0566
22.664	61.2921
22.748	61.5565
22.832	61.8093
22.916	61.9826
23	61.994
23.084	61.8019
23.168	61.4574
23.252	61.1126
23.336	60.9846
23.42	61.2451
23.504	61.916
23.588	62.8158
23.672	63.6353
23.756	64.0544
23.84	63.9392
23.924	63.4074
24.008	62.7356
24.092	62.2134
24.176	62.0215
24.26	62.1458
24.344	62.4521
24.428	62.8103
24.512	63.1512
24.596	63.4703
24.68	63.802
24.764	64.169
24.848	64.5379
24.932	64.7587
25.016	64.6043
25.1	63.8928
25.184	62.5123
25.268	60.5111
25.352	58.1177
25.436	55.6765
25.52	53.5445
25.604	52.0137
25.688	51.4484
25.772	52.1999
25.856	54.4482
25.94	58.0691
26.024	62.5207
26.108	66.9037
26.192	70.2831
26.276	71.9591
26.36	71.6723
26.444	69.648
26.528	66.5301
26.612	63.0985
26.696	60.2687
26.78	58.9248
26.864	59.7677
26.948	63.0904
27.028	68.2785