File: Bakgrunnsmateriale/MATLAB/FTIR/ftir_data/subAa/Mapping_121/BZ1503107-1_t76.asc
PE IR       SPECTRUM    SPECTRUM    ASCII       PEDS        1.60
  -1
BZ216F~1.ASC
17/04/07
19:29:37.00
17/04/07
19:30:03.00
tln
$BZ1503107-1_t0076$<tbV0>[-10.4,2.6,8.0,0.0,27,1,0]
27.028
64

2002,4.07
MIRTGS : RIGHTBACK : INTERNAL 2
MIR : ON : INTERNAL 2
OPTKBR

0.200000
8
8.000000
FILLER
RATIO
SPECTRUM
UNLOCKED 256

DOUBLE
64
COMBINED
1
0
0

0.002000
RATIO

1
0
TRUE
51149
0
LEFT NOT FITTED RIGHT NOT FITTED 0
NONE
NONE
15600
12
4.427000
51148
TRUE
1 0 8 72 0 0 0 0

15798

#HDR
-1
-1
#GR
µM
%T
2.38419e-05
0.0
2.000000
0.002000
12515
8
95.0537
47.269
#DATA
2.000000	 64.4641
2.084000	 64.5361
2.168000	 65.0772
2.252000	 65.2265
2.336000	 64.8261
2.420000	 64.7794
2.504000	 65.0419
2.588000	 65.0597
2.672000	 65.2296
2.756000	 64.7987
2.840000	 65.0619
2.924000	 65.0164
3.008000	 65.0348
3.092000	 65.0082
3.176000	 65.0352
3.260000	 64.985
3.344000	 64.9566
3.428000	 64.8527
3.512000	 64.7578
3.596000	 64.8382
3.680000	 64.8155
3.764000	 64.8171
3.848000	 64.7666
3.932000	 64.7534
4.016000	 64.781
4.100000	 64.5713
4.184000	 64.5301
4.268000	 64.6031
4.352000	 64.5628
4.436000	 64.6309
4.520000	 64.5478
4.604000	 64.4723
4.688000	 64.4951
4.772000	 64.442
4.856000	 64.2999
4.940000	 64.4271
5.024000	 64.2808
5.108000	 64.4295
5.192000	 64.3225
5.276000	 64.284
5.359999	 64.2624
5.444000	 64.2568
5.528000	 64.2572
5.612000	 64.1601
5.696000	 64.1721
5.780000	 63.9103
5.864000	 63.966
5.948000	 64.0438
6.032000	 63.9607
6.116000	 64.0228
6.200000	 64.0073
6.284000	 63.9775
6.368000	 63.9004
6.452000	 63.9436
6.536000	 63.9843
6.620000	 64.0314
6.704000	 63.9326
6.788000	 63.7828
6.872000	 63.9617
6.956000	 63.8192
7.040000	 63.9725
7.124000	 63.653
7.208000	 63.7306
7.292000	 63.7381
7.376000	 63.6965
7.460000	 63.7161
7.544000	 63.744
7.628000	 63.7212
7.712000	 63.6837
7.796000	 63.4893
7.880000	 63.5289
7.964000	 63.5305
8.048000	 63.5665
8.132000	 63.5271
8.216000	 63.4301
8.300000	 63.4891
8.384000	 63.4937
8.468000	 63.3745
8.552000	 63.4441
8.635999	 63.4067
8.719999	 63.4433
8.804000	 63.4588
8.888000	 63.4398
8.972000	 63.2855
9.056000	 63.3043
9.140000	 63.4013
9.224000	 63.4977
9.308000	 63.3649
9.391999	 63.3312
9.475999	 63.3364
9.560000	 63.3805
9.644000	 63.2505
9.728000	 63.2665
9.812000	 63.1437
9.896000	 63.3027
9.980000	 63.4849
10.064	63.3906
10.148	63.2864
10.232	63.3478
10.316	63.3784
10.4	63.3488
10.484	63.3363
10.568	63.3129
10.652	63.3384
10.736	63.3043
10.82	63.423
10.904	63.515
10.988	63.469
11.072	63.373
11.156	63.4081
11.24	63.4857
11.324	63.4307
11.408	63.5244
11.492	63.6454
11.576	63.3533
11.66	63.2726
11.744	63.2976
11.828	63.5259
11.912	63.3693
11.996	63.0844
12.08	63.0873
12.164	63.4156
12.248	63.4418
12.332	63.2031
12.416	63.0174
12.5	62.9627
12.584	62.9686
12.668	63.0343
12.752	63.1586
12.836	63.2887
12.92	63.3501
13.004	63.1508
13.088	62.9706
13.172	62.9916
13.256	63.1362
13.34	63.1864
13.424	62.9637
13.508	62.9146
13.592	62.9077
13.676	62.5973
13.76	62.6037
13.844	62.8966
13.928	62.9703
14.012	63.1057
14.096	63.0328
14.18	62.7456
14.264	62.7515
14.348	62.8787
14.432	62.9956
14.516	63.0441
14.6	63.0098
14.684	63.1715
14.768	63.5157
14.852	63.6762
14.936	63.3737
15.02	63.0927
15.104	63.3709
15.188	63.4718
15.272	62.9519
15.356	62.631
15.44	62.8321
15.524	62.999
15.608	62.7163
15.692	62.1899
15.776	62.0125
15.86	62.3292
15.944	62.6982
16.028	62.9349
16.112	63.1997
16.196	63.3911
16.28	63.3303
16.364	63.2962
16.448	63.6759
16.532	64.2691
16.616	64.4352
16.7	63.9199
16.784	63.1835
16.868	62.793
16.952	62.808
17.036	62.958
17.12	63.0882
17.204	63.1763
17.288	63.1725
17.372	63.0497
17.456	62.9006
17.54	62.8623
17.624	62.9819
17.708	63.1719
17.792	63.3073
17.876	63.3438
17.96	63.2988
18.044	63.1726
18.128	63.0127
18.212	62.9777
18.296	63.1771
18.38	63.4714
18.464	63.5905
18.548	63.4448
18.632	63.1951
18.716	63.0328
18.8	63.006
18.884	63.0497
18.968	63.0721
19.052	62.986
19.136	62.7724
19.22	62.5327
19.304	62.3936
19.388	62.3644
19.472	62.3368
19.556	62.2168
19.64	62.0271
19.724	61.8784
19.808	61.8599
19.892	61.9738
19.976	62.1636
20.06	62.3716
20.144	62.5695
20.228	62.7434
20.312	62.8569
20.396	62.859
20.48	62.7377
20.564	62.5529
20.648	62.3937
20.732	62.3102
20.816	62.301
20.9	62.3422
20.984	62.4097
21.068	62.4884
21.152	62.5755
21.236	62.6819
21.32	62.823
21.404	63.0026
21.488	63.1997
21.572	63.3665
21.656	63.4478
21.74	63.4029
21.824	63.2191
21.908	62.9282
21.992	62.6069
22.076	62.3543
22.16	62.2551
22.244	62.327
22.328	62.5151
22.412	62.7387
22.496	62.9461
22.58	63.1374
22.664	63.3285
22.748	63.5014
22.832	63.5904
22.916	63.5126
23	63.245
23.084	62.8667
23.168	62.5546
23.252	62.4791
23.336	62.7198
23.42	63.1981
23.504	63.7228
23.588	64.0849
23.672	64.166
23.756	63.9938
23.84	63.7222
23.924	63.5275
24.008	63.4934
24.092	63.5627
24.176	63.5747
24.26	63.404
24.344	63.0315
24.428	62.5519
24.512	62.1256
24.596	61.8825
24.68	61.8512
24.764	61.9397
24.848	62.0734
24.932	62.2024
25.016	62.3151
25.1	62.4534
25.184	62.5833
25.268	62.5597
25.352	62.1784
25.436	61.2987
25.52	59.9551
25.604	58.3461
25.688	56.7243
25.772	55.2572
25.856	53.9551
25.94	52.6865
26.024	51.2992
26.108	49.7855
26.192	48.3373
26.276	47.3897
26.36	47.5115
26.444	49.2512
26.528	52.9445
26.612	58.6844
26.696	66.1605
26.78	74.6131
26.864	82.982
26.948	90.1528
27.028	95.0537