File: Bakgrunnsmateriale/MATLAB/FTIR/ftir_data/subAa/Mapping_121/BZ1503107-1_t40_cm-1.asc
PE IR       SPECTRUM    SPECTRUM    ASCII       PEDS        1.60
  -1
BZ6824~1.ASC
17/04/07
16:29:00.00
17/04/07
16:29:00.00
tln
$BZ1503107-1_t0040$<tbV0>[-2.6,-5.2,8.0,0.0,27,1,0]
370
64

2002,4.07
MIRTGS : RIGHTBACK : INTERNAL 2
MIR : ON : INTERNAL 2
OPTKBR

0.200000
8
8.000000
FILLER
RATIO
SPECTRUM
UNLOCKED 256

DOUBLE
64
COMBINED
1
0
0

1.000000
RATIO

1
0
TRUE
51149
0
LEFT NOT FITTED RIGHT NOT FITTED 0
NONE
NONE
15600
12
4.427000
51148
TRUE
1 0 8 72 0 0 0 0

15798

#HDR
-1
-1
#GR
CM-1
%T
2.38419e-05
0.0
5000
-1.000000
4631
8
76.0082
46.2908
#DATA
5000	65.4353
4984	65.2116
4968	64.7333
4952	64.3918
4936	64.5999
4920	64.2943
4904	64.7498
4888	64.9598
4872	65.1396
4856	65.2569
4840	64.8201
4824	65.1222
4808	65.0732
4792	64.7567
4776	65.527
4760	65.273
4744	65.1141
4728	65.0752
4712	65.5567
4696	65.2892
4680	64.9841
4664	64.938
4648	65.0985
4632	65.0477
4616	64.8848
4600	64.4896
4584	64.5623
4568	64.8014
4552	64.8574
4536	64.7147
4520	63.9122
4504	64.4098
4488	64.4262
4472	64.3842
4456	65.1298
4440	65.1827
4424	73.2977
4408	69.5192
4392	64.9069
4376	65.0719
4360	64.9196
4344	64.6039
4328	64.1841
4312	64.5062
4296	65.0131
4280	64.7175
4264	65.0533
4248	64.9076
4232	65.1292
4216	65.1672
4200	65.0658
4184	65.1055
4168	65.1176
4152	65.1598
4136	65.2173
4120	65.0499
4104	65.2374
4088	65.2735
4072	65.3294
4056	64.9843
4040	65.0352
4024	65.1005
4008	65.3898
3992	65.4428
3976	65.2859
3960	65.1429
3944	65.2946
3928	64.7032
3912	65.0971
3896	65.3042
3880	64.9765
3864	65.1753
3848	65.1461
3832	65.2383
3816	65.1555
3800	65.3879
3784	65.0475
3768	65.3209
3752	65.1915
3736	65.3438
3720	65.3538
3704	65.4109
3688	65.1626
3672	65.3358
3656	65.2069
3640	65.2168
3624	65.0777
3608	65.2348
3592	65.3661
3576	65.2003
3560	65.2822
3544	65.1632
3528	64.9229
3512	65.212
3496	65.1773
3480	65.0685
3464	65.1961
3448	65.1366
3432	65.1357
3416	65.1137
3400	65.29
3384	65.243
3368	65.238
3352	65.2669
3336	65.2176
3320	65.0902
3304	65.1067
3288	65.0537
3272	65.2834
3256	65.0402
3240	65.0486
3224	65.2168
3208	65.136
3192	64.9209
3176	65.1575
3160	65.1796
3144	64.9022
3128	65.135
3112	65.1603
3096	65.2603
3080	65.1248
3064	65.1106
3048	65.1527
3032	64.9313
3016	64.9734
3000	65.2499
2984	65.1597
2968	65.0275
2952	65.0793
2936	64.9821
2920	65.1329
2904	65.1785
2888	65.0999
2872	65.1299
2856	64.9981
2840	64.9894
2824	65.0373
2808	65.0367
2792	65.1476
2776	65.0743
2760	65.1935
2744	65.2012
2728	65.1051
2712	65.1117
2696	65.0776
2680	65.0075
2664	65.0058
2648	65.0742
2632	65.0528
2616	64.9847
2600	64.9498
2584	64.952
2568	64.9321
2552	64.9106
2536	64.9987
2520	64.9918
2504	64.936
2488	64.8696
2472	64.8934
2456	64.8092
2440	65.0178
2424	64.8019
2408	65.0544
2392	64.9289
2376	64.9216
2360	64.8793
2344	64.9543
2328	64.8777
2312	64.8758
2296	64.8687
2280	64.9843
2264	64.8459
2248	64.8525
2232	64.9727
2216	64.8235
2200	64.9538
2184	64.8611
2168	64.6772
2152	64.724
2136	64.713
2120	64.8292
2104	64.7459
2088	64.6705
2072	64.7212
2056	64.783
2040	64.7782
2024	64.8199
2008	64.8216
1992	64.6154
1976	64.6864
1960	64.7797
1944	64.6799
1928	64.7146
1912	64.7369
1896	64.6925
1880	64.6927
1864	64.615
1848	64.6446
1832	64.6944
1816	64.7031
1800	64.6549
1784	64.5923
1768	64.5468
1752	64.429
1736	64.218
1720	64.3349
1704	64.4789
1688	64.5684
1672	64.4988
1656	64.5695
1640	64.4647
1624	64.3158
1608	64.3953
1592	64.3691
1576	64.1243
1560	64.3247
1544	64.2898
1528	64.426
1512	64.42
1496	64.4029
1480	64.3986
1464	64.3294
1448	64.3719
1432	64.2669
1416	64.3715
1400	64.304
1384	64.178
1368	64.3073
1352	64.1641
1336	64.2596
1320	64.1738
1304	64.1851
1288	64.1337
1272	64.0214
1256	64.1125
1240	64.0339
1224	64.0148
1208	64.1115
1192	64.0222
1176	64.0792
1160	64.0798
1144	64.0592
1128	63.8157
1112	64.0658
1096	63.9304
1080	63.9313
1064	63.8902
1048	63.8899
1032	63.8313
1016	63.7899
1000	63.9946
984	 63.9755
968	 63.878
952	 63.8624
936	 63.9533
920	 64.1654
904	 63.8121
888	 63.8472
872	 64.155
856	 64.0059
840	 63.8541
824	 63.9276
808	 63.7437
792	 63.9297
776	 64.0047
760	 63.626
744	 63.8676
728	 63.8322
712	 63.495
696	 63.5897
680	 63.5443
664	 63.1693
648	 63.4926
632	 62.9467
616	 63.0175
600	 63.6331
584	 63.4786
568	 63.09
552	 63.8815
536	 63.4955
520	 63.7904
504	 64.0608
488	 63.5741
472	 62.901
456	 63.2223
440	 62.7785
424	 62.9765
408	 62.5715
392	 47.3956
376	 62.3746
370	 47.9493