File: Bakgrunnsmateriale/MATLAB/FTIR/ftir_data/subAa/Mapping_121/BZ1503107-1_t29_cm-1.asc
PE IR       SPECTRUM    SPECTRUM    ASCII       PEDS        1.60
  -1
BZ6133~1.ASC
17/04/07
15:37:34.00
17/04/07
15:37:34.00
tln
$BZ1503107-1_t0029$<tbV0>[-2.6,-7.8,8.0,0.0,27,1,0]
370
64

2002,4.07
MIRTGS : RIGHTBACK : INTERNAL 2
MIR : ON : INTERNAL 2
OPTKBR

0.200000
8
8.000000
FILLER
RATIO
SPECTRUM
UNLOCKED 256

DOUBLE
64
COMBINED
1
0
0

1.000000
RATIO

1
0
TRUE
51149
0
LEFT NOT FITTED RIGHT NOT FITTED 0
NONE
NONE
15600
12
4.427000
51148
TRUE
1 0 8 72 0 0 0 0

15798

#HDR
-1
-1
#GR
CM-1
%T
2.38419e-05
0.0
5000
-1.000000
4631
8
77.1468
49.0199
#DATA
5000	65.9522
4984	64.5982
4968	64.5597
4952	64.7003
4936	64.9945
4920	65.3204
4904	64.546
4888	64.8585
4872	64.7633
4856	65.0065
4840	65.0154
4824	65.1747
4808	64.385
4792	64.714
4776	65.13
4760	65.0716
4744	64.673
4728	64.7876
4712	65.1335
4696	64.7565
4680	64.8533
4664	64.6771
4648	64.9331
4632	64.6389
4616	65.0701
4600	64.9256
4584	64.5732
4568	64.9363
4552	65.0864
4536	65.0971
4520	64.8482
4504	65.334
4488	65.3738
4472	64.4013
4456	65.3211
4440	66.2816
4424	58.9927
4408	68.9883
4392	65.3894
4376	65.2938
4360	64.9508
4344	64.6076
4328	64.6255
4312	65.0846
4296	65.151
4280	64.9261
4264	64.9813
4248	64.7856
4232	65.0749
4216	65.0757
4200	65.0938
4184	64.9389
4168	65.2314
4152	64.972
4136	65.2074
4120	64.9741
4104	64.9093
4088	64.8638
4072	64.8991
4056	65.0851
4040	64.9899
4024	65.0319
4008	64.9691
3992	65.1099
3976	65.0303
3960	64.9193
3944	65.0614
3928	65.211
3912	65.4192
3896	65.1271
3880	65.1416
3864	65.1525
3848	65.279
3832	65.0885
3816	65.0827
3800	65.4724
3784	64.9367
3768	65.3453
3752	65.068
3736	65.145
3720	65.3416
3704	65.3027
3688	65.0667
3672	65.1876
3656	65.3052
3640	65.2076
3624	65.2144
3608	65.3294
3592	65.1961
3576	64.9342
3560	65.1106
3544	65.0527
3528	64.919
3512	65.1981
3496	65.1283
3480	65.0821
3464	65.0905
3448	65.013
3432	65.1181
3416	65.042
3400	65.2367
3384	65.3414
3368	64.9604
3352	65.3876
3336	65.0849
3320	65.1513
3304	64.9718
3288	64.9648
3272	65.1749
3256	64.9546
3240	65.0244
3224	65.0796
3208	65.0789
3192	64.9399
3176	65.1107
3160	64.9989
3144	65.0792
3128	65.0361
3112	65.0429
3096	65.056
3080	65.1256
3064	65.1541
3048	65.0534
3032	65.1016
3016	65.0133
3000	64.9619
2984	64.9966
2968	64.7155
2952	64.953
2936	64.8719
2920	65.0026
2904	64.9292
2888	64.9271
2872	64.96
2856	65.0132
2840	64.9531
2824	65.0072
2808	65.0581
2792	65.1595
2776	65.0947
2760	65.1044
2744	65.1138
2728	64.9927
2712	64.9823
2696	65.1104
2680	64.9353
2664	65.0022
2648	64.9094
2632	64.956
2616	64.9262
2600	64.9629
2584	64.9217
2568	64.9636
2552	64.8786
2536	64.9703
2520	65.0752
2504	64.9885
2488	64.8582
2472	64.9543
2456	64.8462
2440	64.9743
2424	64.9028
2408	64.9883
2392	65.0449
2376	64.861
2360	64.7625
2344	65.0301
2328	64.993
2312	64.9788
2296	64.8798
2280	64.8582
2264	64.8217
2248	64.8614
2232	64.8936
2216	64.8386
2200	64.8872
2184	64.7879
2168	64.7509
2152	64.8502
2136	64.7839
2120	64.7405
2104	64.7203
2088	64.7985
2072	64.8573
2056	64.7602
2040	64.7533
2024	64.7697
2008	64.7625
1992	64.5818
1976	64.7681
1960	64.753
1944	64.749
1928	64.7422
1912	64.6693
1896	64.7316
1880	64.719
1864	64.6113
1848	64.725
1832	64.607
1816	64.6336
1800	64.7904
1784	64.5592
1768	64.5658
1752	64.4533
1736	63.9006
1720	64.2545
1704	64.5263
1688	64.5754
1672	64.6019
1656	64.4817
1640	64.415
1624	64.3555
1608	64.4052
1592	64.3694
1576	64.3077
1560	64.5276
1544	64.269
1528	64.3336
1512	64.5141
1496	64.3379
1480	64.3195
1464	64.2478
1448	64.2609
1432	64.4009
1416	64.287
1400	64.3532
1384	64.097
1368	64.2388
1352	64.1389
1336	64.1909
1320	64.1292
1304	64.1904
1288	64.155
1272	64.1668
1256	63.9875
1240	64.0644
1224	63.9315
1208	64.03
1192	63.9925
1176	63.924
1160	63.8611
1144	63.9735
1128	63.8766
1112	63.9536
1096	63.9167
1080	64.0104
1064	63.8819
1048	64.0799
1032	63.9561
1016	64.2635
1000	63.97
984	 64.0965
968	 63.8732
952	 64.0712
936	 63.9668
920	 64.1488
904	 64.1141
888	 63.9326
872	 64.1464
856	 64.0355
840	 63.9644
824	 64.1166
808	 64.0496
792	 64.274
776	 63.924
760	 63.8363
744	 63.6461
728	 63.9029
712	 63.134
696	 64.0759
680	 63.0999
664	 63.5295
648	 63.7287
632	 63.3879
616	 63.0519
600	 64.0873
584	 63.4281
568	 63.8579
552	 64.1495
536	 62.9157
520	 64.4278
504	 63.5188
488	 62.9446
472	 62.7256
456	 62.1204
440	 62.9842
424	 61.3956
408	 61.4292
392	 62.5215
376	 59.9287
370	 77.1468