File: Bakgrunnsmateriale/MATLAB/FTIR/ftir_data/subAa/Mapping_121/BZ1503107-1_t60.asc
PE IR       SPECTRUM    SPECTRUM    ASCII       PEDS        1.60
  -1
BZ2941~1.ASC
17/04/07
18:08:58.00
17/04/07
18:09:24.00
tln
$BZ1503107-1_t0060$<tbV0>[2.6,0.0,8.0,0.0,27,1,0]
27.028
64

2002,4.07
MIRTGS : RIGHTBACK : INTERNAL 2
MIR : ON : INTERNAL 2
OPTKBR

0.200000
8
8.000000
FILLER
RATIO
SPECTRUM
UNLOCKED 256

DOUBLE
64
COMBINED
1
0
0

0.002000
RATIO

1
0
TRUE
51149
0
LEFT NOT FITTED RIGHT NOT FITTED 0
NONE
NONE
15600
12
4.427000
51148
TRUE
1 0 8 72 0 0 0 0

15798

#HDR
-1
-1
#GR
µM
%T
2.38419e-05
0.0
2.000000
0.002000
12515
8
81.2887
57.2527
#DATA
2.000000	 65.3455
2.084000	 64.827
2.168000	 65.0463
2.252000	 60.9209
2.336000	 65.0346
2.420000	 64.8554
2.504000	 65.0405
2.588000	 65.1167
2.672000	 64.9805
2.756000	 65.1061
2.840000	 65.1127
2.924000	 65.0715
3.008000	 65.0375
3.092000	 64.9883
3.176000	 64.9669
3.260000	 64.9643
3.344000	 64.8984
3.428000	 64.8501
3.512000	 65.0575
3.596000	 64.9614
3.680000	 64.9591
3.764000	 64.8765
3.848000	 65.022
3.932000	 64.8648
4.016000	 64.9381
4.100000	 64.8719
4.184000	 64.753
4.268000	 64.655
4.352000	 64.7674
4.436000	 64.7403
4.520000	 64.7001
4.604000	 64.6453
4.688000	 64.6586
4.772000	 64.6218
4.856000	 64.615
4.940000	 64.5877
5.024000	 64.6188
5.108000	 64.3524
5.192000	 64.4845
5.276000	 64.4206
5.359999	 64.349
5.444000	 64.3917
5.528000	 64.4586
5.612000	 64.4354
5.696000	 64.2768
5.780000	 64.1491
5.864000	 64.2539
5.948000	 64.1552
6.032000	 64.2071
6.116000	 64.1733
6.200000	 64.1687
6.284000	 64.1208
6.368000	 64.114
6.452000	 64.1074
6.536000	 64.0768
6.620000	 64.14
6.704000	 64.0134
6.788000	 64.0955
6.872000	 64.0247
6.956000	 64.0029
7.040000	 64.064
7.124000	 64.0819
7.208000	 63.9906
7.292000	 63.8259
7.376000	 63.9709
7.460000	 63.8663
7.544000	 63.7938
7.628000	 63.853
7.712000	 63.9197
7.796000	 63.8652
7.880000	 63.9242
7.964000	 63.8287
8.048000	 63.8741
8.132000	 63.729
8.216000	 63.6017
8.300000	 63.8282
8.384000	 63.8015
8.468000	 63.7528
8.552000	 63.7343
8.635999	 63.679
8.719999	 63.6891
8.804000	 63.5641
8.888000	 63.6075
8.972000	 63.6841
9.056000	 63.815
9.140000	 63.7662
9.224000	 63.6477
9.308000	 63.8567
9.391999	 63.7478
9.475999	 63.582
9.560000	 63.5627
9.644000	 63.6232
9.728000	 63.6016
9.812000	 63.7027
9.896000	 63.7056
9.980000	 63.6164
10.064	63.8442
10.148	63.7236
10.232	63.7148
10.316	63.5291
10.4	63.5248
10.484	63.6574
10.568	63.7022
10.652	63.4002
10.736	63.4356
10.82	63.6381
10.904	63.5636
10.988	63.6766
11.072	63.8187
11.156	63.5505
11.24	63.4522
11.324	63.5362
11.408	63.6649
11.492	63.6666
11.576	63.63
11.66	63.6927
11.744	63.7054
11.828	63.722
11.912	63.7291
11.996	63.7147
12.08	63.6234
12.164	63.3842
12.248	63.3864
12.332	63.3218
12.416	63.354
12.5	63.4702
12.584	63.4887
12.668	63.5479
12.752	63.5561
12.836	63.5489
12.92	63.4716
13.004	63.4278
13.088	63.5239
13.172	63.552
13.256	63.4823
13.34	63.2955
13.424	63.2525
13.508	63.2688
13.592	63.0851
13.676	63.0351
13.76	63.2101
13.844	63.4426
13.928	63.4564
14.012	63.2805
14.096	63.0547
14.18	62.8949
14.264	62.9276
14.348	63.0452
14.432	63.1771
14.516	63.3625
14.6	63.5089
14.684	63.6697
14.768	63.7095
14.852	63.4269
14.936	63.1226
15.02	63.0183
15.104	63.1836
15.188	63.5756
15.272	63.7344
15.356	63.5733
15.44	63.4524
15.524	63.3541
15.608	63.2431
15.692	63.2428
15.776	63.1731
15.86	62.9689
15.944	62.9783
16.028	63.384
16.112	63.8512
16.196	63.9002
16.28	63.4742
16.364	62.9899
16.448	62.8357
16.532	62.9843
16.616	63.128
16.7	63.0605
16.784	62.8447
16.868	62.6604
16.952	62.6454
17.036	62.7796
17.12	62.9313
17.204	63.0893
17.288	63.3203
17.372	63.5291
17.456	63.5678
17.54	63.5032
17.624	63.4596
17.708	63.3523
17.792	63.084
17.876	62.791
17.96	62.7099
18.044	62.8934
18.128	63.1874
18.212	63.4069
18.296	63.428
18.38	63.2167
18.464	62.8823
18.548	62.6731
18.632	62.7936
18.716	63.1787
18.8	63.5237
18.884	63.5827
18.968	63.3873
19.052	63.1457
19.136	62.9692
19.22	62.7895
19.304	62.5339
19.388	62.2739
19.472	62.1394
19.556	62.1723
19.64	62.2984
19.724	62.4198
19.808	62.4926
19.892	62.5137
19.976	62.468
20.06	62.3179
20.144	62.0821
20.228	61.8965
20.312	61.9417
20.396	62.2813
20.48	62.7542
20.564	63.0607
20.648	62.984
20.732	62.5698
20.816	62.0963
20.9	61.8811
20.984	62.0565
21.068	62.4907
21.152	62.8922
21.236	62.9992
21.32	62.7368
21.404	62.2439
21.488	61.7687
21.572	61.5114
21.656	61.5258
21.74	61.7322
21.824	62.0156
21.908	62.3279
21.992	62.7042
22.076	63.1891
22.16	63.7346
22.244	64.1703
22.328	64.3045
22.412	64.0467
22.496	63.4975
22.58	62.8856
22.664	62.4311
22.748	62.226
22.832	62.2141
22.916	62.2675
23	62.2996
23.084	62.3154
23.168	62.3613
23.252	62.4457
23.336	62.5165
23.42	62.4846
23.504	62.2937
23.588	61.9613
23.672	61.5704
23.756	61.2392
23.84	61.0447
23.924	61.0064
24.008	61.0993
24.092	61.2642
24.176	61.4055
24.26	61.4252
24.344	61.2454
24.428	60.8709
24.512	60.4453
24.596	60.2258
24.68	60.4773
24.764	61.3264
24.848	62.6993
24.932	64.3179
25.016	65.8322
25.1	67.0006
25.184	67.8245
25.268	68.5421
25.352	69.4612
25.436	70.7769
25.52	72.378
25.604	73.8587
25.688	74.6559
25.772	74.3275
25.856	72.7665
25.94	70.1306
26.024	66.8336
26.108	63.4527
26.192	60.6068
26.276	58.8493
26.36	58.564
26.444	59.8839
26.528	62.6598
26.612	66.4929
26.696	70.8041
26.78	74.9367
26.864	78.317
26.948	80.5206
27.028	81.2887