File: Bakgrunnsmateriale/MATLAB/FTIR/ftir_data/subAa/Mapping_121/BZ1503107-1_t50_cm-1.asc
PE IR       SPECTRUM    SPECTRUM    ASCII       PEDS        1.60
  -1
BZ68A3~1.ASC
17/04/07
17:22:08.00
17/04/07
17:22:08.00
tln
$BZ1503107-1_t0050$<tbV0>[0.0,-2.6,8.0,0.0,27,1,0]
370
64

2002,4.07
MIRTGS : RIGHTBACK : INTERNAL 2
MIR : ON : INTERNAL 2
OPTKBR

0.200000
8
8.000000
FILLER
RATIO
SPECTRUM
UNLOCKED 256

DOUBLE
64
COMBINED
1
0
0

1.000000
RATIO

1
0
TRUE
51149
0
LEFT NOT FITTED RIGHT NOT FITTED 0
NONE
NONE
15600
12
4.427000
51148
TRUE
1 0 8 72 0 0 0 0

15798

#HDR
-1
-1
#GR
CM-1
%T
2.38419e-05
0.0
5000
-1.000000
4631
8
66.921
33.3127
#DATA
5000	64.2905
4984	66.9132
4968	66.2917
4952	64.5245
4936	65.6041
4920	64.7634
4904	64.8266
4888	64.9299
4872	64.5671
4856	64.6547
4840	64.6551
4824	64.6193
4808	65.0193
4792	64.696
4776	65.3353
4760	64.7127
4744	64.6654
4728	64.7187
4712	64.816
4696	64.9513
4680	65.0993
4664	64.5144
4648	64.7178
4632	65.3868
4616	64.7311
4600	65.0938
4584	65.0248
4568	65.0849
4552	65.3227
4536	64.8624
4520	65.4826
4504	65.3525
4488	65.2377
4472	65.1324
4456	66.3991
4440	63.2716
4424	56.7614
4408	65.6074
4392	65.2021
4376	65.3533
4360	65.9324
4344	65.5781
4328	65.1942
4312	65.3176
4296	65.4315
4280	65.2519
4264	65.2655
4248	65.0318
4232	64.7111
4216	64.9152
4200	65.1826
4184	64.6088
4168	64.5966
4152	64.8069
4136	64.6551
4120	65.1223
4104	64.75
4088	64.7658
4072	64.8517
4056	64.8476
4040	65.0008
4024	64.993
4008	65.0909
3992	65.1749
3976	65.2891
3960	64.9518
3944	64.9879
3928	65.3288
3912	65.3486
3896	65.0465
3880	65.0806
3864	65.0455
3848	65.1209
3832	64.8589
3816	65.0089
3800	65.0389
3784	65.0044
3768	65.1402
3752	65.0999
3736	64.9135
3720	64.8871
3704	65.1443
3688	65.024
3672	65.0649
3656	65.1186
3640	65.1764
3624	65.0706
3608	65.0267
3592	65.0296
3576	65.0845
3560	65.1211
3544	65.2062
3528	65.0309
3512	65.2231
3496	65.1955
3480	65.155
3464	65.0767
3448	65.0376
3432	64.957
3416	64.9655
3400	64.8093
3384	65.0471
3368	65.1916
3352	64.998
3336	64.9417
3320	65.0498
3304	65.1743
3288	64.9827
3272	64.894
3256	64.9593
3240	64.9315
3224	64.9112
3208	65.1407
3192	65.0414
3176	65.1231
3160	64.9323
3144	65.0032
3128	64.8232
3112	64.8715
3096	65.1052
3080	64.9983
3064	64.882
3048	64.9355
3032	65.1671
3016	65.0793
3000	65.0597
2984	65.0221
2968	64.7788
2952	64.8667
2936	64.9788
2920	64.8727
2904	64.8769
2888	64.9559
2872	64.8769
2856	64.9895
2840	64.9403
2824	65.0239
2808	65.0342
2792	64.913
2776	64.9694
2760	64.8453
2744	65.0368
2728	64.9706
2712	64.9674
2696	64.991
2680	64.9818
2664	64.9956
2648	64.9664
2632	64.9039
2616	64.9746
2600	64.9517
2584	64.9018
2568	64.8197
2552	64.8905
2536	64.7692
2520	64.9431
2504	64.9089
2488	64.8367
2472	64.8102
2456	64.7949
2440	64.8229
2424	64.8639
2408	64.7814
2392	64.7969
2376	64.7712
2360	64.8642
2344	64.8238
2328	64.7951
2312	64.8077
2296	64.7993
2280	64.7988
2264	64.8242
2248	64.7217
2232	64.7393
2216	64.7579
2200	64.8414
2184	64.7001
2168	64.5998
2152	64.7314
2136	64.7433
2120	64.6653
2104	64.6895
2088	64.7315
2072	64.6771
2056	64.6776
2040	64.6346
2024	64.5571
2008	64.7536
1992	64.591
1976	64.5714
1960	64.4619
1944	64.5932
1928	64.5877
1912	64.549
1896	64.5522
1880	64.4987
1864	64.5325
1848	64.5474
1832	64.5304
1816	64.4744
1800	64.466
1784	64.4783
1768	64.4193
1752	64.2928
1736	64.345
1720	64.3335
1704	64.3362
1688	64.2473
1672	64.3598
1656	64.3466
1640	64.3894
1624	64.2193
1608	64.359
1592	64.1612
1576	64.1087
1560	64.1146
1544	64.173
1528	64.2107
1512	64.2484
1496	64.1398
1480	64.2234
1464	64.1092
1448	64.0736
1432	64.1525
1416	64.1212
1400	64.044
1384	64.0399
1368	64.23
1352	63.9791
1336	64.1126
1320	64.0943
1304	64.0914
1288	63.9247
1272	63.9447
1256	63.9808
1240	63.8982
1224	63.8756
1208	63.9407
1192	63.8698
1176	63.8378
1160	63.7878
1144	63.6908
1128	63.7737
1112	63.7766
1096	63.8166
1080	64.0176
1064	63.7738
1048	63.7687
1032	63.6178
1016	63.8459
1000	63.7831
984	 63.9336
968	 63.685
952	 63.6758
936	 63.6612
920	 63.8664
904	 63.6632
888	 63.7423
872	 63.8438
856	 63.692
840	 63.8836
824	 63.8233
808	 63.7826
792	 63.6136
776	 63.7012
760	 63.7478
744	 63.7497
728	 63.5901
712	 63.2113
696	 63.4771
680	 63.5439
664	 63.2919
648	 63.4099
632	 63.4476
616	 63.9679
600	 63.894
584	 64.0505
568	 62.4134
552	 63.281
536	 62.7503
520	 62.6838
504	 63.3562
488	 63.2698
472	 64.1898
456	 62.7086
440	 64.0415
424	 63.4903
408	 62.6468
392	 60.8273
376	 40.2793
370	 35.3919