File: Bakgrunnsmateriale/MATLAB/FTIR/ftir_data/subAa/Mapping_121/BZ1503107-1_t109_cm-1.asc
PE IR       SPECTRUM    SPECTRUM    ASCII       PEDS        1.60
  -1
BZCBF9~1.ASC
17/04/07
22:09:47.00
17/04/07
22:09:47.00
tln
$BZ1503107-1_t0109$<tbV0>[-10.4,10.4,8.0,0.0,27,1,0]
370
64

2002,4.07
MIRTGS : RIGHTBACK : INTERNAL 2
MIR : ON : INTERNAL 2
OPTKBR

0.200000
8
8.000000
FILLER
RATIO
SPECTRUM
UNLOCKED 256

DOUBLE
64
COMBINED
1
0
0

1.000000
RATIO

1
0
TRUE
51149
0
LEFT NOT FITTED RIGHT NOT FITTED 0
NONE
NONE
15600
12
4.427000
51148
TRUE
1 0 8 72 0 0 0 0

15798

#HDR
-1
-1
#GR
CM-1
%T
2.38419e-05
0.0
5000
-1.000000
4631
8
77.7395
56.7996
#DATA
5000	64.2356
4984	64.0893
4968	62.6871
4952	66.3181
4936	64.2807
4920	65.2315
4904	65.2009
4888	64.5087
4872	64.7738
4856	64.804
4840	64.7568
4824	64.5741
4808	64.8247
4792	65.139
4776	65.0662
4760	64.972
4744	65.0883
4728	64.6883
4712	64.7601
4696	64.8395
4680	65.0865
4664	65.1326
4648	65.1656
4632	65.1092
4616	64.8932
4600	65.2188
4584	64.7692
4568	64.6664
4552	64.4574
4536	64.8575
4520	64.6152
4504	64.5959
4488	63.9172
4472	64.4441
4456	63.7767
4440	73.9032
4424	61.0622
4408	64.4765
4392	64.5576
4376	63.9235
4360	64.4457
4344	64.9539
4328	64.4805
4312	64.6421
4296	65.0038
4280	64.8572
4264	64.4234
4248	64.7767
4232	64.6055
4216	64.922
4200	64.7233
4184	65.0831
4168	64.9389
4152	65.2787
4136	64.8477
4120	65.0137
4104	64.8858
4088	64.9046
4072	65.0404
4056	64.892
4040	64.8632
4024	64.9118
4008	65.0583
3992	65.0953
3976	64.897
3960	65.0605
3944	64.8562
3928	65.1352
3912	64.8
3896	64.8777
3880	65.021
3864	64.9684
3848	64.8884
3832	65.0557
3816	64.8624
3800	64.9647
3784	64.9799
3768	65.0243
3752	65.0427
3736	64.9175
3720	65.1418
3704	65.2108
3688	65.1634
3672	65.0079
3656	65.0675
3640	65.2316
3624	64.8977
3608	65.016
3592	65.1289
3576	64.8008
3560	64.9844
3544	64.7166
3528	64.9495
3512	64.8526
3496	65.0334
3480	64.9431
3464	64.9011
3448	64.9397
3432	64.8361
3416	64.9947
3400	65.0222
3384	64.9102
3368	64.7854
3352	65.0704
3336	64.9037
3320	64.7726
3304	64.9311
3288	64.9536
3272	64.925
3256	64.966
3240	64.9474
3224	64.9959
3208	64.7872
3192	65.0589
3176	64.8181
3160	64.8453
3144	64.9214
3128	64.6977
3112	64.8538
3096	64.8882
3080	64.812
3064	64.8122
3048	65.0023
3032	64.8416
3016	64.7366
3000	64.6304
2984	64.8283
2968	64.6707
2952	64.6927
2936	64.7892
2920	64.4859
2904	64.6681
2888	64.6693
2872	64.5968
2856	64.4681
2840	64.7491
2824	64.6806
2808	64.7264
2792	64.6711
2776	64.6823
2760	64.7651
2744	64.6393
2728	64.6917
2712	64.7092
2696	64.6253
2680	64.6549
2664	64.7071
2648	64.7762
2632	64.6542
2616	64.5171
2600	64.5368
2584	64.6661
2568	64.647
2552	64.5493
2536	64.5157
2520	64.514
2504	64.4288
2488	64.5468
2472	64.4722
2456	64.5987
2440	64.4894
2424	64.5504
2408	64.4596
2392	64.5169
2376	64.497
2360	64.5492
2344	64.415
2328	64.4706
2312	64.4705
2296	64.4718
2280	64.2447
2264	64.4603
2248	64.391
2232	64.4051
2216	64.243
2200	64.2334
2184	64.2288
2168	64.279
2152	64.3
2136	64.3027
2120	64.2483
2104	64.2328
2088	64.1804
2072	64.1578
2056	64.186
2040	64.1949
2024	64.024
2008	64.104
1992	64.2087
1976	64.1736
1960	64.1295
1944	63.9811
1928	63.9258
1912	63.9649
1896	64.0258
1880	63.9704
1864	63.8911
1848	64.0159
1832	63.9756
1816	63.8393
1800	63.9083
1784	63.8201
1768	63.8083
1752	63.685
1736	63.4431
1720	63.6057
1704	63.8126
1688	63.7202
1672	63.6364
1656	63.7609
1640	63.7641
1624	63.5549
1608	63.6869
1592	63.6349
1576	63.5482
1560	63.5686
1544	63.6181
1528	63.4246
1512	63.542
1496	63.5154
1480	63.4865
1464	63.4238
1448	63.199
1432	63.2908
1416	63.3305
1400	63.3114
1384	63.3034
1368	63.1773
1352	63.2579
1336	63.0479
1320	63.251
1304	63.2368
1288	63.141
1272	63.1402
1256	62.9623
1240	62.9913
1224	63.0841
1208	62.9328
1192	62.975
1176	62.9661
1160	62.9693
1144	62.9404
1128	62.8967
1112	62.7752
1096	62.9198
1080	62.7679
1064	62.7715
1048	62.7479
1032	62.8091
1016	62.7781
1000	62.8268
984	 62.8468
968	 62.6909
952	 62.5127
936	 62.9232
920	 62.688
904	 62.6505
888	 62.6448
872	 62.6453
856	 62.8879
840	 62.5382
824	 62.6462
808	 62.757
792	 62.5172
776	 62.2774
760	 62.5194
744	 62.544
728	 62.3571
712	 62.1839
696	 62.0517
680	 62.0726
664	 62.0574
648	 62.2922
632	 62.261
616	 62.289
600	 61.9473
584	 61.5703
568	 61.5657
552	 60.5477
536	 61.9023
520	 61.9282
504	 61.5732
488	 62.5278
472	 61.4679
456	 61.5381
440	 59.9535
424	 61.2359
408	 58.1196
392	 59.1744
376	 59.9615
370	 62.5785