File: Bakgrunnsmateriale/MATLAB/FTIR/ftir_data/subAa/Mapping_121/BZ1503107-1_e123.asc
PE IR       SPECTRUM    SPECTRUM    ASCII       PEDS        1.60
  -1
BZD0AE~1.ASC
17/04/07
15:04:00.00
17/04/07
15:04:27.00
tln
$BZ1503107-1_e0123$<ebV0>[-23.3,12.1,10.0,0.0,27,1,0]
27.028
64

2002,4.07
MIRTGS : RIGHTBACK : INTERNAL 2
MIR : ON : INTERNAL 2
OPTKBR

0.200000
8
8.000000
FILLER
SINGLE
SPECTRUM
UNLOCKED 256

DOUBLE

COMBINED
1
0
0

0.002000
BACKG

1
0
TRUE
51149
0
LEFT NOT FITTED RIGHT NOT FITTED 0
NONE
NONE
15600
12
4.427000
51148
TRUE
1 0 8 72 0 0 0 0

15798

#HDR
-1
-1
#GR
µM
EGY
2.38419e-05
0.0
2.000000
0.002000
12515
8
2.463481
0.008559
#DATA
2.000000	 0.770044
2.084000	 0.876148
2.168000	 0.940910
2.252000	 0.998380
2.336000	 1.148569
2.420000	 1.239732
2.504000	 1.400395
2.588000	 1.459091
2.672000	 1.559454
2.756000	 1.582117
2.840000	 1.638177
2.924000	 1.592464
3.008000	 1.695353
3.092000	 1.792773
3.176000	 1.824117
3.260000	 1.942373
3.344000	 2.039406
3.428000	 1.845537
3.512000	 2.023983
3.596000	 2.228135
3.680000	 2.262674
3.764000	 2.227589
3.848000	 2.235182
3.932000	 2.306032
4.016000	 2.335080
4.100000	 2.295358
4.184000	 2.253840
4.268000	 2.269142
4.352000	 2.349900
4.436000	 2.388826
4.520000	 2.376855
4.604000	 2.345385
4.688000	 2.340100
4.772000	 2.345076
4.856000	 2.391403
4.940000	 2.446664
5.024000	 2.462601
5.108000	 2.435132
5.192000	 2.407422
5.276000	 2.378343
5.359999	 2.385528
5.444000	 2.410659
5.528000	 2.435532
5.612000	 2.434920
5.696000	 2.405463
5.780000	 2.331653
5.864000	 2.285977
5.948000	 2.242570
6.032000	 2.196147
6.116000	 2.144163
6.200000	 2.012224
6.284000	 2.021338
6.368000	 1.984692
6.452000	 1.962281
6.536000	 2.101805
6.620000	 2.083460
6.704000	 1.692033
6.788000	 1.976933
6.872000	 1.792144
6.956000	 1.861946
7.040000	 1.858781
7.124000	 1.728373
7.208000	 1.790516
7.292000	 1.815285
7.376000	 1.819515
7.460000	 1.816839
7.544000	 1.850890
7.628000	 1.857495
7.712000	 1.858667
7.796000	 1.853252
7.880000	 1.775774
7.964000	 1.762886
8.048000	 1.835571
8.132000	 1.828108
8.216000	 1.785887
8.300000	 1.748051
8.384000	 1.742762
8.468000	 1.714734
8.552000	 1.675995
8.635999	 1.623691
8.719999	 1.605150
8.804000	 1.576225
8.888000	 1.529138
8.972000	 1.471572
9.056000	 1.433407
9.140000	 1.426149
9.224000	 1.430070
9.308000	 1.429177
9.391999	 1.437198
9.475999	 1.357905
9.560000	 1.326219
9.644000	 1.386331
9.728000	 1.368166
9.812000	 1.360329
9.896000	 1.380817
9.980000	 1.397463
10.064	1.396360
10.148	1.386398
10.232	1.368609
10.316	1.348500
10.4	1.321246
10.484	1.292671
10.568	1.271433
10.652	1.258470
10.736	1.241242
10.82	1.224976
10.904	1.205104
10.988	1.178537
11.072	1.160814
11.156	1.150528
11.24	1.129522
11.324	1.077739
11.408	1.030266
11.492	1.047361
11.576	1.083193
11.66	1.093837
11.744	1.087765
11.828	1.079777
11.912	1.057092
11.996	0.991528
12.08	0.882591
12.164	0.853476
12.248	0.916749
12.332	0.948213
12.416	0.947826
12.5	0.944924
12.584	0.950924
12.668	0.965403
12.752	0.975969
12.836	0.979465
12.92	0.977248
13.004	0.972313
13.088	0.968312
13.172	0.964265
13.256	0.960532
13.34	0.954345
13.424	0.944545
13.508	0.935048
13.592	0.924690
13.676	0.911790
13.76	0.898498
13.844	0.886062
13.928	0.874847
14.012	0.863978
14.096	0.850806
14.18	0.835634
14.264	0.819463
14.348	0.798362
14.432	0.767904
14.516	0.739481
14.6	0.731668
14.684	0.736533
14.768	0.735906
14.852	0.729073
14.936	0.720027
15.02	0.710846
15.104	0.703386
15.188	0.695507
15.272	0.685925
15.356	0.676826
15.44	0.668297
15.524	0.658046
15.608	0.646411
15.692	0.635715
15.776	0.626068
15.86	0.616701
15.944	0.607629
16.028	0.599209
16.112	0.591844
16.196	0.584217
16.28	0.572460
16.364	0.555281
16.448	0.537686
16.532	0.526218
16.616	0.521687
16.7	0.520037
16.784	0.518370
16.868	0.516480
16.952	0.514603
17.036	0.512330
17.12	0.509413
17.204	0.505870
17.288	0.502019
17.372	0.498492
17.456	0.495726
17.54	0.493681
17.624	0.491714
17.708	0.488781
17.792	0.484325
17.876	0.478773
17.96	0.472945
18.044	0.467418
18.128	0.462630
18.212	0.458971
18.296	0.456105
18.38	0.453364
18.464	0.450078
18.548	0.445738
18.632	0.440660
18.716	0.435274
18.8	0.429786
18.884	0.424017
18.968	0.417874
19.052	0.411645
19.136	0.405859
19.22	0.400686
19.304	0.396021
19.388	0.391389
19.472	0.386514
19.556	0.381195
19.64	0.375436
19.724	0.369252
19.808	0.362758
19.892	0.356044
19.976	0.349256
20.06	0.342432
20.144	0.335594
20.228	0.328603
20.312	0.321514
20.396	0.314299
20.48	0.307029
20.564	0.299482
20.648	0.291705
20.732	0.283807
20.816	0.276340
20.9	0.269794
20.984	0.264249
21.068	0.259450
21.152	0.254841
21.236	0.249993
21.32	0.244698
21.404	0.238961
21.488	0.232788
21.572	0.226246
21.656	0.219442
21.74	0.212502
21.824	0.205614
21.908	0.198908
21.992	0.192534
22.076	0.186496
22.16	0.180790
22.244	0.175438
22.328	0.170479
22.412	0.165993
22.496	0.161893
22.58	0.158085
22.664	0.154355
22.748	0.150467
22.832	0.146122
22.916	0.141262
23	0.135959
23.084	0.130365
23.168	0.124789
23.252	0.119331
23.336	0.114146
23.42	0.109197
23.504	0.104390
23.588	0.099701
23.672	0.095023
23.756	0.090410
23.84	0.085889
23.924	0.081534
24.008	0.077294
24.092	0.073234
24.176	0.069328
24.26	0.065640
24.344	0.062087
24.428	0.058726
24.512	0.055543
24.596	0.052608
24.68	0.049873
24.764	0.047312
24.848	0.044832
24.932	0.042412
25.016	0.039939
25.1	0.037424
25.184	0.034863
25.268	0.032325
25.352	0.029911
25.436	0.027614
25.52	0.025484
25.604	0.023486
25.688	0.021638
25.772	0.019931
25.856	0.018389
25.94	0.017072
26.024	0.015944
26.108	0.015059
26.192	0.014392
26.276	0.013839
26.36	0.013383
26.444	0.012957
26.528	0.012476
26.612	0.011959
26.696	0.011368
26.78	0.010691
26.864	0.009994
26.948	0.009281
27.028	0.008559