File: Bakgrunnsmateriale/MATLAB/FTIR/ftir_data/subAa/Mapping_121/BZ1503107-1_e126_cm-1.asc
PE IR       SPECTRUM    SPECTRUM    ASCII       PEDS        1.60
  -1
BZ0979~1.ASC
17/04/07
20:31:16.00
17/04/07
20:31:16.00
tln
$BZ1503107-1_e0126$<ebV0>[-23.3,12.1,10.0,0.0,27,1,0]
370
64

2002,4.07
MIRTGS : RIGHTBACK : INTERNAL 2
MIR : ON : INTERNAL 2
OPTKBR

0.200000
8
8.000000
FILLER
SINGLE
SPECTRUM
UNLOCKED 256

DOUBLE

COMBINED
1
0
0

1.000000
BACKG

1
0
TRUE
51149
0
LEFT NOT FITTED RIGHT NOT FITTED 0
NONE
NONE
15600
12
4.427000
51148
TRUE
1 0 8 72 0 0 0 0

15798

#HDR
-1
-1
#GR
CM-1
EGY
2.38419e-05
0.0
5000
-1.000000
4631
8
2.464175
0.007677
#DATA
5000	0.780081
4984	0.792717
4968	0.798869
4952	0.780010
4936	0.803446
4920	0.808691
4904	0.811266
4888	0.824570
4872	0.831627
4856	0.840020
4840	0.850248
4824	0.859713
4808	0.869154
4792	0.878739
4776	0.888967
4760	0.897645
4744	0.904417
4728	0.911164
4712	0.913190
4696	0.917124
4680	0.914168
4664	0.917315
4648	0.922465
4632	0.927281
4616	0.937557
4600	0.948739
4584	0.960659
4568	0.972318
4552	0.987744
4536	0.996637
4520	1.006221
4504	1.014328
4488	1.027250
4472	1.024317
4456	1.001811
4440	0.823879
4424	1.041626
4408	1.042485
4392	1.053786
4376	1.059007
4360	1.063442
4344	1.080489
4328	1.097989
4312	1.118230
4296	1.135182
4280	1.152896
4264	1.170301
4248	1.177549
4232	1.191592
4216	1.199579
4200	1.204490
4184	1.209878
4168	1.216816
4152	1.226353
4136	1.240372
4120	1.254391
4104	1.269507
4088	1.289319
4072	1.310992
4056	1.336216
4040	1.356506
4024	1.375913
4008	1.395535
3992	1.406931
3976	1.419663
3960	1.425409
3944	1.434469
3928	1.432585
3912	1.443004
3896	1.444935
3880	1.453518
3864	1.461482
3848	1.474142
3832	1.492404
3816	1.509141
3800	1.528358
3784	1.551699
3768	1.562643
3752	1.558589
3736	1.570677
3720	1.582479
3704	1.585459
3688	1.578497
3672	1.576352
3656	1.584744
3640	1.589035
3624	1.591563
3608	1.596760
3592	1.603770
3576	1.620221
3560	1.627635
3544	1.638078
3528	1.634812
3512	1.640748
3496	1.632761
3480	1.625633
3464	1.617455
3448	1.608037
3432	1.595950
3416	1.597642
3400	1.609301
3384	1.617479
3368	1.633572
3352	1.656603
3336	1.681399
3320	1.705503
3304	1.727032
3288	1.748466
3272	1.767420
3256	1.780033
3240	1.791429
3224	1.799869
3208	1.802206
3192	1.803255
3176	1.806855
3160	1.816487
3144	1.829743
3128	1.847434
3112	1.868224
3096	1.894736
3080	1.930546
3064	1.950216
3048	1.973128
3032	1.990294
3016	1.976442
3000	2.037262
2984	2.038717
2968	1.972007
2952	1.932692
2936	1.824259
2920	1.810622
2904	1.955699
2888	2.009129
2872	1.996064
2856	1.938867
2840	2.082657
2824	2.140736
2808	2.179837
2792	2.207255
2776	2.235364
2760	2.254652
2744	2.265000
2728	2.265596
2712	2.261853
2696	2.254080
2680	2.246499
2664	2.235341
2648	2.224588
2632	2.226972
2616	2.232003
2600	2.237892
2584	2.249503
2568	2.274131
2552	2.295565
2536	2.314853
2520	2.329134
2504	2.337646
2488	2.334690
2472	2.326965
2456	2.310395
2440	2.298188
2424	2.278017
2408	2.268362
2392	2.257943
2376	2.248835
2360	2.242541
2344	2.272224
2328	2.291917
2312	2.325367
2296	2.351212
2280	2.372646
2264	2.383089
2248	2.387261
2232	2.386808
2216	2.379655
2200	2.368903
2184	2.354145
2168	2.343630
2152	2.341985
2136	2.340722
2120	2.342867
2104	2.346205
2088	2.347254
2072	2.366924
2056	2.395367
2040	2.431416
2024	2.450942
2008	2.462577
1992	2.460384
1976	2.452230
1960	2.437067
1944	2.426528
1928	2.413034
1912	2.392172
1896	2.376317
1880	2.382302
1864	2.388191
1848	2.400255
1832	2.412223
1816	2.429533
1800	2.435421
1784	2.436876
1768	2.418637
1752	2.393960
1736	2.333450
1720	2.314066
1704	2.279853
1688	2.255821
1672	2.232956
1656	2.183508
1640	2.158164
1624	2.111077
1608	1.975440
1592	2.018070
1576	1.989030
1560	1.935243
1544	1.962280
1528	2.111697
1512	2.095150
1496	1.703715
1480	1.962780
1464	1.939320
1448	1.786398
1432	1.872301
1416	1.845216
1400	1.733827
1384	1.787734
1368	1.819014
1352	1.818299
1336	1.830434
1320	1.854228
1304	1.857686
1288	1.857805
1272	1.808071
1256	1.758956
1240	1.836752
1224	1.813411
1208	1.749658
1192	1.740860
1176	1.700401
1160	1.631402
1144	1.597595
1128	1.541996
1112	1.459789
1096	1.423954
1080	1.430726
1064	1.437139
1048	1.307797
1032	1.379013
1016	1.368880
1000	1.402878
984	 1.382136
968	 1.343846
952	 1.288199
936	 1.251626
920	 1.215529
904	 1.163291
888	 1.121211
872	 1.038002
856	 1.093888
840	 1.061511
824	 0.847339
808	 0.948119
792	 0.959396
776	 0.979137
760	 0.964856
744	 0.940418
728	 0.901293
712	 0.857830
696	 0.792765
680	 0.735831
664	 0.707197
648	 0.665378
632	 0.622129
616	 0.579500
600	 0.523757
584	 0.508308
568	 0.490927
552	 0.464057
536	 0.439572
520	 0.398325
504	 0.361108
488	 0.300502
472	 0.251221
456	 0.195956
440	 0.151157
424	 0.099039
408	 0.056624
392	 0.026893
376	 0.011491
370	 0.007677