File: Bakgrunnsmateriale/MATLAB/FTIR/ftir_data/subAa/Mapping_121/BZ1503107-1_t97_cm-1.asc
PE IR       SPECTRUM    SPECTRUM    ASCII       PEDS        1.60
  -1
BZ6FA5~1.ASC
17/04/07
21:13:43.00
17/04/07
21:13:43.00
tln
$BZ1503107-1_t0097$<tbV0>[-7.8,7.8,8.0,0.0,27,1,0]
370
64

2002,4.07
MIRTGS : RIGHTBACK : INTERNAL 2
MIR : ON : INTERNAL 2
OPTKBR

0.200000
8
8.000000
FILLER
RATIO
SPECTRUM
UNLOCKED 256

DOUBLE
64
COMBINED
1
0
0

1.000000
RATIO

1
0
TRUE
51149
0
LEFT NOT FITTED RIGHT NOT FITTED 0
NONE
NONE
15600
12
4.427000
51148
TRUE
1 0 8 72 0 0 0 0

15798

#HDR
-1
-1
#GR
CM-1
%T
2.38419e-05
0.0
5000
-1.000000
4631
8
71.0617
40.1491
#DATA
5000	63.5048
4984	63.2047
4968	63.7419
4952	65.5024
4936	63.6238
4920	64.4264
4904	64.0579
4888	63.9692
4872	63.8115
4856	63.6563
4840	63.5131
4824	63.6615
4808	64.2523
4792	64.0234
4776	63.8878
4760	63.6517
4744	63.8243
4728	63.8487
4712	64.1589
4696	63.6584
4680	64.22
4664	64.4247
4648	63.8429
4632	64.1648
4616	64.1866
4600	64.2687
4584	63.8212
4568	64.1534
4552	63.6976
4536	64.2376
4520	64.2251
4504	63.5836
4488	63.3808
4472	63.4444
4456	65.1585
4440	64.0411
4424	65.9174
4408	64.3797
4392	63.2511
4376	64.1841
4360	64.1311
4344	63.907
4328	63.9587
4312	63.6082
4296	63.8243
4280	63.9532
4264	63.7491
4248	64.0675
4232	63.9355
4216	63.9286
4200	63.8309
4184	64.1761
4168	64.3705
4152	64.0268
4136	64.0612
4120	64.0611
4104	63.981
4088	64.1239
4072	64.1683
4056	63.9775
4040	64.194
4024	63.9926
4008	63.8561
3992	63.9912
3976	63.9354
3960	63.9171
3944	64.122
3928	64.2596
3912	63.9128
3896	64.2064
3880	63.9304
3864	64.1625
3848	64.1087
3832	64.2929
3816	64.1275
3800	63.778
3784	64.1099
3768	64.2253
3752	64.2117
3736	64.1368
3720	64.1801
3704	64.1911
3688	64.2286
3672	64.2925
3656	64.0908
3640	64.1533
3624	64.0883
3608	64.264
3592	64.3084
3576	64.0788
3560	64.0091
3544	63.9143
3528	64.2861
3512	64.0202
3496	64.2552
3480	64.3783
3464	64.155
3448	64.068
3432	64.185
3416	64.1241
3400	64.0286
3384	64.1703
3368	64.0558
3352	64.0918
3336	64.1419
3320	64.0157
3304	64.156
3288	64.1653
3272	63.9987
3256	64.2099
3240	64.0694
3224	64.1265
3208	63.9574
3192	64.0711
3176	64.043
3160	63.9433
3144	63.9788
3128	64.0239
3112	64.0874
3096	63.999
3080	63.9385
3064	64.0431
3048	64.1574
3032	63.9907
3016	64.1082
3000	64.1092
2984	63.9671
2968	63.8498
2952	63.8035
2936	63.872
2920	63.8971
2904	63.9195
2888	64.0367
2872	63.8448
2856	63.9082
2840	63.9115
2824	63.9666
2808	63.9633
2792	64.0024
2776	64.109
2760	64.0879
2744	63.8813
2728	64.0095
2712	64.0274
2696	64.0619
2680	63.9839
2664	64.0023
2648	64.0528
2632	63.929
2616	63.9334
2600	63.9017
2584	63.8989
2568	63.9038
2552	63.8654
2536	63.8462
2520	63.8264
2504	63.8063
2488	63.9108
2472	63.8234
2456	63.8237
2440	63.821
2424	63.8089
2408	63.7413
2392	63.7792
2376	63.7275
2360	63.8728
2344	63.6913
2328	63.7643
2312	63.6571
2296	63.8399
2280	63.748
2264	63.722
2248	63.9125
2232	63.6864
2216	63.6794
2200	63.6946
2184	63.6253
2168	63.725
2152	63.6142
2136	63.7042
2120	63.6227
2104	63.6622
2088	63.6343
2072	63.5291
2056	63.7428
2040	63.5696
2024	63.519
2008	63.5296
1992	63.5892
1976	63.5528
1960	63.5444
1944	63.4429
1928	63.4053
1912	63.4558
1896	63.4748
1880	63.4219
1864	63.4679
1848	63.3964
1832	63.5029
1816	63.4451
1800	63.3812
1784	63.3716
1768	63.333
1752	63.1456
1736	62.906
1720	63.0796
1704	63.1937
1688	63.1619
1672	63.0887
1656	63.2502
1640	63.2105
1624	63.1844
1608	63.1705
1592	63.2558
1576	63.1215
1560	63.2159
1544	63.1201
1528	63.1007
1512	63.1197
1496	63.0994
1480	63.0022
1464	62.8382
1448	62.884
1432	63.0019
1416	62.9334
1400	62.925
1384	62.9398
1368	62.8425
1352	62.8792
1336	62.8255
1320	62.8946
1304	62.8441
1288	62.7153
1272	62.6408
1256	62.7648
1240	62.7509
1224	62.8317
1208	62.7312
1192	62.7119
1176	62.6697
1160	62.5308
1144	62.7054
1128	62.5839
1112	62.596
1096	62.8139
1080	62.3578
1064	62.5612
1048	62.4836
1032	62.6117
1016	62.489
1000	62.4696
984	 62.7227
968	 62.6348
952	 62.4035
936	 62.545
920	 62.6011
904	 62.5804
888	 62.3724
872	 62.5159
856	 62.6144
840	 62.4254
824	 62.5012
808	 62.568
792	 62.7517
776	 62.2462
760	 62.2953
744	 62.4511
728	 62.2599
712	 62.2093
696	 62.1333
680	 61.9981
664	 61.9926
648	 61.9442
632	 61.9574
616	 61.757
600	 62.276
584	 61.6479
568	 61.9537
552	 62.205
536	 62.6403
520	 61.7878
504	 62.6473
488	 61.9775
472	 62.5881
456	 61.6292
440	 60.5583
424	 61.488
408	 66.1409
392	 61.6563
376	 64.2595
370	 40.1491