File: Bakgrunnsmateriale/MATLAB/FTIR/ftir_data/subAa/Mapping_121/BZ1503107-1_t28_cm-1.asc
PE IR       SPECTRUM    SPECTRUM    ASCII       PEDS        1.60
  -1
BZ6033~1.ASC
17/04/07
15:32:57.00
17/04/07
15:32:57.00
tln
$BZ1503107-1_t0028$<tbV0>[0.0,-7.8,8.0,0.0,27,1,0]
370
64

2002,4.07
MIRTGS : RIGHTBACK : INTERNAL 2
MIR : ON : INTERNAL 2
OPTKBR

0.200000
8
8.000000
FILLER
RATIO
SPECTRUM
UNLOCKED 256

DOUBLE
64
COMBINED
1
0
0

1.000000
RATIO

1
0
TRUE
51149
0
LEFT NOT FITTED RIGHT NOT FITTED 0
NONE
NONE
15600
12
4.427000
51148
TRUE
1 0 8 72 0 0 0 0

15798

#HDR
-1
-1
#GR
CM-1
%T
2.38419e-05
0.0
5000
-1.000000
4631
8
76.5192
54.583
#DATA
5000	65.5046
4984	64.9658
4968	64.6512
4952	64.3014
4936	64.4835
4920	64.9981
4904	64.5289
4888	65.1399
4872	65.0806
4856	64.8961
4840	64.6759
4824	64.7549
4808	64.6069
4792	64.5682
4776	64.4847
4760	65.1762
4744	65.0317
4728	65.0418
4712	65.3939
4696	64.8951
4680	65.0491
4664	64.9764
4648	65.0546
4632	64.5711
4616	64.8898
4600	64.6449
4584	64.8515
4568	64.7062
4552	64.4557
4536	64.8557
4520	65.0361
4504	64.6404
4488	64.6678
4472	64.1012
4456	64.588
4440	65.7029
4424	71.4978
4408	67.7825
4392	64.0048
4376	65.0905
4360	64.3818
4344	64.7573
4328	64.514
4312	64.9484
4296	64.8596
4280	64.9979
4264	64.7542
4248	64.5259
4232	64.9986
4216	65.0335
4200	65.1119
4184	64.7541
4168	64.786
4152	65.0581
4136	65.0237
4120	65.1049
4104	65.046
4088	65.1838
4072	64.9335
4056	64.8023
4040	65.049
4024	65.0689
4008	65.2684
3992	65.09
3976	65.0895
3960	65.1633
3944	65.0111
3928	65.1799
3912	65.237
3896	65.1385
3880	64.9487
3864	65.1789
3848	65.131
3832	65.1976
3816	65.1069
3800	65.4285
3784	65.0545
3768	65.2035
3752	65.2148
3736	65.0692
3720	65.3114
3704	65.1859
3688	65.0334
3672	65.0809
3656	65.1571
3640	65.066
3624	65.0439
3608	65.2201
3592	65.1449
3576	64.903
3560	65.014
3544	65.0048
3528	65.0178
3512	65.1559
3496	65.0135
3480	65.0827
3464	64.8388
3448	65.1196
3432	65.0933
3416	65.0422
3400	65.1552
3384	65.1177
3368	65.0902
3352	65.3612
3336	65.3352
3320	65.1045
3304	65.1565
3288	64.9351
3272	65.2585
3256	64.9481
3240	64.9854
3224	65.1379
3208	65.16
3192	64.9165
3176	64.918
3160	65.0311
3144	64.9087
3128	64.9359
3112	65.0075
3096	65.2564
3080	65.0926
3064	65.1091
3048	65.1212
3032	64.992
3016	64.8617
3000	65.19
2984	65.1738
2968	64.9379
2952	65.018
2936	64.9544
2920	64.9155
2904	64.9792
2888	64.9401
2872	65.0176
2856	64.8764
2840	64.974
2824	65.0468
2808	65.0239
2792	65.0679
2776	65.0832
2760	65.059
2744	65.045
2728	64.9446
2712	64.9429
2696	65.1277
2680	65.0304
2664	64.9415
2648	64.931
2632	64.9528
2616	64.9229
2600	64.897
2584	64.9504
2568	64.9976
2552	64.9823
2536	64.9616
2520	64.9472
2504	65.0275
2488	64.9894
2472	64.9448
2456	64.8942
2440	64.9304
2424	64.9901
2408	64.9095
2392	65.0653
2376	64.9789
2360	64.9167
2344	64.8539
2328	64.8758
2312	64.9445
2296	64.9009
2280	64.9042
2264	64.8193
2248	64.8197
2232	64.9211
2216	64.9141
2200	64.8478
2184	64.9602
2168	64.7306
2152	64.7514
2136	64.7922
2120	64.7702
2104	64.8633
2088	64.7733
2072	64.658
2056	64.7697
2040	64.8106
2024	64.8246
2008	64.8325
1992	64.7253
1976	64.7092
1960	64.7361
1944	64.8797
1928	64.6527
1912	64.6058
1896	64.6781
1880	64.7017
1864	64.6731
1848	64.748
1832	64.6523
1816	64.6943
1800	64.7077
1784	64.6153
1768	64.6291
1752	64.4137
1736	64.3064
1720	64.4201
1704	64.5484
1688	64.6692
1672	64.6178
1656	64.3423
1640	64.5362
1624	64.4017
1608	64.4591
1592	64.3764
1576	64.5387
1560	64.6638
1544	64.4177
1528	64.4543
1512	64.5336
1496	64.4534
1480	64.4516
1464	64.3983
1448	64.2373
1432	64.4469
1416	64.3401
1400	64.2572
1384	64.3586
1368	64.3481
1352	64.1594
1336	64.314
1320	64.2797
1304	64.2428
1288	64.2104
1272	64.1524
1256	64.2311
1240	64.1378
1224	64.2227
1208	64.1348
1192	63.9682
1176	64.1797
1160	64.2526
1144	64.099
1128	63.9573
1112	64.0465
1096	64.1193
1080	64.0747
1064	64.1216
1048	64.0602
1032	64.0323
1016	64.2428
1000	64.0852
984	 64.1582
968	 64.2304
952	 64.0837
936	 64.1101
920	 64.2806
904	 64.1763
888	 64.2942
872	 64.0491
856	 64.1283
840	 63.9434
824	 63.9378
808	 64.0255
792	 64.179
776	 63.9834
760	 63.8868
744	 63.9698
728	 63.7137
712	 63.5785
696	 64.0087
680	 63.9146
664	 63.7205
648	 62.917
632	 64.1812
616	 63.5783
600	 64.8166
584	 64.3744
568	 64.1314
552	 64.1683
536	 64.0627
520	 63.5174
504	 64.4072
488	 64.4774
472	 62.7733
456	 63.5818
440	 61.4706
424	 60.9406
408	 63.5999
392	 59.2756
376	 62.2565
370	 60.6462