File: Bakgrunnsmateriale/MATLAB/FTIR/ftir_data/subAa/Mapping_121/BZ1503107-1_t74_cm-1.asc
PE IR       SPECTRUM    SPECTRUM    ASCII       PEDS        1.60
  -1
BZ6CA6~1.ASC
17/04/07
19:20:23.00
17/04/07
19:20:23.00
tln
$BZ1503107-1_t0074$<tbV0>[-5.2,2.6,8.0,0.0,27,1,0]
370
64

2002,4.07
MIRTGS : RIGHTBACK : INTERNAL 2
MIR : ON : INTERNAL 2
OPTKBR

0.200000
8
8.000000
FILLER
RATIO
SPECTRUM
UNLOCKED 256

DOUBLE
64
COMBINED
1
0
0

1.000000
RATIO

1
0
TRUE
51149
0
LEFT NOT FITTED RIGHT NOT FITTED 0
NONE
NONE
15600
12
4.427000
51148
TRUE
1 0 8 72 0 0 0 0

15798

#HDR
-1
-1
#GR
CM-1
%T
2.38419e-05
0.0
5000
-1.000000
4631
8
136.5
54.4048
#DATA
5000	65.3928
4984	64.805
4968	64.0853
4952	64.7455
4936	64.828
4920	64.5487
4904	64.7022
4888	65.0268
4872	64.8215
4856	64.7797
4840	64.1533
4824	64.4189
4808	64.67
4792	64.6217
4776	64.5864
4760	64.6944
4744	64.9613
4728	64.6869
4712	64.4468
4696	64.5293
4680	64.2363
4664	64.7708
4648	64.8548
4632	64.6143
4616	65.403
4600	65.1975
4584	64.9766
4568	65.1145
4552	64.7722
4536	65.2161
4520	65.3434
4504	65.064
4488	65.4465
4472	65.1271
4456	65.1215
4440	64.5886
4424	59.0716
4408	63.4659
4392	65.691
4376	65.1933
4360	65.221
4344	64.9573
4328	65.0926
4312	62.252
4296	64.6283
4280	64.8747
4264	64.8167
4248	64.8013
4232	65.2496
4216	64.8918
4200	64.7673
4184	64.8521
4168	64.3825
4152	64.9253
4136	64.7865
4120	64.8419
4104	64.4868
4088	64.7066
4072	64.5917
4056	64.8906
4040	64.7958
4024	64.985
4008	65.0259
3992	64.7999
3976	64.9053
3960	64.916
3944	65.0555
3928	64.6443
3912	65.2131
3896	65.374
3880	64.8037
3864	65.1916
3848	64.9505
3832	65.1651
3816	64.7437
3800	65.1366
3784	65.3082
3768	64.8175
3752	64.9287
3736	65.3491
3720	64.7551
3704	64.7326
3688	64.9668
3672	64.9111
3656	65.2336
3640	64.9863
3624	64.9132
3608	64.9644
3592	64.8157
3576	64.926
3560	64.9076
3544	65.1468
3528	64.8238
3512	65.133
3496	64.7976
3480	64.9816
3464	65.1766
3448	64.9458
3432	64.9895
3416	64.8293
3400	64.8234
3384	64.9171
3368	64.943
3352	64.9905
3336	65.0418
3320	65.2277
3304	65.1889
3288	64.7604
3272	64.7949
3256	64.6872
3240	66.5707
3224	65.4778
3208	64.5727
3192	64.9967
3176	64.9033
3160	64.8441
3144	64.9314
3128	64.8237
3112	65.1734
3096	64.9506
3080	64.9108
3064	64.9222
3048	64.9788
3032	64.8586
3016	64.8233
3000	64.7882
2984	65.0532
2968	64.9859
2952	64.4457
2936	64.6988
2920	64.8768
2904	64.5494
2888	64.7865
2872	64.8394
2856	64.8799
2840	64.85
2824	64.6665
2808	64.8995
2792	64.7696
2776	64.9144
2760	64.8876
2744	64.8473
2728	64.7751
2712	64.8664
2696	64.7182
2680	64.8879
2664	64.8489
2648	64.6559
2632	64.6455
2616	64.8468
2600	64.6338
2584	64.6135
2568	64.5496
2552	64.5832
2536	64.5943
2520	64.7281
2504	64.8373
2488	64.6322
2472	64.7732
2456	64.5775
2440	64.5811
2424	64.5873
2408	64.8967
2392	64.5714
2376	64.542
2360	64.537
2344	64.5362
2328	64.4733
2312	64.6265
2296	64.4861
2280	64.4928
2264	64.5945
2248	64.6214
2232	64.6698
2216	64.4964
2200	64.5246
2184	64.647
2168	65.5597
2152	65.1356
2136	64.6965
2120	64.2731
2104	64.4424
2088	64.3535
2072	64.303
2056	64.4759
2040	64.4521
2024	64.3473
2008	64.4621
1992	64.3054
1976	64.3837
1960	64.3701
1944	64.4045
1928	64.3709
1912	64.3253
1896	64.2499
1880	64.2964
1864	64.3848
1848	64.3336
1832	64.1418
1816	64.1968
1800	64.1883
1784	64.1621
1768	64.22
1752	63.9124
1736	63.8237
1720	63.9345
1704	63.9222
1688	63.979
1672	63.9526
1656	63.9925
1640	63.8218
1624	64.133
1608	64.2035
1592	63.957
1576	63.968
1560	63.7777
1544	63.9972
1528	63.9162
1512	63.8656
1496	63.6578
1480	63.8384
1464	63.6726
1448	63.5915
1432	63.919
1416	63.6567
1400	63.7149
1384	63.7843
1368	63.7822
1352	63.5788
1336	63.7616
1320	63.8547
1304	63.4798
1288	63.4409
1272	63.606
1256	63.7194
1240	63.6818
1224	63.8158
1208	63.6203
1192	63.561
1176	63.3155
1160	63.3576
1144	63.2194
1128	63.6147
1112	63.7183
1096	63.9122
1080	58.9659
1064	63.5417
1048	63.2243
1032	63.3538
1016	63.8218
1000	63.505
984	 63.604
968	 63.0983
952	 63.5249
936	 63.3716
920	 62.9966
904	 63.2152
888	 63.2156
872	 63.626
856	 63.37
840	 63.118
824	 63.5104
808	 63.0199
792	 63.1263
776	 63.5341
760	 62.922
744	 63.1771
728	 63.3429
712	 62.9641
696	 61.5322
680	 63.6766
664	 61.7042
648	 62.7628
632	 62.0672
616	 62.8223
600	 63.7956
584	 62.2013
568	 62.5631
552	 63.1808
536	 62.631
520	 62.401
504	 62.2917
488	 62.1345
472	 62.3031
456	 60.159
440	 63.1705
424	 65.1093
408	 63.3646
392	 59.6194
376	 99.2155
370	 136.274