File: Bakgrunnsmateriale/MATLAB/FTIR/ftir_data/subAa/Mapping_121/BZ1503107-1_t35.asc
PE IR       SPECTRUM    SPECTRUM    ASCII       PEDS        1.60
  -1
BZ2D57~1.ASC
17/04/07
16:05:54.00
17/04/07
16:06:20.00
tln
$BZ1503107-1_t0035$<tbV0>[10.4,-5.2,8.0,0.0,27,1,0]
27.028
64

2002,4.07
MIRTGS : RIGHTBACK : INTERNAL 2
MIR : ON : INTERNAL 2
OPTKBR

0.200000
8
8.000000
FILLER
RATIO
SPECTRUM
UNLOCKED 256

DOUBLE
64
COMBINED
1
0
0

0.002000
RATIO

1
0
TRUE
51149
0
LEFT NOT FITTED RIGHT NOT FITTED 0
NONE
NONE
15600
12
4.427000
51148
TRUE
1 0 8 72 0 0 0 0

15798

#HDR
-1
-1
#GR
µM
%T
2.38419e-05
0.0
2.000000
0.002000
12515
8
86.3484
53.5418
#DATA
2.000000	 65.2747
2.084000	 65.6102
2.168000	 64.728
2.252000	 65.5762
2.336000	 64.545
2.420000	 65.211
2.504000	 65.4351
2.588000	 65.1041
2.672000	 65.1894
2.756000	 65.2738
2.840000	 65.0474
2.924000	 65.431
3.008000	 65.1481
3.092000	 65.1323
3.176000	 64.962
3.260000	 65.0049
3.344000	 65.104
3.428000	 65.1643
3.512000	 65.0041
3.596000	 65.1025
3.680000	 64.9719
3.764000	 65.0992
3.848000	 65.0472
3.932000	 65.0115
4.016000	 64.8854
4.100000	 64.9659
4.184000	 65.0709
4.268000	 64.9738
4.352000	 64.8922
4.436000	 64.8847
4.520000	 64.8037
4.604000	 64.8218
4.688000	 64.7286
4.772000	 64.7813
4.856000	 64.6971
4.940000	 64.881
5.024000	 64.7427
5.108000	 64.8595
5.192000	 64.6842
5.276000	 64.6415
5.359999	 64.7111
5.444000	 64.7612
5.528000	 64.6858
5.612000	 64.6265
5.696000	 64.4866
5.780000	 64.3274
5.864000	 64.3923
5.948000	 64.607
6.032000	 64.4297
6.116000	 64.4086
6.200000	 64.4042
6.284000	 64.484
6.368000	 64.3779
6.452000	 64.33
6.536000	 64.4261
6.620000	 64.5526
6.704000	 64.3785
6.788000	 64.336
6.872000	 64.3503
6.956000	 64.4832
7.040000	 64.2732
7.124000	 64.3812
7.208000	 64.2805
7.292000	 64.4102
7.376000	 64.2493
7.460000	 64.3906
7.544000	 64.2606
7.628000	 64.3272
7.712000	 64.2644
7.796000	 64.1983
7.880000	 64.2919
7.964000	 64.2214
8.048000	 64.1295
8.132000	 64.1027
8.216000	 64.1111
8.300000	 64.0152
8.384000	 64.2017
8.468000	 64.1731
8.552000	 63.9813
8.635999	 64.1014
8.719999	 64.0686
8.804000	 64.022
8.888000	 63.8901
8.972000	 64.0357
9.056000	 64.0242
9.140000	 63.9635
9.224000	 63.8583
9.308000	 64.182
9.391999	 64.0366
9.475999	 64.0285
9.560000	 64.0175
9.644000	 63.9942
9.728000	 63.9793
9.812000	 63.9141
9.896000	 63.9765
9.980000	 64.0927
10.064	64.1489
10.148	63.9773
10.232	64.167
10.316	63.9853
10.4	63.9979
10.484	63.9521
10.568	64.1054
10.652	64.0232
10.736	63.9689
10.82	63.9924
10.904	64.1651
10.988	64.1153
11.072	63.9502
11.156	63.878
11.24	64.1646
11.324	64.3515
11.408	64.3408
11.492	63.9505
11.576	64.0139
11.66	64.1191
11.744	64.0466
11.828	63.8087
11.912	63.9231
11.996	64.1292
12.08	64.0973
12.164	64.0031
12.248	63.8766
12.332	64.0569
12.416	64.1778
12.5	64.095
12.584	64.1837
12.668	64.1521
12.752	64.0761
12.836	64.1018
12.92	64.1767
13.004	63.9989
13.088	63.7467
13.172	64.0054
13.256	64.0229
13.34	63.8172
13.424	63.8533
13.508	63.4933
13.592	62.9921
13.676	62.8293
13.76	62.8902
13.844	63.3783
13.928	64.0122
14.012	63.8579
14.096	63.3163
14.18	63.0557
14.264	63.268
14.348	64.0499
14.432	64.7377
14.516	64.4861
14.6	63.556
14.684	62.6831
14.768	62.6807
14.852	63.3605
14.936	63.71
15.02	63.6307
15.104	63.2529
15.188	62.9515
15.272	63.2873
15.356	63.7044
15.44	63.6085
15.524	63.4858
15.608	63.7265
15.692	64.1066
15.776	64.4596
15.86	64.7079
15.944	64.6219
16.028	64.1737
16.112	63.7109
16.196	63.5156
16.28	63.567
16.364	63.7333
16.448	63.8893
16.532	64.0261
16.616	64.2267
16.7	64.3921
16.784	64.2847
16.868	63.9367
16.952	63.6602
17.036	63.6515
17.12	63.8256
17.204	63.9791
17.288	63.9991
17.372	63.9076
17.456	63.7456
17.54	63.498
17.624	63.1915
17.708	62.9794
17.792	63.0265
17.876	63.3491
17.96	63.7819
18.044	64.0825
18.128	64.0814
18.212	63.812
18.296	63.4786
18.38	63.2712
18.464	63.2473
18.548	63.3656
18.632	63.5541
18.716	63.7306
18.8	63.8206
18.884	63.8115
18.968	63.7539
19.052	63.6964
19.136	63.6576
19.22	63.6551
19.304	63.7101
19.388	63.8173
19.472	63.9399
19.556	64.0425
19.64	64.1191
19.724	64.1762
19.808	64.1989
19.892	64.1483
19.976	63.9972
20.06	63.7716
20.144	63.5538
20.228	63.4375
20.312	63.4649
20.396	63.5997
20.48	63.7661
20.564	63.9097
20.648	64.0359
20.732	64.1728
20.816	64.3118
20.9	64.3963
20.984	64.3837
21.068	64.3005
21.152	64.2218
21.236	64.2056
21.32	64.2584
21.404	64.3447
21.488	64.4132
21.572	64.4243
21.656	64.3565
21.74	64.2081
21.824	64.0015
21.908	63.7745
21.992	63.5669
22.076	63.4099
22.16	63.3159
22.244	63.2774
22.328	63.2672
22.412	63.2394
22.496	63.1458
22.58	62.9688
22.664	62.7486
22.748	62.5865
22.832	62.5804
22.916	62.7687
23	63.0882
23.084	63.3881
23.168	63.4998
23.252	63.3461
23.336	62.9616
23.42	62.4863
23.504	62.1061
23.588	61.9371
23.672	61.9855
23.756	62.1921
23.84	62.4663
23.924	62.7732
24.008	63.1425
24.092	63.6193
24.176	64.2077
24.26	64.8426
24.344	65.352
24.428	65.5061
24.512	65.0962
24.596	64.0053
24.68	62.2618
24.764	60.0872
24.848	57.8433
24.932	56.053
25.016	55.2541
25.1	55.8416
25.184	57.9795
25.268	61.493
25.352	65.921
25.436	70.6586
25.52	75.1412
25.604	78.9548
25.688	81.7886
25.772	83.4138
25.856	83.6455
25.94	82.378
26.024	79.603
26.108	75.4749
26.192	70.4074
26.276	65.024
26.36	60.0673
26.444	56.2364
26.528	54.0226
26.612	53.5986
26.696	54.8036
26.78	57.1609
26.864	60.0767
26.948	62.9259
27.028	64.9133