File: Bakgrunnsmateriale/MATLAB/FTIR/ftir_data/subAa/Mapping_121/BZ1503107-1_t57_cm-1.asc
PE IR       SPECTRUM    SPECTRUM    ASCII       PEDS        1.60
  -1
BZ6FA3~1.ASC
17/04/07
17:55:06.00
17/04/07
17:55:06.00
tln
$BZ1503107-1_t0057$<tbV0>[10.4,0.0,8.0,0.0,27,1,0]
370
64

2002,4.07
MIRTGS : RIGHTBACK : INTERNAL 2
MIR : ON : INTERNAL 2
OPTKBR

0.200000
8
8.000000
FILLER
RATIO
SPECTRUM
UNLOCKED 256

DOUBLE
64
COMBINED
1
0
0

1.000000
RATIO

1
0
TRUE
51149
0
LEFT NOT FITTED RIGHT NOT FITTED 0
NONE
NONE
15600
12
4.427000
51148
TRUE
1 0 8 72 0 0 0 0

15798

#HDR
-1
-1
#GR
CM-1
%T
2.38419e-05
0.0
5000
-1.000000
4631
8
73.6914
37.7458
#DATA
5000	64.6047
4984	66.0217
4968	63.5753
4952	64.0452
4936	65.6381
4920	64.7748
4904	65.1963
4888	65.1232
4872	65.2098
4856	64.9838
4840	64.9695
4824	65.075
4808	64.6781
4792	64.7169
4776	65.4908
4760	64.8248
4744	64.8324
4728	64.7957
4712	65.0436
4696	64.9544
4680	64.9829
4664	64.9066
4648	64.9446
4632	65.3678
4616	65.1463
4600	65.1376
4584	65.3929
4568	64.7642
4552	65.6083
4536	65.371
4520	64.8466
4504	65.3465
4488	65.2342
4472	64.9543
4456	65.4485
4440	57.0001
4424	60.0324
4408	64.7476
4392	64.8344
4376	65.4666
4360	65.7083
4344	65.025
4328	64.9137
4312	65.16
4296	65.3117
4280	65.1041
4264	65.0058
4248	64.8338
4232	65.0997
4216	64.931
4200	65.1357
4184	65.135
4168	64.7473
4152	65.0905
4136	64.9403
4120	65.2044
4104	65.0164
4088	65.0288
4072	64.9361
4056	65.0124
4040	65.0132
4024	65.1235
4008	65.0581
3992	65.2324
3976	65.2168
3960	65.1177
3944	65.0744
3928	64.9579
3912	65.2776
3896	64.9606
3880	65.2154
3864	65.1719
3848	64.9624
3832	65.1856
3816	65.0364
3800	64.9842
3784	65.2621
3768	65.0273
3752	65.0966
3736	65.1133
3720	65.2199
3704	65.3359
3688	65.2051
3672	65.1318
3656	65.137
3640	65.2958
3624	65.2052
3608	65.3246
3592	65.1454
3576	65.1669
3560	65.1502
3544	65.2667
3528	65.0597
3512	65.2569
3496	65.0193
3480	64.9723
3464	65.0366
3448	65.1339
3432	64.9221
3416	64.9598
3400	64.9872
3384	64.9765
3368	65.1379
3352	64.8427
3336	64.866
3320	64.8921
3304	65.2395
3288	64.9646
3272	65.0739
3256	65.0781
3240	65.0264
3224	65.1996
3208	65.1065
3192	65.2534
3176	65.1206
3160	64.9446
3144	65.1626
3128	65.0756
3112	64.9616
3096	65.1344
3080	65.0308
3064	65.1277
3048	64.9474
3032	65.0339
3016	64.9419
3000	65.2051
2984	65.1097
2968	64.7601
2952	64.9835
2936	64.8756
2920	64.9202
2904	64.9311
2888	64.9511
2872	64.8836
2856	65.0248
2840	64.8638
2824	64.8881
2808	64.8645
2792	64.9738
2776	64.9435
2760	64.9545
2744	64.8223
2728	64.9069
2712	65.1055
2696	64.9454
2680	64.899
2664	64.9663
2648	64.8085
2632	64.9501
2616	64.9593
2600	64.9136
2584	64.9095
2568	64.804
2552	64.835
2536	64.8673
2520	64.8915
2504	64.8961
2488	65.0345
2472	64.8907
2456	64.8474
2440	64.9243
2424	64.9204
2408	64.7099
2392	64.9675
2376	64.7412
2360	64.7274
2344	64.8375
2328	64.7658
2312	64.7011
2296	64.7609
2280	64.7136
2264	64.8498
2248	64.6723
2232	64.7737
2216	64.7756
2200	64.811
2184	64.6901
2168	64.5863
2152	64.6268
2136	64.678
2120	64.6452
2104	64.6754
2088	64.6494
2072	64.4525
2056	64.6184
2040	64.6886
2024	64.6669
2008	64.6874
1992	64.6553
1976	64.602
1960	64.5619
1944	64.6115
1928	64.5382
1912	64.5993
1896	64.5765
1880	64.5371
1864	64.5919
1848	64.574
1832	64.4361
1816	64.4503
1800	64.5041
1784	64.4526
1768	64.41
1752	64.403
1736	64.1499
1720	64.3157
1704	64.3099
1688	64.2479
1672	64.3508
1656	64.2037
1640	64.2813
1624	64.1496
1608	64.2517
1592	64.2188
1576	64.104
1560	64.1865
1544	64.135
1528	64.1676
1512	64.2687
1496	64.1043
1480	64.2958
1464	64.2402
1448	64.1453
1432	64.107
1416	64.2068
1400	64.0714
1384	64.0707
1368	64.08
1352	64.0431
1336	64.0358
1320	64.1119
1304	64.0338
1288	64.0265
1272	64.0591
1256	63.8741
1240	63.8763
1224	63.917
1208	63.9416
1192	63.858
1176	63.9446
1160	63.7528
1144	63.7706
1128	63.7763
1112	63.7491
1096	63.8944
1080	63.7657
1064	63.7548
1048	63.9722
1032	63.6619
1016	63.8251
1000	63.847
984	 63.9932
968	 63.7156
952	 63.6263
936	 63.5788
920	 63.7774
904	 63.7864
888	 64.0283
872	 63.6161
856	 63.6619
840	 63.7072
824	 63.9411
808	 63.6463
792	 63.7167
776	 63.59
760	 63.7138
744	 63.3647
728	 63.5539
712	 63.3562
696	 63.3606
680	 63.4912
664	 63.2594
648	 63.6539
632	 63.0044
616	 63.3491
600	 62.6875
584	 63.6163
568	 63.2921
552	 63.2017
536	 63.0094
520	 63.5732
504	 64.0512
488	 63.4495
472	 63.705
456	 62.7375
440	 62.1708
424	 64.72
408	 63.1718
392	 73.4595
376	 56.9575
370	 37.7458