File: Bakgrunnsmateriale/MATLAB/FTIR/ftir_data/subAa/Mapping_121/BZ1503107-1_t26.asc
PE IR       SPECTRUM    SPECTRUM    ASCII       PEDS        1.60
  -1
BZ2169~1.ASC
17/04/07
15:23:42.00
17/04/07
15:24:08.00
tln
$BZ1503107-1_t0026$<tbV0>[5.2,-7.8,8.0,0.0,27,1,0]
27.028
64

2002,4.07
MIRTGS : RIGHTBACK : INTERNAL 2
MIR : ON : INTERNAL 2
OPTKBR

0.200000
8
8.000000
FILLER
RATIO
SPECTRUM
UNLOCKED 256

DOUBLE
64
COMBINED
1
0
0

0.002000
RATIO

1
0
TRUE
51149
0
LEFT NOT FITTED RIGHT NOT FITTED 0
NONE
NONE
15600
12
4.427000
51148
TRUE
1 0 8 72 0 0 0 0

15798

#HDR
-1
-1
#GR
µM
%T
2.38419e-05
0.0
2.000000
0.002000
12515
8
83.4431
41.9637
#DATA
2.000000	 66.1422
2.084000	 64.707
2.168000	 64.8197
2.252000	 65.1716
2.336000	 65.112
2.420000	 64.6308
2.504000	 65.5435
2.588000	 64.9628
2.672000	 65.2855
2.756000	 65.2207
2.840000	 65.1337
2.924000	 65.3354
3.008000	 65.2522
3.092000	 65.1164
3.176000	 65.119
3.260000	 65.1418
3.344000	 65.0994
3.428000	 64.983
3.512000	 64.839
3.596000	 64.9954
3.680000	 65.0547
3.764000	 65.079
3.848000	 65.0154
3.932000	 65.0819
4.016000	 64.9494
4.100000	 64.9029
4.184000	 65.0916
4.268000	 64.912
4.352000	 64.8408
4.436000	 64.8782
4.520000	 64.919
4.604000	 64.9643
4.688000	 64.9075
4.772000	 64.8211
4.856000	 64.6872
4.940000	 64.8463
5.024000	 64.7353
5.108000	 64.7432
5.192000	 64.7866
5.276000	 64.7392
5.359999	 64.8211
5.444000	 64.7761
5.528000	 64.6902
5.612000	 64.7037
5.696000	 64.5168
5.780000	 64.2508
5.864000	 64.5679
5.948000	 64.7246
6.032000	 64.5426
6.116000	 64.5879
6.200000	 64.4337
6.284000	 64.4083
6.368000	 64.6065
6.452000	 64.462
6.536000	 64.4304
6.620000	 64.5134
6.704000	 64.4494
6.788000	 64.5173
6.872000	 64.3417
6.956000	 64.3074
7.040000	 64.3347
7.124000	 64.4009
7.208000	 64.2599
7.292000	 64.3171
7.376000	 64.3329
7.460000	 64.3557
7.544000	 64.4074
7.628000	 64.3193
7.712000	 64.2008
7.796000	 64.2799
7.880000	 64.1611
7.964000	 64.1642
8.048000	 64.1502
8.132000	 64.1381
8.216000	 64.1073
8.300000	 64.139
8.384000	 64.155
8.468000	 64.1501
8.552000	 64.0693
8.635999	 64.0536
8.719999	 64.0467
8.804000	 64.014
8.888000	 63.8844
8.972000	 64.1802
9.056000	 64.2799
9.140000	 63.9265
9.224000	 64.0315
9.308000	 64.0807
9.391999	 64.1343
9.475999	 64.2202
9.560000	 64.2365
9.644000	 64.0768
9.728000	 64.0534
9.812000	 64.234
9.896000	 64.0134
9.980000	 64.1323
10.064	64.4495
10.148	64.2123
10.232	64.3366
10.316	64.2783
10.4	64.1239
10.484	64.2141
10.568	64.362
10.652	64.2754
10.736	64.4192
10.82	64.2237
10.904	64.0526
10.988	64.0401
11.072	64.0501
11.156	64.0751
11.24	64.1416
11.324	64.2805
11.408	64.2668
11.492	64.2538
11.576	64.2821
11.66	64.3545
11.744	64.3771
11.828	64.1231
11.912	64.1333
11.996	64.2071
12.08	64.2335
12.164	64.2413
12.248	63.9261
12.332	63.7643
12.416	63.8837
12.5	63.9763
12.584	64.0715
12.668	64.3277
12.752	64.2896
12.836	64.1249
12.92	64.0827
13.004	63.8947
13.088	63.8293
13.172	63.6562
13.256	63.3013
13.34	63.4645
13.424	63.779
13.508	63.8474
13.592	64.1242
13.676	64.3025
13.76	64.1804
13.844	64.2511
13.928	64.3843
14.012	63.9924
14.096	63.4462
14.18	63.1459
14.264	63.3528
14.348	63.5791
14.432	63.4061
14.516	63.2573
14.6	63.1864
14.684	63.4452
14.768	63.9713
14.852	64.0993
14.936	63.8348
15.02	63.6472
15.104	63.5998
15.188	63.4487
15.272	63.1426
15.356	62.8693
15.44	62.7564
15.524	62.8283
15.608	63.1394
15.692	63.6592
15.776	64.2117
15.86	64.5131
15.944	64.311
16.028	63.7871
16.112	63.3309
16.196	63.0246
16.28	62.8972
16.364	62.994
16.448	63.0528
16.532	63.0074
16.616	63.2756
16.7	63.9134
16.784	64.3659
16.868	64.3246
16.952	64.0408
17.036	63.8334
17.12	63.8347
17.204	64.0507
17.288	64.3757
17.372	64.6457
17.456	64.7631
17.54	64.7136
17.624	64.5084
17.708	64.2325
17.792	64.0401
17.876	63.9973
17.96	64.0247
18.044	64.0358
18.128	63.9834
18.212	63.8259
18.296	63.5588
18.38	63.2763
18.464	63.1152
18.548	63.1115
18.632	63.1563
18.716	63.1406
18.8	63.0973
18.884	63.1526
18.968	63.3424
19.052	63.5331
19.136	63.572
19.22	63.4662
19.304	63.3755
19.388	63.445
19.472	63.6865
19.556	64.0003
19.64	64.2764
19.724	64.4556
19.808	64.5256
19.892	64.4976
19.976	64.3919
20.06	64.242
20.144	64.1056
20.228	64.0513
20.312	64.1095
20.396	64.2408
20.48	64.3739
20.564	64.4668
20.648	64.5299
20.732	64.5859
20.816	64.6161
20.9	64.5696
20.984	64.4223
21.068	64.2102
21.152	64.0021
21.236	63.8504
21.32	63.7952
21.404	63.8652
21.488	64.0449
21.572	64.2521
21.656	64.3612
21.74	64.2891
21.824	64.0713
21.908	63.8556
21.992	63.8016
22.076	63.9761
22.16	64.3076
22.244	64.632
22.328	64.7873
22.412	64.6654
22.496	64.2478
22.58	63.6165
22.664	62.938
22.748	62.4341
22.832	62.2908
22.916	62.5977
23	63.2754
23.084	64.1313
23.168	64.9084
23.252	65.4097
23.336	65.5483
23.42	65.3407
23.504	64.8912
23.588	64.34
23.672	63.8173
23.756	63.4366
23.84	63.2694
23.924	63.3152
24.008	63.5024
24.092	63.7181
24.176	63.8674
24.26	63.9313
24.344	64.0032
24.428	64.2526
24.512	64.8572
24.596	65.9014
24.68	67.3662
24.764	69.1534
24.848	71.1288
24.932	73.1873
25.016	75.2727
25.1	77.342
25.184	79.2602
25.268	80.8048
25.352	81.7587
25.436	81.9002
25.52	81.1468
25.604	79.6418
25.688	77.8008
25.772	76.177
25.856	75.2366
25.94	75.2703
26.024	76.3091
26.108	78.0995
26.192	80.2001
26.276	82.0849
26.36	83.2459
26.444	83.3477
26.528	82.3116
26.612	80.2668
26.696	77.5503
26.78	74.6152
26.864	72.0275
26.948	70.4736
27.028	70.744