File: Bakgrunnsmateriale/MATLAB/FTIR/ftir_data/subAa/Mapping_121/BZ1503107-1_t70_cm-1.asc
PE IR       SPECTRUM    SPECTRUM    ASCII       PEDS        1.60
  -1
BZ68A6~1.ASC
17/04/07
19:01:54.00
17/04/07
19:01:54.00
tln
$BZ1503107-1_t0070$<tbV0>[5.2,2.6,8.0,0.0,27,1,0]
370
64

2002,4.07
MIRTGS : RIGHTBACK : INTERNAL 2
MIR : ON : INTERNAL 2
OPTKBR

0.200000
8
8.000000
FILLER
RATIO
SPECTRUM
UNLOCKED 256

DOUBLE
64
COMBINED
1
0
0

1.000000
RATIO

1
0
TRUE
51149
0
LEFT NOT FITTED RIGHT NOT FITTED 0
NONE
NONE
15600
12
4.427000
51148
TRUE
1 0 8 72 0 0 0 0

15798

#HDR
-1
-1
#GR
CM-1
%T
2.38419e-05
0.0
5000
-1.000000
4631
8
68.9965
27.7524
#DATA
5000	65.3708
4984	65.1297
4968	65.1248
4952	64.9887
4936	64.6438
4920	64.7973
4904	65.2553
4888	65.2253
4872	64.6358
4856	64.7522
4840	64.26
4824	64.1716
4808	64.4456
4792	64.8981
4776	64.2843
4760	64.5422
4744	64.438
4728	64.351
4712	64.4827
4696	64.1608
4680	64.308
4664	64.8303
4648	64.5206
4632	64.8096
4616	65.0158
4600	64.884
4584	65.3548
4568	65.6651
4552	64.9996
4536	65.3523
4520	66.1051
4504	66.0388
4488	66.0077
4472	65.6394
4456	65.7942
4440	66.4513
4424	58.442
4408	48.0086
4392	66.1674
4376	66.3845
4360	66.1386
4344	66.0719
4328	65.7696
4312	64.9124
4296	65.8334
4280	65.5574
4264	65.3265
4248	65.243
4232	64.8594
4216	64.8145
4200	64.7288
4184	64.6322
4168	64.5957
4152	64.6487
4136	64.8607
4120	64.915
4104	64.6477
4088	64.7162
4072	64.7956
4056	64.7836
4040	64.7235
4024	64.9312
4008	65.0832
3992	64.9287
3976	64.9627
3960	64.9501
3944	65.0217
3928	64.8404
3912	65.2124
3896	65.1535
3880	64.9074
3864	65.1555
3848	64.8444
3832	65.0317
3816	65.1953
3800	65.0698
3784	65.2064
3768	64.9831
3752	64.55
3736	64.9144
3720	64.9304
3704	65.066
3688	64.9282
3672	65.2471
3656	64.8819
3640	64.8222
3624	64.9014
3608	64.9114
3592	65.003
3576	65.0178
3560	64.9731
3544	64.9485
3528	65.0554
3512	65.0251
3496	64.9758
3480	65.0137
3464	65.2088
3448	65.193
3432	64.9988
3416	64.8637
3400	64.9516
3384	65.073
3368	65.0469
3352	65.0522
3336	65.0603
3320	64.9063
3304	65.0907
3288	64.7829
3272	65.0011
3256	65.0754
3240	65.0833
3224	65.0005
3208	65.0261
3192	64.9429
3176	65.0037
3160	65.0792
3144	65.0008
3128	64.985
3112	64.966
3096	64.9076
3080	64.9943
3064	65.0698
3048	64.8295
3032	64.8946
3016	64.8715
3000	64.8452
2984	64.8134
2968	64.7884
2952	64.7845
2936	64.8388
2920	64.772
2904	64.9004
2888	64.7397
2872	64.7699
2856	64.7505
2840	64.7985
2824	64.7537
2808	64.7972
2792	64.7466
2776	64.88
2760	64.8928
2744	64.8381
2728	64.9133
2712	64.793
2696	64.815
2680	64.9288
2664	64.7867
2648	64.8571
2632	64.6981
2616	64.8197
2600	64.7393
2584	64.7762
2568	64.7982
2552	64.7936
2536	64.8473
2520	64.7891
2504	64.7088
2488	64.7848
2472	64.6878
2456	64.6975
2440	64.7685
2424	64.5498
2408	64.709
2392	64.5682
2376	64.5657
2360	64.6438
2344	64.6171
2328	64.6822
2312	64.6289
2296	64.4602
2280	64.6105
2264	64.7009
2248	64.5969
2232	64.5757
2216	64.6293
2200	64.52
2184	64.6244
2168	64.6139
2152	64.4109
2136	64.5465
2120	64.426
2104	64.6229
2088	64.4855
2072	64.497
2056	64.418
2040	64.4372
2024	64.4473
2008	64.4425
1992	64.3394
1976	64.3941
1960	64.4799
1944	64.4331
1928	64.3034
1912	64.3219
1896	64.2085
1880	64.3086
1864	64.3156
1848	64.2516
1832	64.2429
1816	64.3124
1800	64.2524
1784	64.2926
1768	64.3872
1752	64.097
1736	63.9985
1720	64.0532
1704	64.1121
1688	64.0684
1672	64.0553
1656	64.0275
1640	64.0357
1624	64.1535
1608	64.0558
1592	63.9554
1576	63.9772
1560	63.901
1544	64.0017
1528	63.9918
1512	64.0309
1496	63.7369
1480	63.9632
1464	63.8362
1448	63.9036
1432	63.8932
1416	63.7602
1400	63.8489
1384	63.7177
1368	63.6917
1352	63.7278
1336	63.8889
1320	63.8118
1304	63.7108
1288	63.6857
1272	63.6141
1256	63.5615
1240	63.6617
1224	63.6935
1208	63.6447
1192	63.7113
1176	63.4835
1160	63.3382
1144	63.5604
1128	63.4891
1112	63.6891
1096	63.2801
1080	63.3273
1064	63.5265
1048	63.4677
1032	63.4758
1016	63.4235
1000	63.4759
984	 63.6135
968	 63.49
952	 63.5669
936	 63.4958
920	 63.4497
904	 63.446
888	 63.6175
872	 63.6641
856	 63.2118
840	 63.501
824	 63.6846
808	 63.1788
792	 63.3096
776	 63.4321
760	 63.4011
744	 62.9588
728	 63.254
712	 62.8652
696	 63.0044
680	 63.6809
664	 62.7406
648	 62.7272
632	 62.4061
616	 63.0837
600	 62.9788
584	 62.5885
568	 62.5702
552	 63.0106
536	 62.8725
520	 63.1048
504	 62.2219
488	 63.0852
472	 62.0834
456	 61.371
440	 60.9765
424	 61.4772
408	 60.4864
392	 67.7976
376	 27.7977
370	 57.8413