File: Bakgrunnsmateriale/MATLAB/FTIR/ftir_data/subAa/Mapping_121/BZ1503107-1_t117.asc
PE IR       SPECTRUM    SPECTRUM    ASCII       PEDS        1.60
  -1
BZEABE~1.ASC
17/04/07
22:52:59.00
17/04/07
22:53:25.00
tln
$BZ1503107-1_t0117$<tbV0>[-2.6,13.0,8.0,0.0,27,1,0]
27.028
64

2002,4.07
MIRTGS : RIGHTBACK : INTERNAL 2
MIR : ON : INTERNAL 2
OPTKBR

0.200000
8
8.000000
FILLER
RATIO
SPECTRUM
UNLOCKED 256

DOUBLE
64
COMBINED
1
0
0

0.002000
RATIO

1
0
TRUE
51149
0
LEFT NOT FITTED RIGHT NOT FITTED 0
NONE
NONE
15600
12
4.427000
51148
TRUE
1 0 8 72 0 0 0 0

15798

#HDR
-1
-1
#GR
µM
%T
2.38419e-05
0.0
2.000000
0.002000
12515
8
83.5605
38.889
#DATA
2.000000	 65.3796
2.084000	 64.7739
2.168000	 65.5226
2.252000	 61.026
2.336000	 64.9665
2.420000	 65.1897
2.504000	 64.9879
2.588000	 65.1914
2.672000	 65.3098
2.756000	 65.182
2.840000	 65.0932
2.924000	 65.1132
3.008000	 65.0074
3.092000	 64.8329
3.176000	 64.9372
3.260000	 64.9233
3.344000	 64.7447
3.428000	 64.503
3.512000	 64.6004
3.596000	 64.699
3.680000	 64.6087
3.764000	 64.5873
3.848000	 64.4729
3.932000	 64.5404
4.016000	 64.4692
4.100000	 64.4301
4.184000	 64.3421
4.268000	 64.3965
4.352000	 64.1924
4.436000	 64.2783
4.520000	 64.2528
4.604000	 64.2099
4.688000	 64.1205
4.772000	 63.9847
4.856000	 63.9953
4.940000	 64.0478
5.024000	 63.8257
5.108000	 63.792
5.192000	 63.8713
5.276000	 63.8114
5.359999	 63.8194
5.444000	 63.7363
5.528000	 63.7675
5.612000	 63.6798
5.696000	 63.4765
5.780000	 62.8685
5.864000	 63.4436
5.948000	 63.554
6.032000	 63.5723
6.116000	 63.4166
6.200000	 63.2906
6.284000	 63.3962
6.368000	 63.3441
6.452000	 63.3234
6.536000	 63.2292
6.620000	 63.2528
6.704000	 63.2547
6.788000	 63.1402
6.872000	 63.0673
6.956000	 63.084
7.040000	 63.0959
7.124000	 62.9922
7.208000	 63.0292
7.292000	 62.9786
7.376000	 63.0347
7.460000	 63.1076
7.544000	 63.026
7.628000	 62.9034
7.712000	 62.9543
7.796000	 62.8959
7.880000	 62.7875
7.964000	 62.5664
8.048000	 62.6692
8.132000	 62.6435
8.216000	 62.7538
8.300000	 62.688
8.384000	 62.632
8.468000	 62.4572
8.552000	 62.4148
8.635999	 62.4794
8.719999	 62.5388
8.804000	 62.5668
8.888000	 62.6395
8.972000	 62.5222
9.056000	 62.6801
9.140000	 62.5497
9.224000	 62.5104
9.308000	 62.6232
9.391999	 62.4533
9.475999	 62.4703
9.560000	 62.5487
9.644000	 62.2708
9.728000	 62.4345
9.812000	 62.417
9.896000	 62.4502
9.980000	 62.4224
10.064	62.3656
10.148	62.4706
10.232	62.3647
10.316	62.3676
10.4	62.154
10.484	62.2756
10.568	62.5919
10.652	62.3751
10.736	62.378
10.82	62.2717
10.904	62.4793
10.988	62.2672
11.072	62.304
11.156	62.4906
11.24	62.3295
11.324	62.3323
11.408	62.225
11.492	62.2326
11.576	62.2674
11.66	62.3107
11.744	62.5429
11.828	62.3027
11.912	62.1685
11.996	62.2717
12.08	62.3666
12.164	62.2534
12.248	62.3117
12.332	62.2673
12.416	62.2976
12.5	62.3214
12.584	62.2163
12.668	62.1371
12.752	62.0687
12.836	61.9287
12.92	61.9337
13.004	61.9533
13.088	61.9157
13.172	62.0233
13.256	62.1076
13.34	61.9902
13.424	61.8471
13.508	61.9117
13.592	61.9578
13.676	61.9338
13.76	61.9185
13.844	61.7922
13.928	61.6716
14.012	61.6442
14.096	61.5321
14.18	61.5501
14.264	61.5572
14.348	61.4935
14.432	61.6753
14.516	61.8226
14.6	61.8634
14.684	61.8067
14.768	61.4409
14.852	61.1793
14.936	61.2734
15.02	61.4251
15.104	61.6647
15.188	62.0184
15.272	62.1366
15.356	61.9052
15.44	61.5347
15.524	61.2433
15.608	61.1309
15.692	61.1897
15.776	61.4001
15.86	61.6586
15.944	61.8823
16.028	61.9314
16.112	61.6347
16.196	61.3553
16.28	61.5793
16.364	61.9232
16.448	61.8656
16.532	61.6263
16.616	61.4471
16.7	61.1348
16.784	60.7528
16.868	60.7156
16.952	61.0321
17.036	61.1965
17.12	60.9537
17.204	60.623
17.288	60.4675
17.372	60.3518
17.456	60.2397
17.54	60.4539
17.624	61.1096
17.708	61.7758
17.792	61.9777
17.876	61.6905
17.96	61.2486
18.044	60.9723
18.128	60.9568
18.212	61.1027
18.296	61.2903
18.38	61.5106
18.464	61.7827
18.548	61.9907
18.632	61.9103
18.716	61.4779
18.8	60.9247
18.884	60.5642
18.968	60.5021
19.052	60.6001
19.136	60.6552
19.22	60.5764
19.304	60.4497
19.388	60.4364
19.472	60.6062
19.556	60.859
19.64	61.0228
19.724	61.0236
19.808	60.927
19.892	60.8225
19.976	60.739
20.06	60.6799
20.144	60.6701
20.228	60.7188
20.312	60.7831
20.396	60.7887
20.48	60.6895
20.564	60.5049
20.648	60.313
20.732	60.2024
20.816	60.2207
20.9	60.3532
20.984	60.5425
21.068	60.7208
21.152	60.8488
21.236	60.9179
21.32	60.9322
21.404	60.8933
21.488	60.8042
21.572	60.6756
21.656	60.5235
21.74	60.3642
21.824	60.2194
21.908	60.1257
21.992	60.1238
22.076	60.2242
22.16	60.374
22.244	60.4531
22.328	60.3444
22.412	60.0126
22.496	59.5485
22.58	59.1067
22.664	58.8131
22.748	58.6955
22.832	58.6907
22.916	58.7156
23	58.736
23.084	58.7772
23.168	58.9001
23.252	59.1399
23.336	59.4695
23.42	59.8081
23.504	60.057
23.588	60.1517
23.672	60.0856
23.756	59.9024
23.84	59.6881
23.924	59.5359
24.008	59.5254
24.092	59.7104
24.176	60.0899
24.26	60.629
24.344	61.2474
24.428	61.8255
24.512	62.2065
24.596	62.2652
24.68	61.9536
24.764	61.3308
24.848	60.5318
24.932	59.723
25.016	59.0189
25.1	58.4306
25.184	57.8596
25.268	57.1642
25.352	56.2489
25.436	55.0979
25.52	53.7828
25.604	52.4049
25.688	50.9899
25.772	49.4629
25.856	47.7208
25.94	45.7292
26.024	43.6399
26.108	41.8136
26.192	40.6317
26.276	40.3431
26.36	40.9563
26.444	42.1821
26.528	43.5268
26.612	44.4505
26.696	44.5561
26.78	43.735
26.864	42.1896
26.948	40.3671
27.028	38.889