File: Bakgrunnsmateriale/MATLAB/FTIR/ftir_data/subAa/Mapping_121/BZ1503107-1_t59.asc
PE IR       SPECTRUM    SPECTRUM    ASCII       PEDS        1.60
  -1
BZ2D63~1.ASC
17/04/07
18:04:21.00
17/04/07
18:04:47.00
tln
$BZ1503107-1_t0059$<tbV0>[5.2,0.0,8.0,0.0,27,1,0]
27.028
64

2002,4.07
MIRTGS : RIGHTBACK : INTERNAL 2
MIR : ON : INTERNAL 2
OPTKBR

0.200000
8
8.000000
FILLER
RATIO
SPECTRUM
UNLOCKED 256

DOUBLE
64
COMBINED
1
0
0

0.002000
RATIO

1
0
TRUE
51149
0
LEFT NOT FITTED RIGHT NOT FITTED 0
NONE
NONE
15600
12
4.427000
51148
TRUE
1 0 8 72 0 0 0 0

15798

#HDR
-1
-1
#GR
µM
%T
2.38419e-05
0.0
2.000000
0.002000
12515
8
80.8841
57.0828
#DATA
2.000000	 66.3347
2.084000	 64.8366
2.168000	 64.8659
2.252000	 63.7311
2.336000	 64.9831
2.420000	 64.7898
2.504000	 65.3047
2.588000	 65.2447
2.672000	 65.1008
2.756000	 65.1143
2.840000	 65.2361
2.924000	 65.1887
3.008000	 65.0239
3.092000	 65.138
3.176000	 65.0752
3.260000	 65.0228
3.344000	 64.985
3.428000	 64.9428
3.512000	 64.8634
3.596000	 64.8953
3.680000	 64.8334
3.764000	 64.8479
3.848000	 64.8367
3.932000	 64.8909
4.016000	 64.9247
4.100000	 64.8352
4.184000	 64.8135
4.268000	 64.8013
4.352000	 64.801
4.436000	 64.8655
4.520000	 64.7374
4.604000	 64.6665
4.688000	 64.6711
4.772000	 64.7283
4.856000	 64.5216
4.940000	 64.6106
5.024000	 64.6495
5.108000	 64.4001
5.192000	 64.4372
5.276000	 64.3969
5.359999	 64.5539
5.444000	 64.4872
5.528000	 64.4431
5.612000	 64.4025
5.696000	 64.2892
5.780000	 64.1048
5.864000	 64.2138
5.948000	 64.1799
6.032000	 64.2472
6.116000	 64.2107
6.200000	 64.2523
6.284000	 64.1135
6.368000	 64.1079
6.452000	 64.0751
6.536000	 64.0558
6.620000	 64.1267
6.704000	 64.069
6.788000	 64.1036
6.872000	 63.9943
6.956000	 64.1316
7.040000	 64.1448
7.124000	 64.0475
7.208000	 63.9157
7.292000	 64.0993
7.376000	 63.8855
7.460000	 63.8758
7.544000	 63.9242
7.628000	 63.9461
7.712000	 63.9923
7.796000	 63.8053
7.880000	 63.8392
7.964000	 63.8677
8.048000	 63.8885
8.132000	 63.7574
8.216000	 63.8197
8.300000	 63.845
8.384000	 63.7618
8.468000	 63.7045
8.552000	 63.6994
8.635999	 63.6202
8.719999	 63.5612
8.804000	 63.7137
8.888000	 63.6422
8.972000	 63.6905
9.056000	 63.6614
9.140000	 63.6635
9.224000	 63.4899
9.308000	 63.5078
9.391999	 63.6018
9.475999	 63.7695
9.560000	 63.748
9.644000	 63.7055
9.728000	 63.468
9.812000	 63.5814
9.896000	 63.5931
9.980000	 63.7559
10.064	63.6697
10.148	63.7505
10.232	63.7105
10.316	63.6802
10.4	63.4127
10.484	63.5159
10.568	63.6156
10.652	63.4686
10.736	63.4725
10.82	63.5522
10.904	63.4913
10.988	63.47
11.072	63.48
11.156	63.5411
11.24	63.676
11.324	63.7484
11.408	63.5288
11.492	63.4953
11.576	63.6886
11.66	63.6432
11.744	63.5178
11.828	63.5838
11.912	63.6079
11.996	63.6047
12.08	63.8692
12.164	63.6703
12.248	63.6418
12.332	63.6699
12.416	63.6264
12.5	63.4642
12.584	63.4665
12.668	63.5481
12.752	63.5067
12.836	63.5357
12.92	63.4507
13.004	63.3688
13.088	63.354
13.172	63.5012
13.256	63.4189
13.34	63.1536
13.424	63.2216
13.508	63.3991
13.592	63.3749
13.676	63.2772
13.76	63.2848
13.844	63.3303
13.928	63.4105
14.012	63.3707
14.096	63.2045
14.18	63.1236
14.264	63.1951
14.348	63.3182
14.432	63.3278
14.516	63.334
14.6	63.3175
14.684	63.3136
14.768	63.4075
14.852	63.3671
14.936	63.3645
15.02	63.488
15.104	63.433
15.188	63.3005
15.272	63.2273
15.356	63.2266
15.44	63.3077
15.524	63.2495
15.608	63.1292
15.692	63.1544
15.776	63.0109
15.86	62.7083
15.944	62.8337
16.028	63.5196
16.112	64.142
16.196	64.0872
16.28	63.4692
16.364	62.9101
16.448	62.7861
16.532	62.9733
16.616	63.1506
16.7	63.14
16.784	62.9829
16.868	62.7437
16.952	62.4753
17.036	62.3449
17.12	62.5045
17.204	62.8495
17.288	63.1287
17.372	63.2046
17.456	63.1287
17.54	63.058
17.624	63.0837
17.708	63.1525
17.792	63.207
17.876	63.2584
17.96	63.2756
18.044	63.1594
18.128	62.9566
18.212	62.9159
18.296	63.1512
18.38	63.3789
18.464	63.2536
18.548	62.8773
18.632	62.7432
18.716	63.1208
18.8	63.7118
18.884	63.9826
18.968	63.7064
19.052	63.1452
19.136	62.7682
19.22	62.8824
19.304	63.4134
19.388	63.9653
19.472	64.1302
19.556	63.8702
19.64	63.568
19.724	63.5922
19.808	63.8809
19.892	64.0265
19.976	63.7464
20.06	63.1767
20.144	62.693
20.228	62.538
20.312	62.6814
20.396	62.9834
20.48	63.3735
20.564	63.846
20.648	64.3624
20.732	64.8073
20.816	65.053
20.9	65.051
20.984	64.851
21.068	64.5548
21.152	64.2577
21.236	64.0066
21.32	63.7923
21.404	63.5723
21.488	63.3185
21.572	63.0526
21.656	62.8395
21.74	62.7476
21.824	62.8051
21.908	62.9845
21.992	63.2217
22.076	63.4378
22.16	63.5506
22.244	63.4822
22.328	63.19
22.412	62.7179
22.496	62.2037
22.58	61.8081
22.664	61.6289
22.748	61.6381
22.832	61.725
22.916	61.7853
23	61.8086
23.084	61.8892
23.168	62.1566
23.252	62.6656
23.336	63.3659
23.42	64.1053
23.504	64.7202
23.588	65.0744
23.672	65.077
23.756	64.6942
23.84	63.9518
23.924	62.9239
24.008	61.7299
24.092	60.5316
24.176	59.503
24.26	58.7835
24.344	58.4807
24.428	58.648
24.512	59.2683
24.596	60.2792
24.68	61.5881
24.764	63.0809
24.848	64.6523
24.932	66.2491
25.016	67.8661
25.1	69.4995
25.184	71.0632
25.268	72.3558
25.352	73.1057
25.436	73.0031
25.52	71.8656
25.604	69.7503
25.688	66.9758
25.772	64.0949
25.856	61.746
25.94	60.4729
26.024	60.6151
26.108	62.197
26.192	65.0244
26.276	68.7104
26.36	72.6823
26.444	76.3331
26.528	79.134
26.612	80.6663
26.696	80.7188
26.78	79.344
26.864	76.8839
26.948	73.9104
27.028	71.2699