File: Bakgrunnsmateriale/MATLAB/FTIR/ftir_data/subAa/Mapping_121/BZ1503107-1_t70.asc
PE IR       SPECTRUM    SPECTRUM    ASCII       PEDS        1.60
  -1
BZ294F~1.ASC
17/04/07
19:01:54.00
17/04/07
19:02:20.00
tln
$BZ1503107-1_t0070$<tbV0>[5.2,2.6,8.0,0.0,27,1,0]
27.028
64

2002,4.07
MIRTGS : RIGHTBACK : INTERNAL 2
MIR : ON : INTERNAL 2
OPTKBR

0.200000
8
8.000000
FILLER
RATIO
SPECTRUM
UNLOCKED 256

DOUBLE
64
COMBINED
1
0
0

0.002000
RATIO

1
0
TRUE
51149
0
LEFT NOT FITTED RIGHT NOT FITTED 0
NONE
NONE
15600
12
4.427000
51148
TRUE
1 0 8 72 0 0 0 0

15798

#HDR
-1
-1
#GR
µM
%T
2.38419e-05
0.0
2.000000
0.002000
12515
8
68.3839
27.5952
#DATA
2.000000	 65.3708
2.084000	 64.6817
2.168000	 65.2373
2.252000	 66.4658
2.336000	 65.5671
2.420000	 64.9252
2.504000	 64.9512
2.588000	 65.1557
2.672000	 64.8658
2.756000	 64.8256
2.840000	 65.0002
2.924000	 64.8895
3.008000	 64.9648
3.092000	 64.9354
3.176000	 65.0616
3.260000	 65.0193
3.344000	 64.9155
3.428000	 64.8034
3.512000	 64.8099
3.596000	 64.806
3.680000	 64.7032
3.764000	 64.7764
3.848000	 64.7362
3.932000	 64.8567
4.016000	 64.7894
4.100000	 64.7638
4.184000	 64.6038
4.268000	 64.6197
4.352000	 64.4873
4.436000	 64.6219
4.520000	 64.5992
4.604000	 64.5836
4.688000	 64.5653
4.772000	 64.576
4.856000	 64.4209
4.940000	 64.448
5.024000	 64.343
5.108000	 64.4553
5.192000	 64.3049
5.276000	 64.2092
5.359999	 64.32
5.444000	 64.2535
5.528000	 64.2279
5.612000	 64.2884
5.696000	 64.1941
5.780000	 63.9334
5.864000	 64.1173
5.948000	 64.0474
6.032000	 64.0081
6.116000	 63.9629
6.200000	 64.1858
6.284000	 63.9488
6.368000	 63.9543
6.452000	 64.013
6.536000	 63.9888
6.620000	 64.0099
6.704000	 63.8481
6.788000	 63.9023
6.872000	 64.0924
6.956000	 63.8264
7.040000	 63.9109
7.124000	 63.7767
7.208000	 63.7475
7.292000	 63.6524
7.376000	 63.6878
7.460000	 63.8482
7.544000	 63.8228
7.628000	 63.7197
7.712000	 63.7621
7.796000	 63.6396
7.880000	 63.6377
7.964000	 63.5674
8.048000	 63.6513
8.132000	 63.7015
8.216000	 63.5806
8.300000	 63.689
8.384000	 63.7245
8.468000	 63.5248
8.552000	 63.5092
8.635999	 63.3935
8.719999	 63.5355
8.804000	 63.5687
8.888000	 63.5234
8.972000	 63.7295
9.056000	 63.3802
9.140000	 63.2796
9.224000	 63.345
9.308000	 63.4463
9.391999	 63.5214
9.475999	 63.6413
9.560000	 63.4574
9.644000	 63.4383
9.728000	 63.5108
9.812000	 63.3742
9.896000	 63.4379
9.980000	 63.5349
10.064	63.372
10.148	63.5685
10.232	63.6196
10.316	63.4818
10.4	63.464
10.484	63.5333
10.568	63.655
10.652	63.5521
10.736	63.4539
10.82	63.5198
10.904	63.416
10.988	63.5063
11.072	63.4292
11.156	63.378
11.24	63.5957
11.324	63.7136
11.408	63.7449
11.492	63.635
11.576	63.4173
11.66	63.2219
11.744	63.2203
11.828	63.3524
11.912	63.5067
11.996	63.4115
12.08	63.4855
12.164	63.7219
12.248	63.5838
12.332	63.3261
12.416	63.1374
12.5	63.3395
12.584	63.4343
12.668	63.0972
12.752	62.8598
12.836	63.1521
12.92	63.5834
13.004	63.6293
13.088	63.4317
13.172	63.3958
13.256	63.2453
13.34	63.0898
13.424	62.991
13.508	62.8374
13.592	62.9681
13.676	63.3123
13.76	63.1548
13.844	62.9505
13.928	63.2443
14.012	63.1229
14.096	62.4252
14.18	62.1983
14.264	62.575
14.348	62.9183
14.432	63.4111
14.516	63.9672
14.6	63.9088
14.684	63.6708
14.768	63.8361
14.852	63.8363
14.936	63.2338
15.02	62.742
15.104	62.8341
15.188	62.8566
15.272	62.6334
15.356	62.6334
15.44	62.7263
15.524	62.5111
15.608	62.0811
15.692	61.8922
15.776	62.1605
15.86	62.5745
15.944	62.7381
16.028	62.7302
16.112	62.8216
16.196	63.0063
16.28	63.1626
16.364	63.2371
16.448	63.1733
16.532	63.0368
16.616	62.9807
16.7	62.9672
16.784	62.8408
16.868	62.5926
16.952	62.3656
17.036	62.3352
17.12	62.5753
17.204	62.9146
17.288	63.0564
17.372	62.9134
17.456	62.6809
17.54	62.5662
17.624	62.5797
17.708	62.647
17.792	62.7522
17.876	62.8804
17.96	62.9729
18.044	63.0038
18.128	63.013
18.212	63.0564
18.296	63.15
18.38	63.2423
18.464	63.2398
18.548	63.1053
18.632	62.9199
18.716	62.7844
18.8	62.6944
18.884	62.6088
18.968	62.5701
19.052	62.6599
19.136	62.8692
19.22	63.0838
19.304	63.1891
19.388	63.1625
19.472	63.0526
19.556	62.9073
19.64	62.7372
19.724	62.5313
19.808	62.304
19.892	62.124
19.976	62.0774
20.06	62.1981
20.144	62.4411
20.228	62.7218
20.312	62.9576
20.396	63.0885
20.48	63.0933
20.564	63.0026
20.648	62.889
20.732	62.8235
20.816	62.816
20.9	62.8072
20.984	62.7187
21.068	62.5147
21.152	62.2185
21.236	61.8888
21.32	61.5894
21.404	61.3683
21.488	61.2464
21.572	61.2106
21.656	61.2284
21.74	61.2669
21.824	61.3094
21.908	61.3573
21.992	61.4098
22.076	61.4469
22.16	61.4377
22.244	61.3628
22.328	61.2379
22.412	61.1062
22.496	61.0134
22.58	60.9753
22.664	60.9751
22.748	60.974
22.832	60.9376
22.916	60.8532
23	60.741
23.084	60.6392
23.168	60.5912
23.252	60.6285
23.336	60.7671
23.42	60.9859
23.504	61.2446
23.588	61.4849
23.672	61.6464
23.756	61.693
23.84	61.6242
23.924	61.4646
24.008	61.2687
24.092	61.1093
24.176	61.0175
24.26	60.9856
24.344	60.9388
24.428	60.777
24.512	60.4772
24.596	60.097
24.68	59.7714
24.764	59.6729
24.848	59.9444
24.932	60.6604
25.016	61.7929
25.1	63.2778
25.184	64.9306
25.268	66.4762
25.352	67.6381
25.436	68.1187
25.52	67.6976
25.604	66.2927
25.688	63.9724
25.772	60.9198
25.856	57.3393
25.94	53.4026
26.024	49.225
26.108	44.898
26.192	40.5052
26.276	36.225
26.36	32.3446
26.444	29.3227
26.528	27.7288
26.612	28.0273
26.696	30.5346
26.78	35.2304
26.864	41.8172
26.948	49.7532
27.028	57.8413