File: Bakgrunnsmateriale/MATLAB/FTIR/ftir_data/subAa/Mapping_121/BZ1503107-1_t75_cm-1.asc
PE IR       SPECTRUM    SPECTRUM    ASCII       PEDS        1.60
  -1
BZ6DA6~1.ASC
17/04/07
19:25:00.00
17/04/07
19:25:00.00
tln
$BZ1503107-1_t0075$<tbV0>[-7.8,2.6,8.0,0.0,27,1,0]
370
64

2002,4.07
MIRTGS : RIGHTBACK : INTERNAL 2
MIR : ON : INTERNAL 2
OPTKBR

0.200000
8
8.000000
FILLER
RATIO
SPECTRUM
UNLOCKED 256

DOUBLE
64
COMBINED
1
0
0

1.000000
RATIO

1
0
TRUE
51149
0
LEFT NOT FITTED RIGHT NOT FITTED 0
NONE
NONE
15600
12
4.427000
51148
TRUE
1 0 8 72 0 0 0 0

15798

#HDR
-1
-1
#GR
CM-1
%T
2.38419e-05
0.0
5000
-1.000000
4631
8
80.3989
48.9916
#DATA
5000	64.6806
4984	64.9306
4968	64.1408
4952	64.5221
4936	64.6059
4920	64.6423
4904	64.6939
4888	64.631
4872	64.798
4856	64.4869
4840	64.6416
4824	64.5694
4808	64.4568
4792	64.5062
4776	64.5763
4760	64.6823
4744	64.7995
4728	64.5802
4712	64.5378
4696	64.8561
4680	64.4011
4664	64.7632
4648	64.6638
4632	64.6434
4616	64.942
4600	64.6241
4584	64.8703
4568	64.6174
4552	64.1672
4536	64.4518
4520	64.4425
4504	64.5151
4488	64.7765
4472	63.7456
4456	64.0418
4440	63.3443
4424	76.6697
4408	73.4027
4392	63.7243
4376	64.5169
4360	64.8086
4344	64.4212
4328	64.4093
4312	64.6744
4296	64.6388
4280	64.4842
4264	64.4672
4248	64.8476
4232	64.915
4216	64.8804
4200	64.909
4184	64.8004
4168	64.8377
4152	64.7524
4136	64.8973
4120	64.94
4104	64.7708
4088	64.8162
4072	64.9116
4056	65.1072
4040	65.1154
4024	64.9501
4008	65.0201
3992	64.7958
3976	64.9855
3960	64.9136
3944	64.712
3928	64.7083
3912	64.8361
3896	64.9525
3880	64.7383
3864	65.0718
3848	64.5098
3832	64.6338
3816	64.9759
3800	65.0955
3784	64.8571
3768	65.0217
3752	65.1
3736	65.0642
3720	64.9962
3704	65.178
3688	65.0467
3672	65.0677
3656	64.9406
3640	65.0471
3624	64.9544
3608	65.0759
3592	64.8784
3576	64.9377
3560	64.9598
3544	64.9502
3528	65.0101
3512	64.8668
3496	64.9022
3480	64.8438
3464	64.8799
3448	65.053
3432	64.706
3416	64.8908
3400	64.6974
3384	64.7976
3368	65.0065
3352	64.8721
3336	64.938
3320	64.9038
3304	64.8908
3288	64.8737
3272	64.8381
3256	64.9075
3240	64.9034
3224	64.942
3208	64.8451
3192	65.0001
3176	64.9227
3160	64.8854
3144	64.7909
3128	64.6609
3112	64.86
3096	64.746
3080	64.8718
3064	65.0589
3048	64.8632
3032	64.7425
3016	64.8258
3000	64.854
2984	64.8338
2968	64.7727
2952	64.6849
2936	64.8099
2920	64.6516
2904	64.8178
2888	64.8598
2872	64.762
2856	64.8097
2840	64.7737
2824	64.8135
2808	64.8201
2792	64.8215
2776	64.824
2760	64.7747
2744	64.8368
2728	64.7348
2712	64.7452
2696	64.769
2680	64.7999
2664	64.7252
2648	64.7007
2632	64.7063
2616	64.7894
2600	64.7887
2584	64.7697
2568	64.6056
2552	64.6431
2536	64.6199
2520	64.7056
2504	64.7386
2488	64.5987
2472	64.7318
2456	64.7151
2440	64.5965
2424	64.7096
2408	64.6482
2392	64.4487
2376	64.7332
2360	64.5043
2344	64.5048
2328	64.5467
2312	64.5742
2296	64.466
2280	64.5379
2264	64.6174
2248	64.4706
2232	64.5085
2216	64.5209
2200	64.3805
2184	64.5141
2168	64.4416
2152	64.4787
2136	64.3997
2120	64.4253
2104	64.4368
2088	64.4108
2072	64.43
2056	64.3504
2040	64.3961
2024	64.4767
2008	64.4168
1992	64.2689
1976	64.3913
1960	64.4126
1944	64.3599
1928	64.2817
1912	64.4103
1896	64.3258
1880	64.2661
1864	64.2711
1848	64.2506
1832	64.1747
1816	64.2279
1800	64.1442
1784	64.1939
1768	64.2525
1752	63.9599
1736	63.9066
1720	64.0145
1704	63.992
1688	64.0971
1672	64.0015
1656	64.078
1640	63.923
1624	64.1455
1608	63.9143
1592	63.8448
1576	63.953
1560	63.8134
1544	63.9389
1528	63.8881
1512	63.9693
1496	63.8309
1480	63.9158
1464	63.7524
1448	63.8755
1432	63.8841
1416	63.7717
1400	63.7804
1384	63.6821
1368	63.6086
1352	63.5809
1336	63.8047
1320	63.8018
1304	63.6671
1288	63.5409
1272	63.4259
1256	63.544
1240	63.5829
1224	63.5336
1208	63.5046
1192	63.43
1176	63.4592
1160	63.2732
1144	63.4806
1128	63.3406
1112	63.356
1096	63.5151
1080	63.3948
1064	63.498
1048	63.3532
1032	63.2727
1016	63.2624
1000	63.3755
984	 63.5056
968	 63.3118
952	 63.2917
936	 63.3054
920	 63.2134
904	 63.435
888	 63.3418
872	 63.6459
856	 63.2938
840	 63.1444
824	 63.3659
808	 63.2553
792	 63.0547
776	 63.2576
760	 63.1913
744	 63.2772
728	 62.6997
712	 63.0146
696	 62.5981
680	 63.7898
664	 63.2642
648	 62.9956
632	 62.1756
616	 62.5134
600	 63.3298
584	 62.889
568	 62.8362
552	 62.8581
536	 63.112
520	 62.588
504	 62.2005
488	 62.8537
472	 63.0437
456	 62.3992
440	 62.6122
424	 62.8021
408	 60.3664
392	 57.8154
376	 48.9916
370	 63.6214