File: Bakgrunnsmateriale/MATLAB/FTIR/ftir_data/subAa/Mapping_121/BZ1503107-1_t47.asc
PE IR       SPECTRUM    SPECTRUM    ASCII       PEDS        1.60
  -1
BZ256D~1.ASC
17/04/07
17:08:17.00
17/04/07
17:08:43.00
tln
$BZ1503107-1_t0047$<tbV0>[7.8,-2.6,8.0,0.0,27,1,0]
27.028
64

2002,4.07
MIRTGS : RIGHTBACK : INTERNAL 2
MIR : ON : INTERNAL 2
OPTKBR

0.200000
8
8.000000
FILLER
RATIO
SPECTRUM
UNLOCKED 256

DOUBLE
64
COMBINED
1
0
0

0.002000
RATIO

1
0
TRUE
51149
0
LEFT NOT FITTED RIGHT NOT FITTED 0
NONE
NONE
15600
12
4.427000
51148
TRUE
1 0 8 72 0 0 0 0

15798

#HDR
-1
-1
#GR
µM
%T
2.38419e-05
0.0
2.000000
0.002000
12515
8
70.1957
43.1186
#DATA
2.000000	 65.954
2.084000	 64.6119
2.168000	 64.769
2.252000	 66.371
2.336000	 64.8543
2.420000	 65.0196
2.504000	 65.0968
2.588000	 65.0583
2.672000	 65.0148
2.756000	 65.0877
2.840000	 64.9845
2.924000	 65.225
3.008000	 65.0653
3.092000	 64.9063
3.176000	 65.1922
3.260000	 65.0308
3.344000	 65.0004
3.428000	 64.9638
3.512000	 65.0451
3.596000	 64.9512
3.680000	 64.8914
3.764000	 64.936
3.848000	 64.9327
3.932000	 64.916
4.016000	 64.8926
4.100000	 64.9964
4.184000	 64.7536
4.268000	 64.8819
4.352000	 64.8925
4.436000	 64.898
4.520000	 64.7819
4.604000	 64.6118
4.688000	 64.76
4.772000	 64.7612
4.856000	 64.7032
4.940000	 64.663
5.024000	 64.7506
5.108000	 64.5575
5.192000	 64.6032
5.276000	 64.585
5.359999	 64.6056
5.444000	 64.6036
5.528000	 64.5271
5.612000	 64.5735
5.696000	 64.5026
5.780000	 64.349
5.864000	 64.3666
5.948000	 64.4309
6.032000	 64.3842
6.116000	 64.407
6.200000	 64.28
6.284000	 64.2798
6.368000	 64.2691
6.452000	 64.2743
6.536000	 64.2572
6.620000	 64.265
6.704000	 64.2873
6.788000	 64.222
6.872000	 64.1719
6.956000	 64.1315
7.040000	 64.2392
7.124000	 64.2651
7.208000	 64.126
7.292000	 64.205
7.376000	 64.1035
7.460000	 64.0716
7.544000	 63.9405
7.628000	 64.1301
7.712000	 64.1849
7.796000	 64.063
7.880000	 64.0654
7.964000	 64.1058
8.048000	 64.0637
8.132000	 63.9952
8.216000	 63.9823
8.300000	 64.1548
8.384000	 63.9128
8.468000	 64.0873
8.552000	 64.0725
8.635999	 63.9237
8.719999	 63.9322
8.804000	 63.8348
8.888000	 63.805
8.972000	 63.8365
9.056000	 63.8383
9.140000	 63.8349
9.224000	 63.8238
9.308000	 63.8429
9.391999	 63.8314
9.475999	 63.7938
9.560000	 63.731
9.644000	 63.7658
9.728000	 63.8824
9.812000	 63.8789
9.896000	 63.8965
9.980000	 63.8909
10.064	63.8206
10.148	64.0018
10.232	63.9907
10.316	63.8396
10.4	63.7914
10.484	63.7767
10.568	63.6842
10.652	63.7426
10.736	63.7863
10.82	63.7732
10.904	64.0274
10.988	63.9501
11.072	63.9405
11.156	63.7519
11.24	63.7375
11.324	63.8968
11.408	63.7167
11.492	63.7636
11.576	63.8044
11.66	63.9447
11.744	63.8686
11.828	63.8939
11.912	63.7916
11.996	63.7267
12.08	63.9302
12.164	63.9639
12.248	63.8243
12.332	63.6652
12.416	63.6493
12.5	63.7399
12.584	63.755
12.668	63.5723
12.752	63.5583
12.836	63.7617
12.92	63.7818
13.004	63.7601
13.088	63.5973
13.172	63.3784
13.256	63.5506
13.34	63.7346
13.424	63.7133
13.508	63.6644
13.592	63.5282
13.676	63.3792
13.76	63.4891
13.844	63.6119
13.928	63.5289
14.012	63.6041
14.096	63.6269
14.18	63.4079
14.264	63.3277
14.348	63.4276
14.432	63.5243
14.516	63.6841
14.6	63.6603
14.684	63.5296
14.768	63.5705
14.852	63.5437
14.936	63.4194
15.02	63.2156
15.104	62.9951
15.188	63.0402
15.272	63.2204
15.356	63.3779
15.44	63.536
15.524	63.4705
15.608	63.2689
15.692	63.2871
15.776	63.3008
15.86	63.0411
15.944	63.0397
16.028	63.7491
16.112	64.4355
16.196	64.1905
16.28	63.3354
16.364	62.7513
16.448	62.7329
16.532	62.9938
16.616	63.0797
16.7	62.8575
16.784	62.6923
16.868	62.743
16.952	62.7289
17.036	62.6308
17.12	62.7913
17.204	63.1869
17.288	63.3574
17.372	63.1317
17.456	62.8532
17.54	62.844
17.624	62.9707
17.708	62.973
17.792	62.928
17.876	63.0811
17.96	63.4075
18.044	63.6492
18.128	63.6581
18.212	63.5142
18.296	63.3502
18.38	63.2384
18.464	63.1891
18.548	63.1724
18.632	63.1585
18.716	63.1613
18.8	63.2291
18.884	63.4012
18.968	63.6385
19.052	63.8064
19.136	63.7922
19.22	63.6199
19.304	63.4273
19.388	63.3279
19.472	63.3247
19.556	63.3408
19.64	63.3
19.724	63.1738
19.808	62.9961
19.892	62.8594
19.976	62.8598
20.06	63.0049
20.144	63.1986
20.228	63.3205
20.312	63.3184
20.396	63.227
20.48	63.1196
20.564	63.0523
20.648	63.0354
20.732	63.0557
20.816	63.1073
20.9	63.2075
20.984	63.389
21.068	63.6655
21.152	64.0023
21.236	64.3197
21.32	64.5342
21.404	64.6025
21.488	64.5388
21.572	64.3945
21.656	64.2408
21.74	64.1495
21.824	64.1706
21.908	64.3084
21.992	64.5145
22.076	64.7055
22.16	64.7951
22.244	64.7299
22.328	64.5163
22.412	64.2129
22.496	63.9004
22.58	63.6402
22.664	63.45
22.748	63.2989
22.832	63.1418
22.916	62.9439
23	62.7186
23.084	62.5083
23.168	62.3552
23.252	62.2744
23.336	62.261
23.42	62.3157
23.504	62.4566
23.588	62.7085
23.672	63.0655
23.756	63.4499
23.84	63.7322
23.924	63.7827
24.008	63.5332
24.092	63.011
24.176	62.3376
24.26	61.6336
24.344	60.967
24.428	60.3434
24.512	59.7606
24.596	59.2439
24.68	58.8652
24.764	58.7176
24.848	58.8241
24.932	59.1231
25.016	59.4718
25.1	59.6761
25.184	59.5596
25.268	59.0517
25.352	58.207
25.436	57.2565
25.52	56.5455
25.604	56.4035
25.688	57.0743
25.772	58.5923
25.856	60.7519
25.94	63.1477
26.024	65.2697
26.108	66.6757
26.192	67.0683
26.276	66.3404
26.36	64.6086
26.444	62.1351
26.528	59.2252
26.612	56.1702
26.696	53.1677
26.78	50.3084
26.864	47.6392
26.948	45.1962
27.028	43.1186