File: Bakgrunnsmateriale/MATLAB/FTIR/ftir_data/subAa/Mapping_121/BZ1503107-1_t121.asc
PE IR       SPECTRUM    SPECTRUM    ASCII       PEDS        1.60
  -1
BZCEB6~1.ASC
17/04/07
23:11:28.00
17/04/07
23:11:54.00
tln
$BZ1503107-1_t0121$<tbV0>[-13.0,13.0,8.0,0.0,27,1,0]
27.028
64

2002,4.07
MIRTGS : RIGHTBACK : INTERNAL 2
MIR : ON : INTERNAL 2
OPTKBR

0.200000
8
8.000000
FILLER
RATIO
SPECTRUM
UNLOCKED 256

DOUBLE
64
COMBINED
1
0
0

0.002000
RATIO

1
0
TRUE
51149
0
LEFT NOT FITTED RIGHT NOT FITTED 0
NONE
NONE
15600
12
4.427000
51148
TRUE
1 0 8 72 0 0 0 0

15798

#HDR
-1
-1
#GR
µM
%T
2.38419e-05
0.0
2.000000
0.002000
12515
8
69.7381
44.8831
#DATA
2.000000	 66.3362
2.084000	 64.6973
2.168000	 65.1611
2.252000	 68.3815
2.336000	 64.738
2.420000	 64.9262
2.504000	 65.0165
2.588000	 65.0134
2.672000	 64.8642
2.756000	 65.0373
2.840000	 64.8893
2.924000	 64.8766
3.008000	 64.9057
3.092000	 64.7367
3.176000	 64.8072
3.260000	 64.5726
3.344000	 64.6839
3.428000	 64.4221
3.512000	 64.6307
3.596000	 64.6686
3.680000	 64.6295
3.764000	 64.5247
3.848000	 64.3202
3.932000	 64.4502
4.016000	 64.4314
4.100000	 64.3881
4.184000	 64.2532
4.268000	 64.3256
4.352000	 64.2262
4.436000	 64.2042
4.520000	 64.2589
4.604000	 64.0299
4.688000	 64.0768
4.772000	 64.0219
4.856000	 63.9605
4.940000	 63.9489
5.024000	 63.7876
5.108000	 63.7763
5.192000	 63.9525
5.276000	 63.7665
5.359999	 63.8106
5.444000	 63.7805
5.528000	 63.7433
5.612000	 63.7808
5.696000	 63.6524
5.780000	 63.3367
5.864000	 63.4522
5.948000	 63.5789
6.032000	 63.4283
6.116000	 63.5046
6.200000	 63.3521
6.284000	 63.38
6.368000	 63.3389
6.452000	 63.2768
6.536000	 63.2671
6.620000	 63.3382
6.704000	 63.2704
6.788000	 63.154
6.872000	 63.1633
6.956000	 63.1398
7.040000	 63.1323
7.124000	 63.1109
7.208000	 63.0483
7.292000	 63.0797
7.376000	 62.9992
7.460000	 62.9899
7.544000	 62.9634
7.628000	 63.0438
7.712000	 62.919
7.796000	 62.9942
7.880000	 62.8198
7.964000	 62.7691
8.048000	 62.745
8.132000	 62.7033
8.216000	 62.9025
8.300000	 62.7736
8.384000	 62.7909
8.468000	 62.7097
8.552000	 62.59
8.635999	 62.6461
8.719999	 62.5536
8.804000	 62.6106
8.888000	 62.7288
8.972000	 62.5633
9.056000	 62.3993
9.140000	 62.5845
9.224000	 62.5249
9.308000	 62.4121
9.391999	 62.4306
9.475999	 62.3442
9.560000	 62.4131
9.644000	 62.366
9.728000	 62.5041
9.812000	 62.5044
9.896000	 62.5871
9.980000	 62.6259
10.064	62.5455
10.148	62.57
10.232	62.5616
10.316	62.3818
10.4	62.3625
10.484	62.3662
10.568	62.6117
10.652	62.4388
10.736	62.3338
10.82	62.5052
10.904	62.5758
10.988	62.2789
11.072	62.2977
11.156	62.3196
11.24	62.3447
11.324	62.0528
11.408	62.0666
11.492	62.4171
11.576	62.3959
11.66	62.3814
11.744	62.4606
11.828	62.416
11.912	62.3074
11.996	62.2222
12.08	62.4374
12.164	62.5228
12.248	62.3624
12.332	62.261
12.416	62.3058
12.5	62.3192
12.584	62.3069
12.668	62.2042
12.752	62.2404
12.836	62.1736
12.92	61.9896
13.004	61.9622
13.088	61.989
13.172	62.0826
13.256	62.0099
13.34	61.8797
13.424	61.9262
13.508	61.979
13.592	62.1048
13.676	62.1439
13.76	62.0464
13.844	61.8894
13.928	61.8109
14.012	61.8667
14.096	61.9527
14.18	61.9832
14.264	61.798
14.348	61.5665
14.432	61.6717
14.516	61.825
14.6	61.7988
14.684	61.9387
14.768	62.0895
14.852	62.0076
14.936	61.8355
15.02	61.6166
15.104	61.5339
15.188	61.5977
15.272	61.5429
15.356	61.4726
15.44	61.5253
15.524	61.5097
15.608	61.3552
15.692	61.2677
15.776	61.2576
15.86	61.2183
15.944	61.2856
16.028	61.5289
16.112	61.8331
16.196	62.1163
16.28	62.2845
16.364	62.2643
16.448	62.0182
16.532	61.6013
16.616	61.3591
16.7	61.6455
16.784	62.2034
16.868	62.3943
16.952	61.9917
17.036	61.3016
17.12	60.6064
17.204	59.9917
17.288	59.6805
17.372	59.8666
17.456	60.2684
17.54	60.4545
17.624	60.5368
17.708	60.9738
17.792	61.7525
17.876	62.2983
17.96	62.2503
18.044	61.8945
18.128	61.7231
18.212	61.8654
18.296	62.131
18.38	62.3529
18.464	62.503
18.548	62.538
18.632	62.317
18.716	61.7814
18.8	61.11
18.884	60.5831
18.968	60.3737
19.052	60.4996
19.136	60.8275
19.22	61.1105
19.304	61.1443
19.388	60.9553
19.472	60.7707
19.556	60.7594
19.64	60.8499
19.724	60.8575
19.808	60.7363
19.892	60.6249
19.976	60.692
20.06	60.9876
20.144	61.4156
20.228	61.8028
20.312	62.0016
20.396	61.9523
20.48	61.6934
20.564	61.3313
20.648	61.0104
20.732	60.8563
20.816	60.9066
20.9	61.0911
20.984	61.2827
21.068	61.3765
21.152	61.3456
21.236	61.2362
21.32	61.1374
21.404	61.1271
21.488	61.2169
21.572	61.335
21.656	61.3693
21.74	61.2403
21.824	60.9541
21.908	60.6103
21.992	60.3453
22.076	60.2561
22.16	60.3472
22.244	60.516
22.328	60.6196
22.412	60.5544
22.496	60.3125
22.58	59.9828
22.664	59.6928
22.748	59.5356
22.832	59.5247
22.916	59.6224
23	59.786
23.084	60.006
23.168	60.3005
23.252	60.6701
23.336	61.0634
23.42	61.4008
23.504	61.6098
23.588	61.6527
23.672	61.5342
23.756	61.2932
23.84	60.9666
23.924	60.5926
24.008	60.2088
24.092	59.8649
24.176	59.6461
24.26	59.6424
24.344	59.9106
24.428	60.4277
24.512	61.0867
24.596	61.6885
24.68	61.9985
24.764	61.8478
24.848	61.1915
24.932	60.1511
25.016	58.9889
25.1	58.01
25.184	57.4755
25.268	57.5011
25.352	58.0565
25.436	59.002
25.52	60.1845
25.604	61.522
25.688	63.0025
25.772	64.6463
25.856	66.4149
25.94	68.1169
26.024	69.3721
26.108	69.711
26.192	68.7454
26.276	66.3117
26.36	62.5798
26.444	58.054
26.528	53.4475
26.612	49.417
26.696	46.5054
26.78	45.0458
26.864	45.0937
26.948	46.4553
27.028	48.5996