File: Bakgrunnsmateriale/MATLAB/FTIR/ftir_data/subAa/Mapping_121/BZ1503107-1_t63_cm-1.asc
PE IR       SPECTRUM    SPECTRUM    ASCII       PEDS        1.60
  -1
BZ6B21~1.ASC
17/04/07
18:22:50.00
17/04/07
18:22:50.00
tln
$BZ1503107-1_t0063$<tbV0>[-5.2,0.0,8.0,0.0,27,1,0]
370
64

2002,4.07
MIRTGS : RIGHTBACK : INTERNAL 2
MIR : ON : INTERNAL 2
OPTKBR

0.200000
8
8.000000
FILLER
RATIO
SPECTRUM
UNLOCKED 256

DOUBLE
64
COMBINED
1
0
0

1.000000
RATIO

1
0
TRUE
51149
0
LEFT NOT FITTED RIGHT NOT FITTED 0
NONE
NONE
15600
12
4.427000
51148
TRUE
1 0 8 72 0 0 0 0

15798

#HDR
-1
-1
#GR
CM-1
%T
2.38419e-05
0.0
5000
-1.000000
4631
8
75.2188
53.7136
#DATA
5000	64.8516
4984	65.7259
4968	65.0049
4952	65.0947
4936	64.7467
4920	64.7286
4904	64.9443
4888	64.7134
4872	65.1892
4856	64.8046
4840	64.6691
4824	64.5716
4808	64.7228
4792	64.5215
4776	64.8818
4760	64.8515
4744	64.9353
4728	64.6329
4712	65.0319
4696	64.544
4680	65.1472
4664	64.8868
4648	64.8122
4632	65.1628
4616	64.6039
4600	65.3883
4584	65.1761
4568	64.6298
4552	64.897
4536	64.6843
4520	65.2421
4504	65.0737
4488	64.8394
4472	64.9308
4456	65.0278
4440	62.4705
4424	58.8002
4408	65.5429
4392	65.3966
4376	64.9614
4360	65.3946
4344	64.9893
4328	65.2035
4312	65.0336
4296	65.2188
4280	65.3217
4264	65.1398
4248	64.7051
4232	65.0674
4216	65.1119
4200	65.1917
4184	65.1977
4168	64.781
4152	64.9134
4136	65.0681
4120	64.9226
4104	65.1088
4088	64.8066
4072	65.0529
4056	65.1594
4040	65.0887
4024	64.9808
4008	64.942
3992	65.2679
3976	65.2804
3960	65.1586
3944	64.8703
3928	64.8696
3912	65.0888
3896	65.2557
3880	65.1717
3864	65.0952
3848	65.0948
3832	65.0191
3816	65.1688
3800	65.0339
3784	65.4524
3768	65.1577
3752	65.0611
3736	65.001
3720	64.9691
3704	65.2432
3688	64.9229
3672	64.9554
3656	65.1825
3640	65.1443
3624	65.1171
3608	65.0017
3592	65.0645
3576	65.0924
3560	65.0007
3544	65.1226
3528	64.8369
3512	65.1217
3496	65.313
3480	65.1081
3464	65.0988
3448	65.2105
3432	64.9451
3416	65.0495
3400	64.9333
3384	65.0984
3368	65.0213
3352	64.9744
3336	65.0497
3320	65.0087
3304	65.0443
3288	64.8796
3272	65.0256
3256	65.0739
3240	65.0161
3224	65.0893
3208	64.9346
3192	65.0783
3176	65.0423
3160	65.0662
3144	65.1125
3128	65.2182
3112	65.0192
3096	65.1099
3080	64.8216
3064	64.9841
3048	64.9662
3032	64.8589
3016	64.8875
3000	65.0871
2984	64.9277
2968	64.774
2952	64.8814
2936	64.9015
2920	64.9562
2904	64.9528
2888	64.8694
2872	64.9311
2856	64.8839
2840	64.9998
2824	65.0295
2808	64.8601
2792	64.8679
2776	64.9144
2760	64.9319
2744	64.9263
2728	64.8975
2712	64.9599
2696	64.9682
2680	64.902
2664	64.9435
2648	64.9663
2632	64.8759
2616	64.9627
2600	64.9091
2584	64.9196
2568	64.761
2552	64.7867
2536	64.868
2520	64.8102
2504	64.6479
2488	64.974
2472	64.7546
2456	64.8248
2440	64.7665
2424	64.866
2408	64.7521
2392	64.8116
2376	64.7404
2360	64.6346
2344	64.7076
2328	64.7043
2312	64.7513
2296	64.8085
2280	64.647
2264	64.7371
2248	64.7034
2232	64.5779
2216	64.715
2200	64.7206
2184	64.5873
2168	64.571
2152	64.6835
2136	64.554
2120	64.6551
2104	64.641
2088	64.5276
2072	64.5815
2056	64.5583
2040	64.5758
2024	64.5393
2008	64.5807
1992	64.5722
1976	64.4334
1960	64.5612
1944	64.4892
1928	64.5018
1912	64.4957
1896	64.406
1880	64.365
1864	64.465
1848	64.4687
1832	64.4134
1816	64.3908
1800	64.4634
1784	64.3883
1768	64.2725
1752	64.2461
1736	64.0491
1720	64.1217
1704	64.1276
1688	64.1653
1672	64.1098
1656	64.223
1640	64.1868
1624	64.1742
1608	64.2519
1592	64.098
1576	64.1409
1560	64.1684
1544	64.0599
1528	64.0073
1512	64.222
1496	64.1261
1480	64.0947
1464	64.1069
1448	64.0534
1432	63.9786
1416	64.1082
1400	63.9405
1384	63.9283
1368	64.0095
1352	63.7592
1336	63.8843
1320	63.918
1304	63.8852
1288	63.8373
1272	63.9306
1256	63.8453
1240	63.7949
1224	63.7206
1208	63.7967
1192	63.6673
1176	63.7493
1160	63.5755
1144	63.4961
1128	63.5443
1112	63.6799
1096	63.6471
1080	63.6289
1064	63.6116
1048	63.5486
1032	63.5935
1016	63.521
1000	63.6303
984	 63.673
968	 63.5994
952	 63.5302
936	 63.376
920	 63.4538
904	 63.5309
888	 63.4075
872	 63.6951
856	 63.8243
840	 63.59
824	 63.8693
808	 63.4855
792	 63.3547
776	 63.5367
760	 63.5366
744	 63.31
728	 63.5036
712	 63.3737
696	 63.1585
680	 63.5632
664	 63.5935
648	 63.0976
632	 62.5101
616	 63.6268
600	 62.6738
584	 63.1403
568	 62.9542
552	 63.0531
536	 62.0843
520	 64.2318
504	 63.0211
488	 63.1604
472	 62.8441
456	 62.4785
440	 62.5522
424	 65.3173
408	 61.3897
392	 56.6308
376	 75.2188
370	 63.061