File: Bakgrunnsmateriale/MATLAB/FTIR/ftir_data/subAa/Mapping_121/BZ1503107-1_t92_cm-1.asc
PE IR       SPECTRUM    SPECTRUM    ASCII       PEDS        1.60
  -1
BZ6AA5~1.ASC
17/04/07
20:50:37.00
17/04/07
20:50:37.00
tln
$BZ1503107-1_t0092$<tbV0>[5.2,7.8,8.0,0.0,27,1,0]
370
64

2002,4.07
MIRTGS : RIGHTBACK : INTERNAL 2
MIR : ON : INTERNAL 2
OPTKBR

0.200000
8
8.000000
FILLER
RATIO
SPECTRUM
UNLOCKED 256

DOUBLE
64
COMBINED
1
0
0

1.000000
RATIO

1
0
TRUE
51149
0
LEFT NOT FITTED RIGHT NOT FITTED 0
NONE
NONE
15600
12
4.427000
51148
TRUE
1 0 8 72 0 0 0 0

15798

#HDR
-1
-1
#GR
CM-1
%T
2.38419e-05
0.0
5000
-1.000000
4631
8
78.5216
60.0786
#DATA
5000	64.8235
4984	66.3414
4968	63.3227
4952	66.2721
4936	65.4875
4920	65.403
4904	65.2299
4888	64.4024
4872	65.8215
4856	64.4111
4840	64.6655
4824	64.4891
4808	64.7765
4792	65.0052
4776	65.2192
4760	64.6183
4744	65.0977
4728	65.2191
4712	65.2442
4696	64.943
4680	65.5179
4664	65.177
4648	65.276
4632	65.4556
4616	65.1795
4600	64.9806
4584	65.275
4568	64.9148
4552	64.6808
4536	64.8309
4520	65.0476
4504	64.5311
4488	63.7664
4472	64.6962
4456	64.0913
4440	67.6559
4424	65.1754
4408	65.2052
4392	64.103
4376	64.4972
4360	64.9322
4344	64.8134
4328	64.8108
4312	64.6569
4296	65.114
4280	64.9708
4264	64.6695
4248	64.9405
4232	64.9917
4216	64.9845
4200	64.9574
4184	65.2752
4168	65.3538
4152	64.8844
4136	65.1167
4120	65.0279
4104	65.1958
4088	64.9825
4072	65.1085
4056	64.9811
4040	64.8587
4024	65.2385
4008	65.1641
3992	65.0813
3976	65.0915
3960	64.942
3944	64.9913
3928	64.8996
3912	65.1003
3896	65.1255
3880	64.9712
3864	65.1973
3848	65.1039
3832	65.1104
3816	65.0978
3800	64.978
3784	65.1656
3768	65.1183
3752	65.1668
3736	65.0256
3720	65.3203
3704	65.0614
3688	65.1448
3672	65.1779
3656	64.965
3640	65.1349
3624	65.2259
3608	64.9711
3592	65.1765
3576	65.0569
3560	65.1136
3544	64.9852
3528	65.2872
3512	64.9037
3496	65.0511
3480	65.0727
3464	65.1449
3448	65.0798
3432	65.1036
3416	65.1212
3400	65.0663
3384	64.9899
3368	64.9532
3352	64.8708
3336	64.9874
3320	64.8751
3304	65.0875
3288	64.8542
3272	65.0519
3256	65.0146
3240	64.9657
3224	64.9492
3208	65.0378
3192	64.799
3176	64.9941
3160	64.9011
3144	64.9048
3128	64.897
3112	64.9066
3096	65.0226
3080	64.8285
3064	64.7711
3048	65.0003
3032	64.9038
3016	64.9535
3000	64.7942
2984	64.791
2968	64.7237
2952	64.5606
2936	64.7872
2920	64.8651
2904	64.9272
2888	64.7937
2872	64.7407
2856	64.7973
2840	64.7167
2824	64.8195
2808	64.7572
2792	64.7167
2776	64.9118
2760	64.8144
2744	64.7505
2728	64.8353
2712	64.7854
2696	64.7958
2680	64.8772
2664	64.7898
2648	64.8813
2632	64.7223
2616	64.7896
2600	64.6806
2584	64.7415
2568	64.7399
2552	64.6728
2536	64.6483
2520	64.7054
2504	64.5947
2488	64.7845
2472	64.7749
2456	64.6737
2440	64.5978
2424	64.6234
2408	64.6051
2392	64.5415
2376	64.5227
2360	64.6882
2344	64.5472
2328	64.5795
2312	64.5381
2296	64.5497
2280	64.4813
2264	64.4505
2248	64.4798
2232	64.4172
2216	64.4851
2200	64.4097
2184	64.3558
2168	64.4325
2152	64.381
2136	64.36
2120	64.3122
2104	64.3735
2088	64.3223
2072	64.2647
2056	64.4796
2040	64.3233
2024	64.2514
2008	64.2766
1992	64.4053
1976	64.2951
1960	64.2126
1944	64.1486
1928	64.1426
1912	64.1628
1896	64.2528
1880	64.1238
1864	64.1451
1848	64.0481
1832	64.2072
1816	64.1925
1800	64.1035
1784	64.0373
1768	64.0374
1752	63.8088
1736	63.7067
1720	63.8086
1704	63.8939
1688	63.8435
1672	63.8762
1656	63.8398
1640	63.9896
1624	63.8283
1608	63.8598
1592	63.9494
1576	63.6972
1560	63.63
1544	63.6541
1528	63.6488
1512	63.7374
1496	63.7323
1480	63.75
1464	63.6336
1448	63.6198
1432	63.6337
1416	63.6325
1400	63.6217
1384	63.4597
1368	63.5989
1352	63.6099
1336	63.4353
1320	63.5633
1304	63.4196
1288	63.5041
1272	63.2961
1256	63.3599
1240	63.319
1224	63.3725
1208	63.3003
1192	63.2777
1176	63.0044
1160	63.0646
1144	63.2224
1128	63.1636
1112	63.2345
1096	63.0858
1080	63.1599
1064	63.1451
1048	63.0012
1032	63.1242
1016	62.9355
1000	62.9481
984	 63.2496
968	 63.0846
952	 63.0354
936	 63.0764
920	 63.0052
904	 62.9874
888	 62.845
872	 63.0692
856	 62.9141
840	 62.9578
824	 62.8501
808	 62.9024
792	 63.2081
776	 62.646
760	 62.6758
744	 62.8336
728	 62.8987
712	 62.6717
696	 62.5286
680	 62.3314
664	 62.1966
648	 62.5633
632	 62.4639
616	 62.2116
600	 62.4602
584	 62.5775
568	 62.8692
552	 62.9344
536	 61.1835
520	 61.2204
504	 61.3544
488	 62.8707
472	 62.7374
456	 62.7788
440	 62.5573
424	 62.2941
408	 60.3509
392	 67.973
376	 69.4649
370	 61.1791