File: Bakgrunnsmateriale/MATLAB/FTIR/ftir_data/subAa/Mapping_121/BZ1503107-1_t45_cm-1.asc
PE IR       SPECTRUM    SPECTRUM    ASCII       PEDS        1.60
  -1
BZ6D24~1.ASC
17/04/07
16:59:02.00
17/04/07
16:59:02.00
tln
$BZ1503107-1_t0045$<tbV0>[13.0,-2.6,8.0,0.0,27,1,0]
370
64

2002,4.07
MIRTGS : RIGHTBACK : INTERNAL 2
MIR : ON : INTERNAL 2
OPTKBR

0.200000
8
8.000000
FILLER
RATIO
SPECTRUM
UNLOCKED 256

DOUBLE
64
COMBINED
1
0
0

1.000000
RATIO

1
0
TRUE
51149
0
LEFT NOT FITTED RIGHT NOT FITTED 0
NONE
NONE
15600
12
4.427000
51148
TRUE
1 0 8 72 0 0 0 0

15798

#HDR
-1
-1
#GR
CM-1
%T
2.38419e-05
0.0
5000
-1.000000
4631
8
75.8533
53.0181
#DATA
5000	65.2387
4984	64.8544
4968	65.6057
4952	64.7386
4936	64.5927
4920	64.7494
4904	65.0982
4888	65.1117
4872	65.0083
4856	64.726
4840	64.96
4824	64.6295
4808	64.981
4792	65.2099
4776	65.17
4760	64.928
4744	65.1555
4728	65.085
4712	64.8084
4696	65.0422
4680	65.4274
4664	65.0248
4648	65.1258
4632	65.0379
4616	64.9698
4600	64.5931
4584	64.7799
4568	64.5454
4552	65.0023
4536	64.4952
4520	64.4026
4504	64.5736
4488	64.4909
4472	63.8207
4456	63.9509
4440	62.6175
4424	71.5007
4408	67.0186
4392	65.7544
4376	64.6657
4360	64.751
4344	64.1384
4328	64.7388
4312	64.5632
4296	64.6097
4280	64.551
4264	64.752
4248	64.8863
4232	65.0611
4216	64.895
4200	65.012
4184	65.0929
4168	64.8617
4152	65.101
4136	65.3402
4120	65.1532
4104	64.9422
4088	65.0284
4072	65.3045
4056	65.1798
4040	65.0192
4024	64.9845
4008	64.8123
3992	65.2432
3976	65.2859
3960	65.1545
3944	64.9875
3928	65.0225
3912	65.0547
3896	65.1136
3880	65.0494
3864	64.9129
3848	65.0298
3832	65.1865
3816	65.0305
3800	65.2795
3784	65.4225
3768	65.0121
3752	64.9835
3736	65.0773
3720	65.21
3704	65.2271
3688	65.0444
3672	65.1616
3656	65.0573
3640	65.2964
3624	65.1936
3608	65.1973
3592	65.0688
3576	65.0718
3560	65.2141
3544	65.2131
3528	65.1456
3512	65.1779
3496	65.1841
3480	65.0696
3464	65.159
3448	65.1661
3432	65.0508
3416	65.0544
3400	64.9895
3384	65.1517
3368	65.2837
3352	64.9468
3336	65.1329
3320	64.9734
3304	65.2066
3288	64.9511
3272	64.9043
3256	65.074
3240	65.2401
3224	65.17
3208	65.2275
3192	65.0716
3176	65.1263
3160	65.0824
3144	64.9655
3128	65.2355
3112	64.9165
3096	65.1524
3080	65.0489
3064	64.9175
3048	65.0015
3032	65.1031
3016	65.1044
3000	64.9446
2984	64.9461
2968	64.8095
2952	64.8702
2936	64.7392
2920	64.725
2904	64.7769
2888	64.9202
2872	64.9394
2856	64.8741
2840	64.9147
2824	64.9101
2808	64.9548
2792	64.9793
2776	65.0581
2760	64.9085
2744	64.953
2728	65.0132
2712	65.1199
2696	65.0088
2680	64.9355
2664	64.9614
2648	64.8665
2632	65.0233
2616	64.9708
2600	64.9905
2584	64.8716
2568	64.8662
2552	64.835
2536	64.8901
2520	65.0088
2504	64.9835
2488	64.9029
2472	64.7764
2456	64.7642
2440	64.8938
2424	64.9429
2408	64.8345
2392	64.843
2376	64.7222
2360	64.7559
2344	64.7958
2328	64.8984
2312	64.8252
2296	64.7217
2280	64.9324
2264	64.8906
2248	64.8895
2232	64.8564
2216	64.7699
2200	64.8615
2184	64.7199
2168	64.7066
2152	64.6876
2136	64.7818
2120	64.7053
2104	64.7257
2088	64.671
2072	64.6602
2056	64.664
2040	64.7119
2024	64.7068
2008	64.7758
1992	64.7541
1976	64.658
1960	64.6088
1944	64.6281
1928	64.6438
1912	64.5588
1896	64.4668
1880	64.5202
1864	64.6151
1848	64.663
1832	64.5754
1816	64.5833
1800	64.5778
1784	64.5926
1768	64.4287
1752	64.3801
1736	64.3499
1720	64.4067
1704	64.3154
1688	64.3524
1672	64.2891
1656	64.358
1640	64.3256
1624	64.3136
1608	64.3279
1592	64.3178
1576	64.2438
1560	64.2923
1544	64.3273
1528	64.3417
1512	64.1801
1496	64.3121
1480	64.3045
1464	64.1704
1448	64.185
1432	64.3194
1416	64.216
1400	64.1637
1384	64.2286
1368	64.1796
1352	64.1028
1336	64.0046
1320	64.0666
1304	64.156
1288	64.0624
1272	64.0356
1256	64.0236
1240	64.0092
1224	63.9831
1208	63.9807
1192	63.9695
1176	64.091
1160	63.8379
1144	63.6753
1128	63.9438
1112	63.8876
1096	63.887
1080	64.1559
1064	63.8602
1048	63.9064
1032	63.9704
1016	63.7803
1000	63.8569
984	 63.9421
968	 63.8663
952	 63.807
936	 63.684
920	 63.7682
904	 63.8879
888	 63.9372
872	 63.8454
856	 64.0722
840	 63.843
824	 63.9189
808	 63.7925
792	 64.0025
776	 63.7004
760	 63.7747
744	 63.4842
728	 63.7129
712	 63.8992
696	 63.4933
680	 63.5855
664	 63.9063
648	 63.9835
632	 63.2769
616	 64.2884
600	 64.2672
584	 63.6135
568	 63.235
552	 63.8599
536	 63.043
520	 64.2377
504	 63.1438
488	 62.4632
472	 63.5317
456	 61.9124
440	 63.6696
424	 65.068
408	 63.5801
392	 60.9377
376	 60.4281
370	 75.8533