File: Bakgrunnsmateriale/MATLAB/FTIR/ftir_data/subAa/Mapping_121/BZ1503107-1_t14_cm-1.asc
PE IR       SPECTRUM    SPECTRUM    ASCII       PEDS        1.60
  -1
BZ6CA1~1.ASC
17/04/07
14:21:08.00
17/04/07
14:21:08.00
tln
$BZ1503107-1_t0014$<tbV0>[7.8,-10.4,8.0,0.0,27,1,0]
370
64

2002,4.07
MIRTGS : RIGHTBACK : INTERNAL 2
MIR : ON : INTERNAL 2
OPTKBR

0.200000
8
8.000000
FILLER
RATIO
SPECTRUM
UNLOCKED 256

DOUBLE
64
COMBINED
1
0
0

1.000000
RATIO

1
0
TRUE
51149
0
LEFT NOT FITTED RIGHT NOT FITTED 0
NONE
NONE
15600
12
4.427000
51148
TRUE
1 0 8 72 0 0 0 0

15798

#HDR
-1
-1
#GR
CM-1
%T
2.38419e-05
0.0
5000
-1.000000
4631
8
98.3437
52.1989
#DATA
5000	64.0523
4984	64.052
4968	63.9456
4952	64.3295
4936	66.1551
4920	64.1091
4904	65.2324
4888	64.7711
4872	64.6382
4856	64.8397
4840	65.2387
4824	65.0169
4808	64.8156
4792	65.4442
4776	65.0578
4760	65.0912
4744	65.1318
4728	64.8734
4712	64.5232
4696	64.6477
4680	65.1161
4664	64.933
4648	64.8669
4632	64.4639
4616	64.7309
4600	64.9354
4584	64.7972
4568	64.6738
4552	64.3955
4536	64.6911
4520	64.4879
4504	64.8791
4488	68.0026
4472	65.4186
4456	61.1701
4440	69.3599
4424	63.5304
4408	65.3081
4392	64.5282
4376	64.843
4360	64.7773
4344	64.8124
4328	64.5257
4312	65.0184
4296	65.1121
4280	64.9263
4264	64.8566
4248	65.3319
4232	65.3203
4216	65.2676
4200	65.3817
4184	65.2885
4168	65.0264
4152	65.2228
4136	65.1408
4120	65.1475
4104	65.6813
4088	65.2911
4072	65.2053
4056	65.4603
4040	65.1092
4024	65.1607
4008	65.0026
3992	65.3503
3976	65.0222
3960	65.1064
3944	65.5207
3928	64.9888
3912	64.9332
3896	65.3108
3880	65.2284
3864	65.2887
3848	65.2591
3832	65.4575
3816	65.2908
3800	65.3414
3784	65.1819
3768	65.2661
3752	65.5023
3736	65.2382
3720	65.1145
3704	65.2607
3688	65.4462
3672	65.4938
3656	65.2031
3640	65.4046
3624	65.343
3608	65.3947
3592	65.1144
3576	65.3264
3560	65.0133
3544	65.1853
3528	65.1168
3512	65.1911
3496	65.0802
3480	65.1841
3464	65.0872
3448	65.2126
3432	65.2442
3416	65.344
3400	65.1302
3384	65.0515
3368	65.3152
3352	65.0255
3336	65.2184
3320	65.2626
3304	65.1574
3288	65.3736
3272	65.153
3256	65.2067
3240	65.0864
3224	65.3582
3208	65.294
3192	65.1961
3176	65.2391
3160	65.2378
3144	65.2931
3128	65.0697
3112	65.1133
3096	65.3336
3080	65.1929
3064	65.2721
3048	65.0497
3032	65.1658
3016	65.2364
3000	65.3589
2984	65.2504
2968	65.1686
2952	65.1581
2936	65.0116
2920	65.0154
2904	65.0619
2888	65.0755
2872	65.2494
2856	65.0713
2840	65.0691
2824	65.1999
2808	65.0706
2792	65.0413
2776	65.0663
2760	65.0756
2744	65.0947
2728	65.2068
2712	65.1383
2696	65.1484
2680	65.0837
2664	65.0579
2648	65.0584
2632	64.962
2616	64.967
2600	64.9909
2584	65.1185
2568	65.0803
2552	65.1566
2536	65.0238
2520	65.0807
2504	65.1685
2488	65.1806
2472	65.04
2456	65.0178
2440	64.9574
2424	64.9268
2408	64.9527
2392	65.0695
2376	65.1151
2360	65.0993
2344	65.0526
2328	64.8869
2312	65.1667
2296	65.031
2280	64.9767
2264	65.0559
2248	65.005
2232	64.8637
2216	64.8885
2200	64.9753
2184	64.9553
2168	65.0267
2152	64.7052
2136	64.8247
2120	64.9466
2104	64.9482
2088	64.8902
2072	64.9857
2056	64.8992
2040	64.8002
2024	64.963
2008	64.9473
1992	64.8188
1976	64.973
1960	64.8802
1944	64.8844
1928	64.8063
1912	64.9516
1896	64.8252
1880	64.8452
1864	64.8033
1848	64.9338
1832	64.922
1816	64.8757
1800	64.8611
1784	64.8431
1768	64.8805
1752	64.7476
1736	64.8242
1720	64.7703
1704	64.7667
1688	64.6853
1672	64.7026
1656	64.8082
1640	64.6745
1624	64.7091
1608	64.6716
1592	64.6867
1576	64.8439
1560	64.8576
1544	64.7957
1528	64.5956
1512	64.7465
1496	64.7305
1480	64.6808
1464	64.6575
1448	64.5571
1432	64.5927
1416	64.4428
1400	64.5106
1384	64.4534
1368	64.4053
1352	64.5216
1336	64.4226
1320	64.5141
1304	64.4297
1288	64.5206
1272	64.3395
1256	64.3807
1240	64.29
1224	64.4227
1208	64.3245
1192	64.4019
1176	64.2577
1160	64.1793
1144	64.1676
1128	64.3232
1112	64.1723
1096	64.4147
1080	64.4509
1064	64.124
1048	64.2988
1032	64.0625
1016	64.233
1000	64.2314
984	 64.3189
968	 64.3455
952	 64.3466
936	 64.2042
920	 64.3693
904	 64.1766
888	 64.1798
872	 64.1658
856	 64.0874
840	 64.1573
824	 64.1439
808	 64.1001
792	 64.2499
776	 64.2188
760	 64.0579
744	 64.0512
728	 63.9152
712	 63.9879
696	 63.905
680	 63.7262
664	 63.8739
648	 63.9252
632	 63.8174
616	 63.664
600	 63.5944
584	 63.973
568	 63.882
552	 63.2289
536	 65.0818
520	 64.5556
504	 64.9658
488	 63.273
472	 64.7699
456	 63.2768
440	 63.0889
424	 64.3134
408	 66.6984
392	 56.4257
376	 90.6676
370	 98.3437