File: Bakgrunnsmateriale/MATLAB/FTIR/ftir_data/subAa/Mapping_121/BZ1503107-1_t79.asc
PE IR       SPECTRUM    SPECTRUM    ASCII       PEDS        1.60
  -1
BZ2D6F~1.ASC
17/04/07
19:44:05.00
17/04/07
19:44:31.00
tln
$BZ1503107-1_t0079$<tbV0>[10.4,5.2,8.0,0.0,27,1,0]
27.028
64

2002,4.07
MIRTGS : RIGHTBACK : INTERNAL 2
MIR : ON : INTERNAL 2
OPTKBR

0.200000
8
8.000000
FILLER
RATIO
SPECTRUM
UNLOCKED 256

DOUBLE
64
COMBINED
1
0
0

0.002000
RATIO

1
0
TRUE
51149
0
LEFT NOT FITTED RIGHT NOT FITTED 0
NONE
NONE
15600
12
4.427000
51148
TRUE
1 0 8 72 0 0 0 0

15798

#HDR
-1
-1
#GR
µM
%T
2.38419e-05
0.0
2.000000
0.002000
12515
8
77.9144
45.3181
#DATA
2.000000	 64.5756
2.084000	 64.5474
2.168000	 65.1689
2.252000	 48.1809
2.336000	 64.6458
2.420000	 64.8204
2.504000	 64.8494
2.588000	 65.3288
2.672000	 65.1924
2.756000	 64.9207
2.840000	 65.1376
2.924000	 64.9388
3.008000	 65.1391
3.092000	 65.0013
3.176000	 64.9743
3.260000	 65.0047
3.344000	 64.977
3.428000	 64.8268
3.512000	 64.7283
3.596000	 64.9571
3.680000	 64.7427
3.764000	 64.8649
3.848000	 64.8793
3.932000	 64.7542
4.016000	 64.7227
4.100000	 64.745
4.184000	 64.6046
4.268000	 64.5262
4.352000	 64.5152
4.436000	 64.6476
4.520000	 64.571
4.604000	 64.4131
4.688000	 64.4147
4.772000	 64.4293
4.856000	 64.3926
4.940000	 64.3449
5.024000	 64.2983
5.108000	 64.485
5.192000	 64.3886
5.276000	 64.3845
5.359999	 64.2331
5.444000	 64.2025
5.528000	 64.2685
5.612000	 64.1362
5.696000	 64.1943
5.780000	 63.87
5.864000	 64.0082
5.948000	 64.0506
6.032000	 64.1007
6.116000	 64.0425
6.200000	 63.9869
6.284000	 63.8761
6.368000	 63.8408
6.452000	 63.9246
6.536000	 63.9114
6.620000	 63.9011
6.704000	 63.8265
6.788000	 63.9042
6.872000	 63.8444
6.956000	 63.7909
7.040000	 63.9704
7.124000	 63.6873
7.208000	 63.7078
7.292000	 63.6781
7.376000	 63.5745
7.460000	 63.8902
7.544000	 63.7209
7.628000	 63.7994
7.712000	 63.6105
7.796000	 63.5392
7.880000	 63.5499
7.964000	 63.6104
8.048000	 63.5299
8.132000	 63.5374
8.216000	 63.531
8.300000	 63.5734
8.384000	 63.5325
8.468000	 63.463
8.552000	 63.3022
8.635999	 63.4158
8.719999	 63.4535
8.804000	 63.4863
8.888000	 63.4133
8.972000	 63.4253
9.056000	 63.338
9.140000	 63.3002
9.224000	 63.432
9.308000	 63.395
9.391999	 63.3908
9.475999	 63.4177
9.560000	 63.5587
9.644000	 63.2694
9.728000	 63.372
9.812000	 63.3771
9.896000	 63.4015
9.980000	 63.3321
10.064	63.1735
10.148	63.499
10.232	63.669
10.316	63.4167
10.4	63.3522
10.484	63.3942
10.568	63.4421
10.652	63.3446
10.736	63.2608
10.82	63.2532
10.904	63.435
10.988	63.5041
11.072	63.4293
11.156	63.3833
11.24	63.4637
11.324	63.2625
11.408	63.3896
11.492	63.7491
11.576	63.6098
11.66	63.4119
11.744	63.2205
11.828	63.3725
11.912	63.4429
11.996	63.4327
12.08	63.1577
12.164	63.1112
12.248	63.1126
12.332	63.0391
12.416	63.0834
12.5	63.1578
12.584	63.0517
12.668	63.1177
12.752	63.2333
12.836	63.3424
12.92	63.3266
13.004	63.2317
13.088	63.1898
13.172	63.1604
13.256	63.1978
13.34	63.1891
13.424	63.1477
13.508	63.1514
13.592	63.2121
13.676	63.1155
13.76	62.7891
13.844	62.6241
13.928	62.7649
14.012	62.9491
14.096	62.9659
14.18	62.9093
14.264	62.8554
14.348	62.821
14.432	62.7927
14.516	62.7664
14.6	62.8365
14.684	63.0508
14.768	63.2029
14.852	63.053
14.936	62.686
15.02	62.4927
15.104	62.7133
15.188	62.937
15.272	62.7499
15.356	62.4156
15.44	62.3448
15.524	62.4818
15.608	62.5011
15.692	62.3884
15.776	62.3912
15.86	62.4499
15.944	62.322
16.028	62.1472
16.112	62.2761
16.196	62.7201
16.28	63.078
16.364	63.0269
16.448	62.8087
16.532	62.8696
16.616	63.1291
16.7	63.2104
16.784	63.0829
16.868	62.9108
16.952	62.7532
17.036	62.6641
17.12	62.6324
17.204	62.492
17.288	62.2315
17.372	62.014
17.456	61.8685
17.54	61.7858
17.624	61.9174
17.708	62.33
17.792	62.8197
17.876	63.1486
17.96	63.3109
18.044	63.3965
18.128	63.3982
18.212	63.2692
18.296	63.0063
18.38	62.5864
18.464	62.0373
18.548	61.5817
18.632	61.5103
18.716	61.8318
18.8	62.2093
18.884	62.3304
18.968	62.2552
19.052	62.3345
19.136	62.7777
19.22	63.4172
19.304	63.8731
19.388	63.9037
19.472	63.5536
19.556	63.0427
19.64	62.5929
19.724	62.3479
19.808	62.3487
19.892	62.4974
19.976	62.5949
20.06	62.4942
20.144	62.2193
20.228	61.9444
20.312	61.8503
20.396	62.0062
20.48	62.3547
20.564	62.777
20.648	63.1666
20.732	63.4522
20.816	63.5857
20.9	63.5338
20.984	63.2713
21.068	62.8118
21.152	62.23
21.236	61.6582
21.32	61.2452
21.404	61.0916
21.488	61.2066
21.572	61.5092
21.656	61.8723
21.74	62.1713
21.824	62.3192
21.908	62.2911
21.992	62.1346
22.076	61.9546
22.16	61.8692
22.244	61.9351
22.328	62.1174
22.412	62.3179
22.496	62.4447
22.58	62.4735
22.664	62.4432
22.748	62.415
22.832	62.412
22.916	62.4124
23	62.3726
23.084	62.2755
23.168	62.1709
23.252	62.147
23.336	62.2705
23.42	62.5481
23.504	62.915
23.588	63.2713
23.672	63.5459
23.756	63.7305
23.84	63.8505
23.924	63.9324
24.008	63.976
24.092	63.9572
24.176	63.8598
24.26	63.716
24.344	63.6033
24.428	63.5854
24.512	63.6632
24.596	63.7281
24.68	63.5801
24.764	63.016
24.848	61.9556
24.932	60.4873
25.016	58.8688
25.1	57.4453
25.184	56.5913
25.268	56.5435
25.352	57.3085
25.436	58.6785
25.52	60.2943
25.604	61.7783
25.688	62.8065
25.772	63.2292
25.856	63.0897
25.94	62.5201
26.024	61.67
26.108	60.6573
26.192	59.5049
26.276	58.2243
26.36	56.9122
26.444	55.7891
26.528	55.1651
26.612	55.4151
26.696	56.7557
26.78	59.0898
26.864	61.9281
26.948	64.4955
27.028	65.9215