File: Bakgrunnsmateriale/MATLAB/FTIR/ftir_data/subAa/Mapping_121/BZ1503107-1_t39_cm-1.asc
PE IR       SPECTRUM    SPECTRUM    ASCII       PEDS        1.60
  -1
BZ61B0~1.ASC
17/04/07
16:24:22.00
17/04/07
16:24:22.00
tln
$BZ1503107-1_t0039$<tbV0>[0.0,-5.2,8.0,0.0,27,1,0]
370
64

2002,4.07
MIRTGS : RIGHTBACK : INTERNAL 2
MIR : ON : INTERNAL 2
OPTKBR

0.200000
8
8.000000
FILLER
RATIO
SPECTRUM
UNLOCKED 256

DOUBLE
64
COMBINED
1
0
0

1.000000
RATIO

1
0
TRUE
51149
0
LEFT NOT FITTED RIGHT NOT FITTED 0
NONE
NONE
15600
12
4.427000
51148
TRUE
1 0 8 72 0 0 0 0

15798

#HDR
-1
-1
#GR
CM-1
%T
2.38419e-05
0.0
5000
-1.000000
4631
8
77.5638
36.1422
#DATA
5000	65.7692
4984	64.9482
4968	64.5648
4952	64.7246
4936	64.2405
4920	64.0608
4904	64.7668
4888	64.6245
4872	64.6846
4856	64.9132
4840	65.0367
4824	64.439
4808	65.0628
4792	64.7674
4776	64.6419
4760	65.2973
4744	65.0645
4728	64.8723
4712	65.12
4696	65.1111
4680	64.7423
4664	64.9276
4648	64.9518
4632	64.789
4616	64.6072
4600	64.6579
4584	65.0301
4568	64.5346
4552	64.5642
4536	64.4026
4520	64.7526
4504	64.1602
4488	64.5931
4472	64.5822
4456	64.6501
4440	66.5566
4424	55.9167
4408	72.077
4392	65.0334
4376	64.8879
4360	64.6595
4344	64.5076
4328	64.4857
4312	64.5849
4296	65.1174
4280	64.7437
4264	64.9025
4248	64.7236
4232	65.1481
4216	65.062
4200	65.1845
4184	64.7998
4168	64.9597
4152	65.1314
4136	65.1581
4120	65.0604
4104	65.0791
4088	65.0047
4072	65.2561
4056	65.1947
4040	65.0372
4024	65.3072
4008	65.2882
3992	65.1613
3976	65.099
3960	64.9133
3944	65.1424
3928	65.1638
3912	65.1003
3896	65.1603
3880	64.8426
3864	64.9772
3848	65.0349
3832	64.8394
3816	65.0547
3800	65.2659
3784	65.097
3768	65.3528
3752	65.0068
3736	64.5684
3720	65.3796
3704	65.0747
3688	65.1547
3672	65.115
3656	65.1754
3640	65.0577
3624	65.2814
3608	65.3474
3592	65.2538
3576	65.1018
3560	65.0058
3544	65.0289
3528	65.1077
3512	65.2603
3496	65.2097
3480	64.8829
3464	65.1874
3448	65.0314
3432	65.0064
3416	65.1932
3400	65.1585
3384	65.2195
3368	65.0893
3352	65.0674
3336	65.1799
3320	65.1603
3304	65.1238
3288	64.9807
3272	65.2361
3256	64.9763
3240	65.1096
3224	65.1235
3208	65.1551
3192	64.9095
3176	65.0512
3160	65.0898
3144	64.9752
3128	65.0281
3112	65.0652
3096	65.0143
3080	65.0759
3064	65.1563
3048	65.0882
3032	65.0078
3016	65.2043
3000	65.1052
2984	65.094
2968	64.8654
2952	64.9733
2936	64.7998
2920	64.9636
2904	64.9969
2888	65.0149
2872	64.957
2856	65.0944
2840	64.9615
2824	65.1207
2808	64.9625
2792	65.2149
2776	65.0077
2760	65.0002
2744	64.9424
2728	64.9094
2712	65.0022
2696	65.0355
2680	65.0561
2664	64.8535
2648	64.9532
2632	64.949
2616	64.8715
2600	64.9882
2584	64.9884
2568	64.8944
2552	64.8706
2536	64.9316
2520	64.8449
2504	65.0489
2488	64.8471
2472	64.9341
2456	64.7711
2440	64.8521
2424	64.9538
2408	64.9137
2392	64.8747
2376	64.7006
2360	64.8326
2344	64.9162
2328	64.8962
2312	64.786
2296	64.8225
2280	64.7851
2264	64.7644
2248	64.7791
2232	64.8303
2216	64.7534
2200	64.8791
2184	64.8203
2168	64.7943
2152	64.7145
2136	64.796
2120	64.6999
2104	64.6855
2088	64.7434
2072	64.6884
2056	64.7767
2040	64.6727
2024	64.6418
2008	64.6768
1992	64.693
1976	64.6389
1960	64.6792
1944	64.7233
1928	64.6195
1912	64.5395
1896	64.5249
1880	64.5984
1864	64.5818
1848	64.6726
1832	64.4787
1816	64.5421
1800	64.5622
1784	64.4962
1768	64.4409
1752	64.3046
1736	64.1674
1720	64.4816
1704	64.3893
1688	64.432
1672	64.482
1656	64.2547
1640	64.3035
1624	64.3122
1608	64.2495
1592	64.3347
1576	64.1348
1560	64.2487
1544	64.3439
1528	64.2623
1512	64.3665
1496	64.3061
1480	64.2772
1464	64.2507
1448	64.2719
1432	64.1824
1416	64.2094
1400	64.1333
1384	64.12
1368	64.0952
1352	64.1033
1336	64.1406
1320	64.1072
1304	64.0735
1288	64.0699
1272	64.0131
1256	64.0684
1240	64.0326
1224	63.8704
1208	63.8054
1192	63.9627
1176	63.9566
1160	63.9264
1144	63.8837
1128	63.8978
1112	63.8255
1096	63.7793
1080	63.849
1064	63.9936
1048	63.7678
1032	64.0152
1016	63.7628
1000	63.9465
984	 63.9318
968	 63.9149
952	 63.7748
936	 63.9971
920	 64.2161
904	 63.9212
888	 63.8268
872	 63.9636
856	 63.8487
840	 63.7789
824	 63.8763
808	 63.9395
792	 63.9762
776	 63.751
760	 63.6614
744	 63.4528
728	 63.849
712	 63.4513
696	 63.2193
680	 63.6949
664	 63.5864
648	 63.3642
632	 63.9864
616	 63.6483
600	 64.3695
584	 63.8137
568	 63.6839
552	 64.2566
536	 63.2007
520	 63.5481
504	 63.9804
488	 63.7509
472	 62.3636
456	 62.7891
440	 62.7393
424	 61.4908
408	 64.4856
392	 65.2235
376	 67.1311
370	 36.1422