File: Bakgrunnsmateriale/MATLAB/FTIR/ftir_data/subAa/Mapping_121/BZ1503107-1_t93.asc
PE IR       SPECTRUM    SPECTRUM    ASCII       PEDS        1.60
  -1
BZ355B~1.ASC
17/04/07
20:55:14.00
17/04/07
20:55:40.00
tln
$BZ1503107-1_t0093$<tbV0>[2.6,7.8,8.0,0.0,27,1,0]
27.028
64

2002,4.07
MIRTGS : RIGHTBACK : INTERNAL 2
MIR : ON : INTERNAL 2
OPTKBR

0.200000
8
8.000000
FILLER
RATIO
SPECTRUM
UNLOCKED 256

DOUBLE
64
COMBINED
1
0
0

0.002000
RATIO

1
0
TRUE
51149
0
LEFT NOT FITTED RIGHT NOT FITTED 0
NONE
NONE
15600
12
4.427000
51148
TRUE
1 0 8 72 0 0 0 0

15798

#HDR
-1
-1
#GR
µM
%T
2.38419e-05
0.0
2.000000
0.002000
12515
8
98.2284
54.7102
#DATA
2.000000	 65.5887
2.084000	 65.0293
2.168000	 64.1507
2.252000	 98.1189
2.336000	 64.5919
2.420000	 64.9588
2.504000	 64.7035
2.588000	 65.0036
2.672000	 65.076
2.756000	 64.8614
2.840000	 64.9326
2.924000	 64.8916
3.008000	 64.8029
3.092000	 64.8289
3.176000	 64.7041
3.260000	 64.6971
3.344000	 64.6065
3.428000	 64.6113
3.512000	 64.4653
3.596000	 64.7392
3.680000	 64.676
3.764000	 64.4769
3.848000	 64.5071
3.932000	 64.4558
4.016000	 64.49
4.100000	 64.3184
4.184000	 64.3
4.268000	 64.3689
4.352000	 64.3038
4.436000	 64.2357
4.520000	 64.2263
4.604000	 64.1698
4.688000	 64.2201
4.772000	 64.2351
4.856000	 64.2009
4.940000	 64.0419
5.024000	 64.1906
5.108000	 64.0615
5.192000	 63.9838
5.276000	 64.0041
5.359999	 63.9693
5.444000	 63.9518
5.528000	 63.89
5.612000	 63.9158
5.696000	 63.6508
5.780000	 63.4218
5.864000	 63.5431
5.948000	 63.6178
6.032000	 63.676
6.116000	 63.5608
6.200000	 63.6039
6.284000	 63.6609
6.368000	 63.5851
6.452000	 63.5515
6.536000	 63.4996
6.620000	 63.5065
6.704000	 63.5817
6.788000	 63.5871
6.872000	 63.4111
6.956000	 63.55
7.040000	 63.3342
7.124000	 63.481
7.208000	 63.255
7.292000	 63.3286
7.376000	 63.2541
7.460000	 63.3686
7.544000	 63.3242
7.628000	 63.2937
7.712000	 63.1868
7.796000	 63.1168
7.880000	 63.0985
7.964000	 63.0605
8.048000	 63.0033
8.132000	 63.005
8.216000	 63.1069
8.300000	 63.1098
8.384000	 63.0943
8.468000	 62.972
8.552000	 62.816
8.635999	 62.8842
8.719999	 62.8457
8.804000	 62.9363
8.888000	 62.9639
8.972000	 62.8082
9.056000	 63.0385
9.140000	 62.9695
9.224000	 62.834
9.308000	 62.8625
9.391999	 62.789
9.475999	 62.6888
9.560000	 63.0703
9.644000	 62.9973
9.728000	 62.8738
9.812000	 62.8668
9.896000	 62.8382
9.980000	 62.8448
10.064	62.7278
10.148	62.8008
10.232	62.9188
10.316	62.7992
10.4	62.8712
10.484	62.8555
10.568	62.7643
10.652	62.833
10.736	62.855
10.82	62.8667
10.904	62.7111
10.988	62.8285
11.072	62.8068
11.156	62.5605
11.24	62.6215
11.324	62.7082
11.408	62.6955
11.492	62.765
11.576	62.7951
11.66	62.6265
11.744	62.7027
11.828	62.8067
11.912	62.8067
11.996	62.7075
12.08	62.5797
12.164	62.5748
12.248	62.7242
12.332	62.6802
12.416	62.5344
12.5	62.6719
12.584	62.9122
12.668	62.8773
12.752	62.8747
12.836	62.8211
12.92	62.651
13.004	62.5809
13.088	62.5757
13.172	62.6138
13.256	62.5667
13.34	62.4473
13.424	62.4329
13.508	62.3687
13.592	62.3232
13.676	62.4428
13.76	62.5952
13.844	62.5962
13.928	62.5553
14.012	62.556
14.096	62.4235
14.18	62.3005
14.264	62.321
14.348	62.2989
14.432	62.3724
14.516	62.5465
14.6	62.4574
14.684	62.1908
14.768	62.2217
14.852	62.3752
14.936	62.2846
15.02	62.2154
15.104	62.3111
15.188	62.3128
15.272	62.3064
15.356	62.4665
15.44	62.5707
15.524	62.463
15.608	62.3571
15.692	62.4105
15.776	62.4837
15.86	62.4695
15.944	62.441
16.028	62.4336
16.112	62.4026
16.196	62.3245
16.28	62.2457
16.364	62.2599
16.448	62.3294
16.532	62.3004
16.616	62.1849
16.7	62.1258
16.784	62.1029
16.868	61.9976
16.952	61.8028
17.036	61.5824
17.12	61.3736
17.204	61.2386
17.288	61.2875
17.372	61.5451
17.456	61.8572
17.54	62.0282
17.624	62.0231
17.708	61.9302
17.792	61.7929
17.876	61.6151
17.96	61.4821
18.044	61.4939
18.128	61.5769
18.212	61.5343
18.296	61.2767
18.38	60.9359
18.464	60.7566
18.548	60.9143
18.632	61.3663
18.716	61.8525
18.8	62.1204
18.884	62.196
18.968	62.3518
19.052	62.7307
19.136	63.0716
19.22	62.966
19.304	62.3968
19.388	61.8189
19.472	61.6432
19.556	61.8066
19.64	61.9328
19.724	61.8191
19.808	61.6154
19.892	61.5622
19.976	61.6752
20.06	61.7777
20.144	61.7534
20.228	61.6934
20.312	61.782
20.396	62.0915
20.48	62.5079
20.564	62.8444
20.648	62.998
20.732	63.0036
20.816	62.944
20.9	62.837
20.984	62.6387
21.068	62.3118
21.152	61.9065
21.236	61.5672
21.32	61.4631
21.404	61.6867
21.488	62.1802
21.572	62.7673
21.656	63.2669
21.74	63.5857
21.824	63.7286
21.908	63.7216
21.992	63.5275
22.076	63.0541
22.16	62.2518
22.244	61.2159
22.328	60.1926
22.412	59.4686
22.496	59.2286
22.58	59.4827
22.664	60.1027
22.748	60.8782
22.832	61.6088
22.916	62.1197
23	62.3143
23.084	62.1865
23.168	61.8343
23.252	61.4293
23.336	61.1782
23.42	61.2463
23.504	61.7131
23.588	62.5097
23.672	63.4486
23.756	64.2874
23.84	64.8007
23.924	64.8537
24.008	64.417
24.092	63.5425
24.176	62.3432
24.26	60.9597
24.344	59.5467
24.428	58.2455
24.512	57.2166
24.596	56.5602
24.68	56.2948
24.764	56.3552
24.848	56.6268
24.932	57.0117
25.016	57.4903
25.1	58.1394
25.184	59.0708
25.268	60.351
25.352	61.9675
25.436	63.7782
25.52	65.5677
25.604	67.1484
25.688	68.3864
25.772	69.2137
25.856	69.5898
25.94	69.447
26.024	68.6806
26.108	67.2086
26.192	65.0318
26.276	62.3131
26.36	59.4174
26.444	56.8624
26.528	55.1848
26.612	54.7301
26.696	55.624
26.78	57.7301
26.864	60.7173
26.948	64.2101
27.028	67.7266