File: Bakgrunnsmateriale/MATLAB/FTIR/ftir_data/subAa/Mapping_121/BZ1503107-1_t52.asc
PE IR       SPECTRUM    SPECTRUM    ASCII       PEDS        1.60
  -1
BZ2153~1.ASC
17/04/07
17:31:23.00
17/04/07
17:31:49.00
tln
$BZ1503107-1_t0052$<tbV0>[-5.2,-2.6,8.0,0.0,27,1,0]
27.028
64

2002,4.07
MIRTGS : RIGHTBACK : INTERNAL 2
MIR : ON : INTERNAL 2
OPTKBR

0.200000
8
8.000000
FILLER
RATIO
SPECTRUM
UNLOCKED 256

DOUBLE
64
COMBINED
1
0
0

0.002000
RATIO

1
0
TRUE
51149
0
LEFT NOT FITTED RIGHT NOT FITTED 0
NONE
NONE
15600
12
4.427000
51148
TRUE
1 0 8 72 0 0 0 0

15798

#HDR
-1
-1
#GR
µM
%T
2.38419e-05
0.0
2.000000
0.002000
12515
8
73.1848
54.0913
#DATA
2.000000	 66.481
2.084000	 64.7655
2.168000	 64.7472
2.252000	 73.1848
2.336000	 64.8295
2.420000	 64.8594
2.504000	 65.1232
2.588000	 65.0551
2.672000	 65.0069
2.756000	 65.2977
2.840000	 65.2513
2.924000	 65.0497
3.008000	 65.1801
3.092000	 64.8807
3.176000	 64.9174
3.260000	 64.93
3.344000	 64.8986
3.428000	 64.6954
3.512000	 65.025
3.596000	 64.9175
3.680000	 64.9182
3.764000	 64.9446
3.848000	 64.9321
3.932000	 64.8036
4.016000	 64.8245
4.100000	 64.7985
4.184000	 64.8848
4.268000	 64.9001
4.352000	 64.7312
4.436000	 64.7736
4.520000	 64.7154
4.604000	 64.6238
4.688000	 64.7218
4.772000	 64.7114
4.856000	 64.7012
4.940000	 64.5485
5.024000	 64.5351
5.108000	 64.4289
5.192000	 64.5626
5.276000	 64.4963
5.359999	 64.5407
5.444000	 64.5695
5.528000	 64.4621
5.612000	 64.4536
5.696000	 64.355
5.780000	 64.149
5.864000	 64.3437
5.948000	 64.1879
6.032000	 64.3345
6.116000	 64.1895
6.200000	 64.2531
6.284000	 64.1942
6.368000	 64.0773
6.452000	 64.1952
6.536000	 64.1662
6.620000	 64.2002
6.704000	 64.2279
6.788000	 64.1251
6.872000	 64.1513
6.956000	 64.1913
7.040000	 64.1667
7.124000	 64.1138
7.208000	 64.0294
7.292000	 64.1484
7.376000	 64.1179
7.460000	 63.9545
7.544000	 64.0328
7.628000	 64.0708
7.712000	 64.0845
7.796000	 63.9981
7.880000	 64.0716
7.964000	 63.975
8.048000	 64.0208
8.132000	 63.8314
8.216000	 63.9272
8.300000	 64.0077
8.384000	 63.9017
8.468000	 63.9481
8.552000	 63.9577
8.635999	 63.7487
8.719999	 63.7093
8.804000	 63.8114
8.888000	 63.7809
8.972000	 63.7342
9.056000	 63.804
9.140000	 63.7207
9.224000	 63.7467
9.308000	 63.8431
9.391999	 63.73
9.475999	 63.7593
9.560000	 63.6462
9.644000	 63.7681
9.728000	 63.8251
9.812000	 63.6489
9.896000	 63.6223
9.980000	 63.8611
10.064	63.9004
10.148	63.9248
10.232	63.7772
10.316	63.8323
10.4	63.6379
10.484	63.6538
10.568	63.6809
10.652	63.4881
10.736	63.4781
10.82	63.736
10.904	63.8137
10.988	63.8022
11.072	63.8878
11.156	63.6605
11.24	63.6164
11.324	63.6363
11.408	63.6882
11.492	63.6414
11.576	63.6578
11.66	63.8793
11.744	63.8286
11.828	63.7194
11.912	63.6408
11.996	63.6682
12.08	63.7441
12.164	63.6047
12.248	63.5086
12.332	63.6659
12.416	63.7422
12.5	63.5991
12.584	63.4471
12.668	63.4199
12.752	63.5051
12.836	63.6367
12.92	63.4836
13.004	63.4297
13.088	63.5299
13.172	63.5046
13.256	63.5335
13.34	63.5789
13.424	63.6357
13.508	63.6667
13.592	63.6443
13.676	63.5113
13.76	63.3473
13.844	63.3158
13.928	63.3174
14.012	63.3769
14.096	63.3836
14.18	63.2265
14.264	63.071
14.348	63.047
14.432	63.0899
14.516	63.2721
14.6	63.4572
14.684	63.5121
14.768	63.5432
14.852	63.4769
14.936	63.415
15.02	63.4946
15.104	63.6786
15.188	63.9037
15.272	63.9914
15.356	63.9166
15.44	63.7471
15.524	63.432
15.608	63.1707
15.692	63.1169
15.776	62.9993
15.86	62.8363
15.944	63.0995
16.028	63.7857
16.112	64.1724
16.196	63.7322
16.28	62.9136
16.364	62.6054
16.448	62.9476
16.532	63.3166
16.616	63.4809
16.7	63.7859
16.784	64.2045
16.868	64.2635
16.952	63.8654
17.036	63.4114
17.12	63.2377
17.204	63.3456
17.288	63.5053
17.372	63.4838
17.456	63.2895
17.54	63.1399
17.624	63.0917
17.708	62.9352
17.792	62.56
17.876	62.1664
17.96	62.0027
18.044	62.1034
18.128	62.3523
18.212	62.6348
18.296	62.8354
18.38	62.8363
18.464	62.588
18.548	62.1875
18.632	61.8468
18.716	61.7422
18.8	61.894
18.884	62.2012
18.968	62.5675
19.052	62.9373
19.136	63.2279
19.22	63.3128
19.304	63.1418
19.388	62.8229
19.472	62.5421
19.556	62.4226
19.64	62.4783
19.724	62.6726
19.808	62.9694
19.892	63.3116
19.976	63.5931
20.06	63.6932
20.144	63.5592
20.228	63.2511
20.312	62.8973
20.396	62.6121
20.48	62.4437
20.564	62.3811
20.648	62.385
20.732	62.419
20.816	62.4653
20.9	62.5156
20.984	62.5544
21.068	62.5547
21.152	62.5014
21.236	62.4147
21.32	62.3521
21.404	62.3682
21.488	62.4866
21.572	62.6879
21.656	62.9227
21.74	63.1407
21.824	63.2989
21.908	63.3642
21.992	63.3155
22.076	63.1517
22.16	62.9211
22.244	62.7162
22.328	62.6303
22.412	62.7011
22.496	62.8534
22.58	62.9325
22.664	62.7886
22.748	62.3738
22.832	61.788
22.916	61.2353
23	60.932
23.084	61.0012
23.168	61.435
23.252	62.1256
23.336	62.9303
23.42	63.7495
23.504	64.5166
23.588	65.1601
23.672	65.5749
23.756	65.6293
23.84	65.2351
23.924	64.438
24.008	63.4212
24.092	62.4431
24.176	61.738
24.26	61.4135
24.344	61.425
24.428	61.6304
24.512	61.8872
24.596	62.1254
24.68	62.3506
24.764	62.599
24.848	62.868
24.932	63.0691
25.016	63.0548
25.1	62.7121
25.184	62.0149
25.268	61.089
25.352	60.201
25.436	59.6792
25.52	59.778
25.604	60.5843
25.688	61.9708
25.772	63.6102
25.856	65.089
25.94	65.981
26.024	65.9797
26.108	65.0331
26.192	63.3045
26.276	61.0974
26.36	58.7366
26.444	56.5826
26.528	54.9776
26.612	54.162
26.696	54.2624
26.78	55.268
26.864	57.0324
26.948	59.3896
27.028	62.1351