File: Bakgrunnsmateriale/MATLAB/FTIR/ftir_data/subAa/Mapping_121/BZ1503107-1_t28.asc
PE IR       SPECTRUM    SPECTRUM    ASCII       PEDS        1.60
  -1
BZ2969~1.ASC
17/04/07
15:32:57.00
17/04/07
15:33:23.00
tln
$BZ1503107-1_t0028$<tbV0>[0.0,-7.8,8.0,0.0,27,1,0]
27.028
64

2002,4.07
MIRTGS : RIGHTBACK : INTERNAL 2
MIR : ON : INTERNAL 2
OPTKBR

0.200000
8
8.000000
FILLER
RATIO
SPECTRUM
UNLOCKED 256

DOUBLE
64
COMBINED
1
0
0

0.002000
RATIO

1
0
TRUE
51149
0
LEFT NOT FITTED RIGHT NOT FITTED 0
NONE
NONE
15600
12
4.427000
51148
TRUE
1 0 8 72 0 0 0 0

15798

#HDR
-1
-1
#GR
µM
%T
2.38419e-05
0.0
2.000000
0.002000
12515
8
75.3229
54.908
#DATA
2.000000	 65.5046
2.084000	 64.5062
2.168000	 64.917
2.252000	 65.4765
2.336000	 65.0257
2.420000	 64.9343
2.504000	 65.1442
2.588000	 65.1786
2.672000	 65.1374
2.756000	 65.0284
2.840000	 65.049
2.924000	 65.1122
3.008000	 65.2316
3.092000	 64.9965
3.176000	 65.0349
3.260000	 65.0704
3.344000	 65.1194
3.428000	 64.8959
3.512000	 64.8765
3.596000	 64.9589
3.680000	 65.0639
3.764000	 64.9994
3.848000	 64.9081
3.932000	 64.9051
4.016000	 64.9971
4.100000	 64.9494
4.184000	 65.0583
4.268000	 64.8731
4.352000	 64.9194
4.436000	 64.8165
4.520000	 64.8392
4.604000	 64.7817
4.688000	 64.8564
4.772000	 64.8202
4.856000	 64.7414
4.940000	 64.8233
5.024000	 64.7088
5.108000	 64.7198
5.192000	 64.6658
5.276000	 64.6825
5.359999	 64.7005
5.444000	 64.7302
5.528000	 64.6043
5.612000	 64.6144
5.696000	 64.4051
5.780000	 64.2344
5.864000	 64.5159
5.948000	 64.5596
6.032000	 64.4028
6.116000	 64.5609
6.200000	 64.3003
6.284000	 64.3746
6.368000	 64.5473
6.452000	 64.3805
6.536000	 64.4823
6.620000	 64.5431
6.704000	 64.5454
6.788000	 64.4243
6.872000	 64.2669
6.956000	 64.5218
7.040000	 64.389
7.124000	 64.3047
7.208000	 64.3382
7.292000	 64.3868
7.376000	 64.1779
7.460000	 64.3111
7.544000	 64.2583
7.628000	 64.2508
7.712000	 64.155
7.796000	 64.1625
7.880000	 64.1851
7.964000	 64.2287
8.048000	 64.1502
8.132000	 64.1874
8.216000	 64.2852
8.300000	 64.148
8.384000	 63.9713
8.468000	 64.1136
8.552000	 64.0938
8.635999	 64.2105
8.719999	 64.1038
8.804000	 64.0724
8.888000	 63.9727
8.972000	 64.0518
9.056000	 64.1477
9.140000	 64.1352
9.224000	 64.0629
9.308000	 64.2312
9.391999	 64.1311
9.475999	 64.068
9.560000	 64.0764
9.644000	 64.0228
9.728000	 64.0816
9.812000	 64.1943
9.896000	 64.2093
9.980000	 64.0403
10.064	64.177
10.148	64.1289
10.232	64.2999
10.316	64.2349
10.4	64.1503
10.484	64.086
10.568	64.1158
10.652	64.0993
10.736	64.0622
10.82	64.0671
10.904	64.3425
10.988	64.1172
11.072	64.1833
11.156	64.1765
11.24	64.2792
11.324	64.2996
11.408	64.1645
11.492	64.06
11.576	64.1142
11.66	64.059
11.744	64.2555
11.828	63.9782
11.912	63.9558
11.996	64.0286
12.08	63.9495
12.164	63.9072
12.248	63.7449
12.332	63.8896
12.416	64.0828
12.5	64.0614
12.584	64.1456
12.668	64.1442
12.752	64.0955
12.836	64.0794
12.92	63.9177
13.004	63.7693
13.088	63.8022
13.172	63.8797
13.256	63.7761
13.34	63.8469
13.424	63.9615
13.508	63.9266
13.592	63.7737
13.676	63.6797
13.76	63.7531
13.844	63.8749
13.928	63.7239
14.012	63.5343
14.096	63.7637
14.18	63.9665
14.264	63.9443
14.348	64.0181
14.432	63.8286
14.516	63.6332
14.6	63.8504
14.684	63.9438
14.768	63.7787
14.852	63.5476
14.936	63.4814
15.02	63.7055
15.104	63.5766
15.188	63.1983
15.272	63.276
15.356	63.2938
15.44	62.8766
15.524	62.7225
15.608	63.1779
15.692	63.8578
15.776	64.2
15.86	64.1195
15.944	64.0789
16.028	64.1775
16.112	64.0544
16.196	63.7059
16.28	63.5162
16.364	63.7233
16.448	64.1802
16.532	64.5592
16.616	64.7515
16.7	64.8407
16.784	64.7967
16.868	64.6151
16.952	64.4469
17.036	64.3861
17.12	64.3753
17.204	64.3167
17.288	64.1803
17.372	64.0814
17.456	64.1426
17.54	64.224
17.624	64.0757
17.708	63.7567
17.792	63.5707
17.876	63.6485
17.96	63.8461
18.044	64.0296
18.128	64.1906
18.212	64.325
18.296	64.378
18.38	64.3255
18.464	64.2218
18.548	64.1384
18.632	64.0813
18.716	64.0024
18.8	63.8815
18.884	63.7756
18.968	63.7467
19.052	63.7566
19.136	63.6981
19.22	63.5401
19.304	63.3908
19.388	63.3996
19.472	63.6191
19.556	63.9634
19.64	64.2858
19.724	64.4713
19.808	64.4647
19.892	64.2653
19.976	63.9291
20.06	63.5865
20.144	63.4074
20.228	63.4999
20.312	63.817
20.396	64.1853
20.48	64.4509
20.564	64.5968
20.648	64.7058
20.732	64.8145
20.816	64.8316
20.9	64.6121
20.984	64.1179
21.068	63.485
21.152	62.9353
21.236	62.6168
21.32	62.5309
21.404	62.5899
21.488	62.725
21.572	62.9255
21.656	63.1911
21.74	63.4669
21.824	63.6424
21.908	63.6221
21.992	63.4017
22.076	63.0759
22.16	62.7718
22.244	62.5442
22.328	62.3631
22.412	62.1623
22.496	61.9171
22.58	61.6727
22.664	61.5068
22.748	61.4765
22.832	61.5789
22.916	61.763
23	61.9354
23.084	61.9993
23.168	61.8877
23.252	61.6
23.336	61.2077
23.42	60.8601
23.504	60.7334
23.588	60.9555
23.672	61.5394
23.756	62.3466
23.84	63.147
23.924	63.7008
24.008	63.8549
24.092	63.6057
24.176	63.1185
24.26	62.6659
24.344	62.5384
24.428	62.881
24.512	63.6217
24.596	64.4851
24.68	65.1021
24.764	65.178
24.848	64.6239
24.932	63.5828
25.016	62.3583
25.1	61.2655
25.184	60.4738
25.268	59.9615
25.352	59.6336
25.436	59.3974
25.52	59.2716
25.604	59.3991
25.688	59.963
25.772	61.0329
25.856	62.4759
25.94	64.0354
26.024	65.394
26.108	66.2751
26.192	66.5817
26.276	66.3547
26.36	65.7049
26.444	64.7203
26.528	63.4571
26.612	61.9539
26.696	60.3476
26.78	58.8938
26.864	58.0871
26.948	58.5553
27.028	60.6462