File: Bakgrunnsmateriale/MATLAB/FTIR/ftir_data/subAa/Mapping_121/BZ1503107-1_t110_cm-1.asc
PE IR       SPECTRUM    SPECTRUM    ASCII       PEDS        1.60
  -1
BZ3C70~1.ASC
17/04/07
22:14:24.00
17/04/07
22:14:24.00
tln
$BZ1503107-1_t0110$<tbV0>[-13.0,10.4,8.0,0.0,27,1,0]
370
64

2002,4.07
MIRTGS : RIGHTBACK : INTERNAL 2
MIR : ON : INTERNAL 2
OPTKBR

0.200000
8
8.000000
FILLER
RATIO
SPECTRUM
UNLOCKED 256

DOUBLE
64
COMBINED
1
0
0

1.000000
RATIO

1
0
TRUE
51149
0
LEFT NOT FITTED RIGHT NOT FITTED 0
NONE
NONE
15600
12
4.427000
51148
TRUE
1 0 8 72 0 0 0 0

15798

#HDR
-1
-1
#GR
CM-1
%T
2.38419e-05
0.0
5000
-1.000000
4631
8
91.1319
57.7039
#DATA
5000	64.329
4984	64.822
4968	63.972
4952	65.052
4936	64.5776
4920	64.4805
4904	64.9331
4888	64.8102
4872	64.8108
4856	64.3486
4840	64.8906
4824	64.906
4808	64.9486
4792	65.0024
4776	65.1399
4760	64.9294
4744	65.4394
4728	65.1947
4712	65.1982
4696	65.152
4680	65.4837
4664	65.2537
4648	65.1321
4632	64.9985
4616	64.783
4600	64.1028
4584	64.2771
4568	64.0371
4552	63.9086
4536	63.5283
4520	63.9693
4504	64.0723
4488	62.944
4472	63.0612
4456	64.6141
4440	90.7985
4424	67.5493
4408	63.9989
4392	63.1498
4376	63.6864
4360	64.2164
4344	63.8969
4328	63.9727
4312	64.0134
4296	64.4783
4280	64.4119
4264	64.2488
4248	64.9771
4232	64.8114
4216	64.8889
4200	65.0222
4184	65.0543
4168	65.0055
4152	65.2066
4136	65.1366
4120	65.22
4104	65.0944
4088	65.303
4072	65.2269
4056	65.0059
4040	65.2178
4024	65.1339
4008	64.8415
3992	64.8684
3976	64.8268
3960	64.8433
3944	64.9668
3928	65.1564
3912	64.641
3896	64.6927
3880	64.8212
3864	65.0061
3848	65.3288
3832	64.9302
3816	64.8941
3800	64.9792
3784	65.0627
3768	64.9143
3752	64.8607
3736	64.9441
3720	65.1351
3704	65.2221
3688	64.9899
3672	65.2262
3656	64.901
3640	65.2165
3624	65.0016
3608	65.0492
3592	65.1968
3576	64.9945
3560	64.9849
3544	65.0549
3528	65.0231
3512	65.0696
3496	64.8962
3480	65.0742
3464	64.9662
3448	64.8257
3432	64.9971
3416	65.0834
3400	64.7862
3384	64.9919
3368	64.8879
3352	64.914
3336	64.9242
3320	65.018
3304	64.9074
3288	64.8944
3272	64.8492
3256	65.2295
3240	65.053
3224	64.7512
3208	64.8597
3192	64.9011
3176	65.003
3160	64.8641
3144	64.741
3128	64.8054
3112	64.7693
3096	64.8772
3080	64.8038
3064	64.8181
3048	65.0236
3032	64.7675
3016	64.9135
3000	64.7581
2984	64.6639
2968	64.7684
2952	64.6175
2936	64.635
2920	64.6354
2904	64.6169
2888	64.6805
2872	64.5219
2856	64.6597
2840	64.6135
2824	64.7263
2808	64.8012
2792	64.7247
2776	64.6941
2760	64.8532
2744	64.7691
2728	64.7928
2712	64.8165
2696	64.7939
2680	64.6619
2664	64.6067
2648	64.7956
2632	64.7137
2616	64.605
2600	64.5466
2584	64.6394
2568	64.5875
2552	64.5645
2536	64.5796
2520	64.5296
2504	64.5511
2488	64.6147
2472	64.6057
2456	64.6991
2440	64.4995
2424	64.6372
2408	64.5075
2392	64.5898
2376	64.5739
2360	64.5524
2344	64.3746
2328	64.5416
2312	64.4903
2296	64.4963
2280	64.3362
2264	64.3903
2248	64.4081
2232	64.399
2216	64.3393
2200	64.2165
2184	64.3719
2168	64.412
2152	64.2279
2136	64.2653
2120	64.2669
2104	64.3309
2088	64.2272
2072	64.2248
2056	64.331
2040	64.1232
2024	64.1818
2008	64.2099
1992	64.2166
1976	64.175
1960	64.157
1944	64.1095
1928	64.0204
1912	64.0718
1896	64.0973
1880	63.9805
1864	64.0515
1848	63.9968
1832	64.0836
1816	64.0091
1800	63.986
1784	63.7743
1768	63.8748
1752	63.6502
1736	63.5481
1720	63.7751
1704	63.7657
1688	63.7371
1672	63.6161
1656	63.7375
1640	63.735
1624	63.7194
1608	63.7815
1592	63.7287
1576	63.4903
1560	63.5129
1544	63.4993
1528	63.5726
1512	63.5142
1496	63.6627
1480	63.4547
1464	63.4049
1448	63.4752
1432	63.3706
1416	63.368
1400	63.3705
1384	63.3872
1368	63.306
1352	63.3034
1336	63.2849
1320	63.2919
1304	63.1864
1288	63.1545
1272	63.0959
1256	63.2039
1240	63.1271
1224	63.17
1208	63.0516
1192	63.072
1176	62.9989
1160	63.0383
1144	63.1202
1128	63.0188
1112	62.9318
1096	63.0718
1080	62.8778
1064	63.0065
1048	62.8162
1032	62.8909
1016	62.802
1000	62.9098
984	 62.9003
968	 62.8556
952	 62.9296
936	 62.9545
920	 63.0331
904	 62.6398
888	 62.7315
872	 62.9565
856	 62.6429
840	 62.6687
824	 62.87
808	 62.8077
792	 63.0377
776	 62.608
760	 62.6821
744	 62.8712
728	 62.6704
712	 62.2067
696	 62.0673
680	 62.2158
664	 62.4438
648	 62.5334
632	 62.2846
616	 61.8371
600	 62.1785
584	 62.4136
568	 62.8345
552	 62.2983
536	 62.0942
520	 62.3173
504	 62.217
488	 62.3588
472	 61.2019
456	 60.9527
440	 60.4826
424	 60.6289
408	 57.711
392	 64.7473
376	 60.6427
370	 59.7376