File: Bakgrunnsmateriale/MATLAB/FTIR/ftir_data/subAa/Mapping_121/BZ1503107-1_t03.asc
PE IR       SPECTRUM    SPECTRUM    ASCII       PEDS        1.60
  -1
BZ1555~1.ASC
17/04/07
13:29:44.00
17/04/07
13:30:10.00
tln
$BZ1503107-1_t0003$<tbV0>[7.8,-13.0,8.0,0.0,27,1,0]
27.028
64

2002,4.07
MIRTGS : RIGHTBACK : INTERNAL 2
MIR : ON : INTERNAL 2
OPTKBR

0.200000
8
8.000000
FILLER
RATIO
SPECTRUM
UNLOCKED 256

DOUBLE
64
COMBINED
1
0
0

0.002000
RATIO

1
0
TRUE
51149
0
LEFT NOT FITTED RIGHT NOT FITTED 0
NONE
NONE
15600
12
4.427000
51148
TRUE
1 0 8 72 0 0 0 0

15798

#HDR
-1
-1
#GR
µM
%T
2.38419e-05
0.0
2.000000
0.002000
12515
8
101.089
29.3808
#DATA
2.000000	 64.8863
2.084000	 65.5851
2.168000	 64.8745
2.252000	 65.7085
2.336000	 65.0818
2.420000	 64.991
2.504000	 65.1076
2.588000	 64.9271
2.672000	 65.2389
2.756000	 65.2554
2.840000	 64.9399
2.924000	 65.0481
3.008000	 65.0523
3.092000	 64.9112
3.176000	 65.0573
3.260000	 65.1805
3.344000	 65.0848
3.428000	 64.9075
3.512000	 65.0078
3.596000	 65.0944
3.680000	 64.9734
3.764000	 65.0788
3.848000	 65.0569
3.932000	 65.063
4.016000	 64.9629
4.100000	 64.9907
4.184000	 65.0067
4.268000	 64.8622
4.352000	 64.8924
4.436000	 64.9406
4.520000	 64.9665
4.604000	 64.9709
4.688000	 64.8002
4.772000	 64.8267
4.856000	 64.9167
4.940000	 64.8831
5.024000	 64.8231
5.108000	 64.8626
5.192000	 64.6961
5.276000	 64.7702
5.359999	 64.8131
5.444000	 64.798
5.528000	 64.8262
5.612000	 64.7323
5.696000	 64.6827
5.780000	 64.4174
5.864000	 64.6678
5.948000	 64.6678
6.032000	 64.7264
6.116000	 64.7641
6.200000	 64.5714
6.284000	 64.5562
6.368000	 64.5971
6.452000	 64.6301
6.536000	 64.5304
6.620000	 64.5945
6.704000	 64.6151
6.788000	 64.6344
6.872000	 64.5767
6.956000	 64.6339
7.040000	 64.6359
7.124000	 64.4954
7.208000	 64.3732
7.292000	 64.4018
7.376000	 64.5062
7.460000	 64.4615
7.544000	 64.3531
7.628000	 64.3452
7.712000	 64.3921
7.796000	 64.2725
7.880000	 64.3111
7.964000	 64.386
8.048000	 64.2742
8.132000	 64.2777
8.216000	 64.3165
8.300000	 64.3965
8.384000	 64.4117
8.468000	 64.2357
8.552000	 64.2608
8.635999	 64.1484
8.719999	 64.2395
8.804000	 64.4361
8.888000	 64.3999
8.972000	 64.254
9.056000	 64.1211
9.140000	 64.3724
9.224000	 64.3624
9.308000	 64.2815
9.391999	 64.0949
9.475999	 64.112
9.560000	 64.0565
9.644000	 64.211
9.728000	 64.3337
9.812000	 64.2156
9.896000	 64.2651
9.980000	 64.2475
10.064	64.2517
10.148	64.2815
10.232	64.1138
10.316	64.2629
10.4	64.304
10.484	64.3479
10.568	64.2797
10.652	64.3647
10.736	64.3249
10.82	64.3102
10.904	64.1949
10.988	64.2967
11.072	64.2412
11.156	64.261
11.24	64.2007
11.324	64.0639
11.408	64.1408
11.492	64.1396
11.576	64.0491
11.66	64.1315
11.744	64.2575
11.828	64.2417
11.912	64.2446
11.996	64.2924
12.08	64.3807
12.164	64.0374
12.248	63.9115
12.332	64.0972
12.416	64.052
12.5	64.0682
12.584	64.1694
12.668	64.2842
12.752	64.2618
12.836	64.2053
12.92	64.138
13.004	63.9404
13.088	63.9366
13.172	64.098
13.256	64.1052
13.34	64.0846
13.424	64.1022
13.508	64.1066
13.592	64.0297
13.676	63.9936
13.76	64.0617
13.844	64.0225
13.928	63.9351
14.012	63.9006
14.096	63.9127
14.18	63.9525
14.264	63.8979
14.348	63.6997
14.432	63.6691
14.516	63.8523
14.6	63.9527
14.684	63.9227
14.768	63.8477
14.852	63.9019
14.936	64.0927
15.02	64.1295
15.104	63.9759
15.188	63.7826
15.272	63.6588
15.356	63.7328
15.44	63.9412
15.524	64.0693
15.608	64.0374
15.692	63.913
15.776	63.8319
15.86	63.8989
15.944	64.0104
16.028	63.9959
16.112	63.9355
16.196	63.9881
16.28	64.0565
16.364	63.985
16.448	63.8599
16.532	63.8066
16.616	63.7815
16.7	63.7315
16.784	63.6951
16.868	63.6829
16.952	63.6178
17.036	63.4673
17.12	63.3356
17.204	63.3692
17.288	63.5959
17.372	63.8395
17.456	63.878
17.54	63.7395
17.624	63.7094
17.708	63.9524
17.792	64.3069
17.876	64.5219
17.96	64.5255
18.044	64.3894
18.128	64.2063
18.212	64.0423
18.296	63.9416
18.38	63.9473
18.464	64.0887
18.548	64.3335
18.632	64.5793
18.716	64.7221
18.8	64.7517
18.884	64.7547
18.968	64.7963
19.052	64.8196
19.136	64.7133
19.22	64.4579
19.304	64.1563
19.388	63.9272
19.472	63.8084
19.556	63.7458
19.64	63.6757
19.724	63.6231
19.808	63.6784
19.892	63.8821
19.976	64.1708
20.06	64.4456
20.144	64.6353
20.228	64.694
20.312	64.5938
20.396	64.3687
20.48	64.1486
20.564	64.1051
20.648	64.3137
20.732	64.6893
20.816	65.0641
20.9	65.3107
20.984	65.3866
21.068	65.2914
21.152	65.0285
21.236	64.6196
21.32	64.1361
21.404	63.6881
21.488	63.382
21.572	63.2687
21.656	63.3379
21.74	63.5398
21.824	63.8015
21.908	64.033
21.992	64.1408
22.076	64.0642
22.16	63.8182
22.244	63.4981
22.328	63.2319
22.412	63.1073
22.496	63.1069
22.58	63.1273
22.664	63.056
22.748	62.8458
22.832	62.5422
22.916	62.2559
23	62.0891
23.084	62.079
23.168	62.1719
23.252	62.2754
23.336	62.339
23.42	62.4185
23.504	62.6363
23.588	63.0932
23.672	63.763
23.756	64.4336
23.84	64.8334
23.924	64.7575
24.008	64.2077
24.092	63.422
24.176	62.7385
24.26	62.4331
24.344	62.5904
24.428	63.0808
24.512	63.6907
24.596	64.27
24.68	64.7883
24.764	65.3031
24.848	65.9446
24.932	66.6692
25.016	67.1811
25.1	67.1183
25.184	66.1603
25.268	64.226
25.352	61.53
25.436	58.4595
25.52	55.4311
25.604	52.7617
25.688	50.5186
25.772	48.6462
25.856	47.0588
25.94	45.9237
26.024	44.8712
26.108	42.542
26.192	38.2681
26.276	32.8791
26.36	29.5647
26.444	30.7517
26.528	36.9277
26.612	44.614
26.696	50.8671
26.78	55.9387
26.864	64.3607
26.948	80.7502
27.028	101.089