File: Bakgrunnsmateriale/MATLAB/FTIR/ftir_data/subAa/Mapping_121/BZ1503107-1_t67_cm-1.asc
PE IR       SPECTRUM    SPECTRUM    ASCII       PEDS        1.60
  -1
BZ6F21~1.ASC
17/04/07
18:48:03.00
17/04/07
18:48:03.00
tln
$BZ1503107-1_t0067$<tbV0>[13.0,2.6,8.0,0.0,27,1,0]
370
64

2002,4.07
MIRTGS : RIGHTBACK : INTERNAL 2
MIR : ON : INTERNAL 2
OPTKBR

0.200000
8
8.000000
FILLER
RATIO
SPECTRUM
UNLOCKED 256

DOUBLE
64
COMBINED
1
0
0

1.000000
RATIO

1
0
TRUE
51149
0
LEFT NOT FITTED RIGHT NOT FITTED 0
NONE
NONE
15600
12
4.427000
51148
TRUE
1 0 8 72 0 0 0 0

15798

#HDR
-1
-1
#GR
CM-1
%T
2.38419e-05
0.0
5000
-1.000000
4631
8
72.4642
34.9017
#DATA
5000	63.6259
4984	63.4652
4968	63.0872
4952	62.9689
4936	62.4466
4920	62.3454
4904	62.924
4888	63.3577
4872	63.3537
4856	62.7695
4840	63.3565
4824	63.0986
4808	63.2306
4792	63.3913
4776	63.2253
4760	63.1343
4744	63.2942
4728	63.3146
4712	63.0784
4696	63.3311
4680	63.0809
4664	63.2906
4648	63.0219
4632	63.1804
4616	63.3
4600	63.3124
4584	63.4179
4568	63.4641
4552	63.0586
4536	62.899
4520	62.9039
4504	63.124
4488	63.2032
4472	62.7267
4456	61.5639
4440	60.1434
4424	66.0445
4408	69.17
4392	63.2987
4376	62.6676
4360	63.5024
4344	63.1339
4328	63.0116
4312	62.9294
4296	63.2472
4280	63.2634
4264	63.3089
4248	63.2574
4232	62.8961
4216	63.2992
4200	63.5354
4184	63.286
4168	63.4048
4152	63.3828
4136	63.4093
4120	63.5857
4104	63.5601
4088	63.565
4072	63.6708
4056	63.5838
4040	63.6155
4024	63.7229
4008	63.6883
3992	63.6067
3976	63.5637
3960	63.6803
3944	63.5405
3928	63.5449
3912	63.4724
3896	63.7106
3880	63.4284
3864	63.5429
3848	63.3248
3832	63.4925
3816	63.6919
3800	63.4146
3784	63.7188
3768	63.6809
3752	63.3443
3736	63.5722
3720	63.3996
3704	63.6585
3688	63.6453
3672	63.681
3656	63.6837
3640	63.797
3624	63.6779
3608	63.7073
3592	63.4926
3576	63.4697
3560	63.7291
3544	63.473
3528	63.7469
3512	63.7327
3496	63.3655
3480	63.6974
3464	63.6691
3448	63.6823
3432	63.5178
3416	63.6328
3400	63.6263
3384	63.5945
3368	63.7237
3352	63.7943
3336	63.5904
3320	63.6465
3304	63.579
3288	63.5875
3272	63.396
3256	63.5532
3240	63.5448
3224	63.6912
3208	63.601
3192	63.6346
3176	63.7067
3160	63.6376
3144	63.5653
3128	63.576
3112	63.8221
3096	63.4423
3080	63.6734
3064	63.807
3048	63.7687
3032	63.6258
3016	63.6507
3000	63.6287
2984	63.6993
2968	63.3991
2952	63.5286
2936	63.5262
2920	63.6549
2904	63.6371
2888	63.544
2872	63.7061
2856	63.7091
2840	63.6836
2824	63.5757
2808	63.7228
2792	63.5893
2776	63.7476
2760	63.7472
2744	63.5815
2728	63.7568
2712	63.6626
2696	63.6298
2680	63.7348
2664	63.6367
2648	63.6605
2632	63.6014
2616	63.5256
2600	63.6233
2584	63.5594
2568	63.5988
2552	63.5641
2536	63.6199
2520	63.5553
2504	63.6584
2488	63.7061
2472	63.6552
2456	63.7501
2440	63.7011
2424	63.7358
2408	63.6866
2392	63.5829
2376	63.7111
2360	63.6157
2344	63.595
2328	63.6217
2312	63.753
2296	63.5447
2280	63.6155
2264	63.6561
2248	63.6007
2232	63.6363
2216	63.6351
2200	63.571
2184	63.5754
2168	63.5318
2152	63.6156
2136	63.5567
2120	63.4838
2104	63.5508
2088	63.5023
2072	63.6094
2056	63.3832
2040	63.5156
2024	63.4638
2008	63.4724
1992	63.4293
1976	63.422
1960	63.4898
1944	63.4173
1928	63.5954
1912	63.5736
1896	63.4303
1880	63.4011
1864	63.4923
1848	63.4446
1832	63.3482
1816	63.4897
1800	63.4745
1784	63.4794
1768	63.4654
1752	63.3124
1736	63.0783
1720	63.2257
1704	63.3916
1688	63.4179
1672	63.3851
1656	63.2484
1640	63.2173
1624	63.3814
1608	63.4094
1592	63.2551
1576	63.3031
1560	63.3467
1544	63.338
1528	63.2213
1512	63.3157
1496	63.1632
1480	63.4315
1464	63.0767
1448	63.1764
1432	63.1171
1416	63.1444
1400	63.1593
1384	63.1071
1368	63.1556
1352	63.0101
1336	63.2442
1320	63.2796
1304	63.1058
1288	63.1441
1272	63.033
1256	63.0963
1240	63.0676
1224	63.0904
1208	63.0955
1192	63.0904
1176	63.1154
1160	62.91
1144	63.11
1128	63.0048
1112	62.9042
1096	62.9107
1080	63.0684
1064	63.0468
1048	63.074
1032	63.1214
1016	62.9413
1000	63.1865
984	 63.0464
968	 63.1191
952	 63.0456
936	 62.8412
920	 62.934
904	 62.9264
888	 63.3401
872	 63.2021
856	 62.9991
840	 63.1869
824	 63.105
808	 62.9673
792	 62.9705
776	 63.1193
760	 62.8535
744	 63.0323
728	 62.4287
712	 62.777
696	 62.2637
680	 63.313
664	 61.8974
648	 62.9332
632	 62.3377
616	 62.9748
600	 63.1931
584	 62.6055
568	 63.0284
552	 63.0795
536	 62.8792
520	 62.5402
504	 62.8493
488	 63.4186
472	 62.3929
456	 63.2932
440	 61.9505
424	 62.8202
408	 66.9427
392	 58.1797
376	 45.5573
370	 34.9017