File: Bakgrunnsmateriale/MATLAB/FTIR/ftir_data/subAa/Mapping_121/BZ1503107-1_t88_cm-1.asc
PE IR       SPECTRUM    SPECTRUM    ASCII       PEDS        1.60
  -1
BZ6036~1.ASC
17/04/07
20:25:39.00
17/04/07
20:25:39.00
tln
$BZ1503107-1_t0088$<tbV0>[-13.0,5.2,8.0,0.0,27,1,0]
370
64

2002,4.07
MIRTGS : RIGHTBACK : INTERNAL 2
MIR : ON : INTERNAL 2
OPTKBR

0.200000
8
8.000000
FILLER
RATIO
SPECTRUM
UNLOCKED 256

DOUBLE
64
COMBINED
1
0
0

1.000000
RATIO

1
0
TRUE
51149
0
LEFT NOT FITTED RIGHT NOT FITTED 0
NONE
NONE
15600
12
4.427000
51148
TRUE
1 0 8 72 0 0 0 0

15798

#HDR
-1
-1
#GR
CM-1
%T
2.38419e-05
0.0
5000
-1.000000
4631
8
72.2717
43.682
#DATA
5000	64.2308
4984	65.8149
4968	64.9036
4952	67.0531
4936	65.6573
4920	64.3341
4904	64.3384
4888	64.9217
4872	65.8114
4856	65.4378
4840	64.9462
4824	65.2948
4808	65.0305
4792	64.954
4776	65.2102
4760	64.9403
4744	65.2985
4728	65.3518
4712	65.4338
4696	65.2863
4680	64.6821
4664	65.2463
4648	64.8698
4632	65.3551
4616	65.2926
4600	65.4555
4584	65.399
4568	65.4327
4552	65.4584
4536	65.8015
4520	65.3324
4504	65.2932
4488	65.3123
4472	65.503
4456	63.2323
4440	52.624
4424	64.1936
4408	67.4489
4392	64.7956
4376	65.2804
4360	65.7138
4344	65.3336
4328	65.2223
4312	65.5155
4296	65.4489
4280	65.3664
4264	65.2722
4248	65.1684
4232	65.1683
4216	65.2337
4200	65.2633
4184	65.0325
4168	65.2831
4152	65.2082
4136	65.1075
4120	65.2189
4104	65.005
4088	65.1361
4072	65.2009
4056	65.163
4040	65.0973
4024	65.3016
4008	65.405
3992	65.0867
3976	64.9496
3960	65.3409
3944	65.2431
3928	65.3198
3912	65.6609
3896	65.6341
3880	65.2939
3864	65.272
3848	65.1748
3832	65.2108
3816	65.1711
3800	65.3916
3784	65.4582
3768	65.332
3752	65.3292
3736	65.3695
3720	65.2657
3704	65.3065
3688	65.3885
3672	65.4053
3656	65.3357
3640	65.3927
3624	65.1191
3608	65.3281
3592	65.1879
3576	65.1873
3560	65.335
3544	65.3262
3528	65.361
3512	65.2501
3496	65.2189
3480	65.239
3464	65.4341
3448	65.2104
3432	65.1426
3416	65.1672
3400	65.1912
3384	65.3415
3368	65.233
3352	65.2601
3336	65.1761
3320	65.2982
3304	65.2997
3288	65.0897
3272	65.0977
3256	65.1548
3240	64.9911
3224	65.229
3208	65.1587
3192	65.095
3176	65.08
3160	65.1325
3144	65.24
3128	65.1521
3112	65.0746
3096	64.9759
3080	64.9322
3064	65.2133
3048	65.2544
3032	65.1614
3016	65.0477
3000	64.9923
2984	64.8789
2968	64.7089
2952	64.6327
2936	64.7351
2920	64.7495
2904	64.8739
2888	64.7162
2872	64.8259
2856	64.7433
2840	65.0039
2824	65.0429
2808	65.1369
2792	64.9402
2776	65.0804
2760	65.0967
2744	64.9202
2728	64.8239
2712	65.0641
2696	65.1038
2680	65.052
2664	64.865
2648	65.0483
2632	64.8837
2616	64.9299
2600	64.8957
2584	65.0205
2568	64.8553
2552	64.8327
2536	64.8308
2520	64.9512
2504	64.8402
2488	64.8094
2472	64.8908
2456	64.9292
2440	64.7832
2424	64.7802
2408	64.8358
2392	64.661
2376	64.6347
2360	64.6586
2344	64.5887
2328	64.7129
2312	64.7392
2296	64.5087
2280	64.6233
2264	64.6392
2248	64.6431
2232	64.5809
2216	64.5974
2200	64.5516
2184	64.5781
2168	64.4974
2152	64.5085
2136	64.6199
2120	64.5203
2104	64.515
2088	64.5171
2072	64.4471
2056	64.5165
2040	64.4608
2024	64.3507
2008	64.4739
1992	64.3771
1976	64.3358
1960	64.4269
1944	64.3782
1928	64.3492
1912	64.4355
1896	64.3522
1880	64.411
1864	64.2503
1848	64.3633
1832	64.2401
1816	64.2121
1800	64.2118
1784	64.1661
1768	64.2502
1752	63.7789
1736	62.9561
1720	63.6477
1704	63.8591
1688	64.1098
1672	63.9619
1656	63.9474
1640	63.9468
1624	64.0748
1608	63.9685
1592	63.8908
1576	63.9321
1560	63.9917
1544	63.9553
1528	64.004
1512	63.9451
1496	63.9107
1480	63.8215
1464	63.6456
1448	63.6565
1432	63.7917
1416	63.7148
1400	63.5592
1384	63.6147
1368	63.623
1352	63.617
1336	63.7387
1320	63.6786
1304	63.589
1288	63.5602
1272	63.3813
1256	63.1871
1240	63.2347
1224	63.3111
1208	63.3484
1192	63.315
1176	62.9903
1160	63.0924
1144	63.3193
1128	63.1418
1112	63.4245
1096	63.2448
1080	63.1662
1064	63.1982
1048	63.2126
1032	63.06
1016	63.0815
1000	63.2493
984	 63.2738
968	 63.2074
952	 63.0209
936	 63.3631
920	 63.3384
904	 63.2571
888	 63.3838
872	 63.1875
856	 63.2283
840	 63.2179
824	 63.0681
808	 63.0445
792	 63.0983
776	 63.3763
760	 63.0342
744	 63.0835
728	 62.7855
712	 63.2129
696	 62.9632
680	 63.4682
664	 62.9384
648	 62.813
632	 62.3742
616	 63.0471
600	 63.2143
584	 62.3165
568	 62.6186
552	 61.9254
536	 62.8591
520	 62.312
504	 60.7071
488	 62.7109
472	 61.8904
456	 61.9092
440	 61.7891
424	 63.3918
408	 65.3534
392	 61.5994
376	 49.4304
370	 52.3396