File: Bakgrunnsmateriale/MATLAB/FTIR/ftir_data/subAa/Mapping_121/BZ1503107-1_t85.asc
PE IR       SPECTRUM    SPECTRUM    ASCII       PEDS        1.60
  -1
BZ2D55~1.ASC
17/04/07
20:11:48.00
17/04/07
20:12:14.00
tln
$BZ1503107-1_t0085$<tbV0>[-5.2,5.2,8.0,0.0,27,1,0]
27.028
64

2002,4.07
MIRTGS : RIGHTBACK : INTERNAL 2
MIR : ON : INTERNAL 2
OPTKBR

0.200000
8
8.000000
FILLER
RATIO
SPECTRUM
UNLOCKED 256

DOUBLE
64
COMBINED
1
0
0

0.002000
RATIO

1
0
TRUE
51149
0
LEFT NOT FITTED RIGHT NOT FITTED 0
NONE
NONE
15600
12
4.427000
51148
TRUE
1 0 8 72 0 0 0 0

15798

#HDR
-1
-1
#GR
µM
%T
2.38419e-05
0.0
2.000000
0.002000
12515
8
77.4422
59.65
#DATA
2.000000	 64.6811
2.084000	 64.474
2.168000	 64.8896
2.252000	 67.5346
2.336000	 64.9316
2.420000	 64.6592
2.504000	 64.7247
2.588000	 64.9689
2.672000	 65.2686
2.756000	 64.8861
2.840000	 64.9709
2.924000	 64.9601
3.008000	 64.9693
3.092000	 64.8442
3.176000	 64.8435
3.260000	 64.802
3.344000	 64.8015
3.428000	 64.7654
3.512000	 64.6434
3.596000	 64.7532
3.680000	 64.6907
3.764000	 64.6402
3.848000	 64.7564
3.932000	 64.6576
4.016000	 64.6168
4.100000	 64.6612
4.184000	 64.6053
4.268000	 64.4114
4.352000	 64.5013
4.436000	 64.4563
4.520000	 64.3842
4.604000	 64.3784
4.688000	 64.51
4.772000	 64.4393
4.856000	 64.2069
4.940000	 64.3254
5.024000	 64.1247
5.108000	 64.2652
5.192000	 64.0871
5.276000	 64.1834
5.359999	 64.0816
5.444000	 64.0825
5.528000	 64.1474
5.612000	 64.0565
5.696000	 63.9492
5.780000	 63.7936
5.864000	 63.8308
5.948000	 63.8614
6.032000	 63.8909
6.116000	 63.7016
6.200000	 63.8629
6.284000	 63.7555
6.368000	 63.7771
6.452000	 63.7562
6.536000	 63.8572
6.620000	 63.7751
6.704000	 63.5775
6.788000	 63.6936
6.872000	 63.7494
6.956000	 63.8415
7.040000	 63.699
7.124000	 63.4944
7.208000	 63.6768
7.292000	 63.5046
7.376000	 63.3848
7.460000	 63.5844
7.544000	 63.6606
7.628000	 63.5337
7.712000	 63.3714
7.796000	 63.465
7.880000	 63.3183
7.964000	 63.3646
8.048000	 63.3884
8.132000	 63.3246
8.216000	 63.2946
8.300000	 63.4032
8.384000	 63.4217
8.468000	 63.2703
8.552000	 63.2833
8.635999	 63.2234
8.719999	 63.2554
8.804000	 63.2201
8.888000	 63.3287
8.972000	 63.3283
9.056000	 63.2925
9.140000	 63.2625
9.224000	 63.3341
9.308000	 63.209
9.391999	 63.2464
9.475999	 63.2665
9.560000	 63.4458
9.644000	 63.0737
9.728000	 63.1958
9.812000	 63.2125
9.896000	 63.1769
9.980000	 63.3012
10.064	63.0556
10.148	63.0935
10.232	63.2978
10.316	63.0177
10.4	63.2259
10.484	63.1653
10.568	63.2739
10.652	63.0635
10.736	63.0117
10.82	63.1633
10.904	63.2046
10.988	63.3657
11.072	63.1062
11.156	63.0892
11.24	63.0725
11.324	63.0336
11.408	62.9941
11.492	63.1529
11.576	63.0057
11.66	62.8895
11.744	62.8745
11.828	63.0225
11.912	63.1373
11.996	63.0622
12.08	63.097
12.164	63.1037
12.248	63.0343
12.332	62.9331
12.416	62.783
12.5	62.6573
12.584	62.729
12.668	62.8613
12.752	62.8631
12.836	62.9553
12.92	62.8791
13.004	62.7922
13.088	62.8659
13.172	62.968
13.256	62.9491
13.34	62.7949
13.424	62.5317
13.508	62.3692
13.592	62.4377
13.676	62.4719
13.76	62.4476
13.844	62.422
13.928	62.5495
14.012	62.8429
14.096	62.8732
14.18	62.6727
14.264	62.5965
14.348	62.5497
14.432	62.6204
14.516	62.9531
14.6	63.1813
14.684	63.1635
14.768	63.0793
14.852	62.9631
14.936	62.777
15.02	62.5878
15.104	62.6259
15.188	62.6987
15.272	62.5265
15.356	62.2726
15.44	62.0736
15.524	61.9656
15.608	61.9315
15.692	61.9298
15.776	62.0462
15.86	62.1904
15.944	62.1394
16.028	62.0145
16.112	62.104
16.196	62.4571
16.28	62.9153
16.364	63.243
16.448	63.2732
16.532	63.0992
16.616	62.83
16.7	62.438
16.784	62.0934
16.868	62.0988
16.952	62.4259
17.036	62.745
17.12	62.894
17.204	63.0794
17.288	63.5637
17.372	64.1468
17.456	64.2382
17.54	63.6086
17.624	62.7113
17.708	62.11
17.792	61.9486
17.876	62.0375
17.96	62.1401
18.044	62.0957
18.128	61.8986
18.212	61.7482
18.296	61.8603
18.38	62.1764
18.464	62.3929
18.548	62.2607
18.632	61.7893
18.716	61.2385
18.8	60.991
18.884	61.3015
18.968	62.0951
19.052	63.0003
19.136	63.6426
19.22	63.8951
19.304	63.8671
19.388	63.6847
19.472	63.37
19.556	62.9556
19.64	62.5973
19.724	62.4741
19.808	62.6052
19.892	62.8435
19.976	63.0242
20.06	63.0855
20.144	63.0673
20.228	63.027
20.312	62.9871
20.396	62.9402
20.48	62.886
20.564	62.8468
20.648	62.8537
20.732	62.9098
20.816	62.9652
20.9	62.95
20.984	62.8419
21.068	62.6983
21.152	62.6067
21.236	62.6036
21.32	62.65
21.404	62.6783
21.488	62.6618
21.572	62.6266
21.656	62.5935
21.74	62.5356
21.824	62.3892
21.908	62.1262
21.992	61.8055
22.076	61.5409
22.16	61.4264
22.244	61.4642
22.328	61.5689
22.412	61.6459
22.496	61.6553
22.58	61.6312
22.664	61.6363
22.748	61.7086
22.832	61.8448
22.916	62.0297
23	62.2594
23.084	62.5571
23.168	62.9522
23.252	63.4335
23.336	63.9275
23.42	64.3129
23.504	64.4676
23.588	64.3126
23.672	63.8391
23.756	63.1221
23.84	62.2718
23.924	61.4217
24.008	60.6772
24.092	60.0981
24.176	59.7375
24.26	59.6619
24.344	59.9486
24.428	60.6327
24.512	61.6634
24.596	62.8611
24.68	63.9539
24.764	64.677
24.848	64.8814
24.932	64.5895
25.016	64.0005
25.1	63.411
25.184	63.0752
25.268	63.1219
25.352	63.5969
25.436	64.4896
25.52	65.7755
25.604	67.4386
25.688	69.468
25.772	71.761
25.856	74.058
25.94	76.0065
26.024	77.2135
26.108	77.3691
26.192	76.3958
26.276	74.4439
26.36	71.8923
26.444	69.1046
26.528	66.3733
26.612	63.989
26.696	62.2726
26.78	61.5359
26.864	62.1364
26.948	64.4301
27.028	68.4494