File: Bakgrunnsmateriale/MATLAB/FTIR/ftir_data/subAa/Mapping_121/BZ1503107-1_t42_cm-1.asc
PE IR       SPECTRUM    SPECTRUM    ASCII       PEDS        1.60
  -1
BZ6A24~1.ASC
17/04/07
16:38:14.00
17/04/07
16:38:14.00
tln
$BZ1503107-1_t0042$<tbV0>[-7.8,-5.2,8.0,0.0,27,1,0]
370
64

2002,4.07
MIRTGS : RIGHTBACK : INTERNAL 2
MIR : ON : INTERNAL 2
OPTKBR

0.200000
8
8.000000
FILLER
RATIO
SPECTRUM
UNLOCKED 256

DOUBLE
64
COMBINED
1
0
0

1.000000
RATIO

1
0
TRUE
51149
0
LEFT NOT FITTED RIGHT NOT FITTED 0
NONE
NONE
15600
12
4.427000
51148
TRUE
1 0 8 72 0 0 0 0

15798

#HDR
-1
-1
#GR
CM-1
%T
2.38419e-05
0.0
5000
-1.000000
4631
8
83.8529
53.6477
#DATA
5000	65.1069
4984	64.8721
4968	64.1208
4952	64.4085
4936	64.1098
4920	64.7742
4904	64.6959
4888	64.451
4872	64.8613
4856	65.3182
4840	65.0634
4824	65.1721
4808	65.1051
4792	65.3229
4776	64.8059
4760	65.1699
4744	65.5439
4728	65.4743
4712	65.7758
4696	65.356
4680	65.1066
4664	65.1689
4648	65.4207
4632	64.7427
4616	64.6151
4600	64.552
4584	64.4189
4568	64.2936
4552	63.904
4536	64.2007
4520	63.9365
4504	64.1073
4488	63.5736
4472	63.0299
4456	64.0724
4440	64.9307
4424	80.9714
4408	78.5445
4392	65.6825
4376	64.2208
4360	63.8855
4344	64.0164
4328	64.1228
4312	64.0292
4296	64.4125
4280	64.3291
4264	64.6792
4248	64.5064
4232	64.8808
4216	65.2219
4200	64.9087
4184	64.996
4168	64.8998
4152	65.1838
4136	65.487
4120	65.2425
4104	65.5298
4088	65.2036
4072	65.434
4056	65.3376
4040	65.2073
4024	65.1963
4008	65.3901
3992	65.4412
3976	65.1797
3960	65.1858
3944	65.1787
3928	65.2139
3912	65.2225
3896	65.0929
3880	64.9186
3864	64.8555
3848	64.9795
3832	65.0843
3816	65.1074
3800	65.3343
3784	65.2068
3768	65.1426
3752	64.9897
3736	65.1952
3720	65.1881
3704	65.3558
3688	65.2178
3672	65.3982
3656	65.3788
3640	65.1545
3624	65.361
3608	65.3599
3592	65.2856
3576	65.0907
3560	65.2304
3544	64.9936
3528	65.1334
3512	65.0481
3496	65.0773
3480	64.9428
3464	65.138
3448	65.0249
3432	65.0296
3416	65.1432
3400	65.2552
3384	65.3284
3368	65.0887
3352	65.2702
3336	65.2297
3320	65.1542
3304	65.0948
3288	64.9335
3272	65.162
3256	65.1102
3240	65.1007
3224	65.2309
3208	65.1867
3192	65.0519
3176	65.1252
3160	65.2267
3144	65.0743
3128	65.3309
3112	65.0233
3096	65.2899
3080	64.9668
3064	65.015
3048	65.073
3032	64.9765
3016	65.0169
3000	65.1116
2984	65.083
2968	64.8847
2952	65.092
2936	65.0638
2920	65.135
2904	64.9812
2888	65.0712
2872	64.9538
2856	65.1824
2840	65.0067
2824	65.1869
2808	65.0906
2792	65.1953
2776	65.0548
2760	65.165
2744	65.1766
2728	65.03
2712	65.0738
2696	65.1548
2680	65.0365
2664	64.9975
2648	65.0722
2632	65.0004
2616	64.8599
2600	65.0406
2584	64.9922
2568	64.9924
2552	65.0297
2536	65.0449
2520	64.8513
2504	65.0857
2488	64.9475
2472	64.9799
2456	64.9456
2440	64.9402
2424	64.8564
2408	65.0571
2392	65.1086
2376	64.8686
2360	64.9207
2344	64.9343
2328	64.8974
2312	64.9936
2296	64.8771
2280	64.8712
2264	64.8621
2248	64.8813
2232	65.0322
2216	64.8342
2200	65.0063
2184	64.942
2168	64.9091
2152	64.8267
2136	64.857
2120	64.6982
2104	64.7911
2088	64.7526
2072	64.8642
2056	64.9141
2040	64.7636
2024	64.8019
2008	64.8545
1992	64.7197
1976	64.7466
1960	64.7455
1944	64.6862
1928	64.7736
1912	64.6573
1896	64.6168
1880	64.7279
1864	64.6693
1848	64.8025
1832	64.6722
1816	64.6549
1800	64.6729
1784	64.5229
1768	64.5524
1752	64.5145
1736	64.3048
1720	64.51
1704	64.543
1688	64.4992
1672	64.5725
1656	64.4705
1640	64.423
1624	64.3773
1608	64.3872
1592	64.3889
1576	64.2028
1560	64.3415
1544	64.2083
1528	64.2838
1512	64.3906
1496	64.3542
1480	64.4353
1464	64.2993
1448	64.4074
1432	64.3728
1416	64.2784
1400	64.2627
1384	64.2799
1368	64.2684
1352	64.1639
1336	64.2954
1320	64.09
1304	64.215
1288	64.1356
1272	64.1692
1256	64.1091
1240	64.0407
1224	64.106
1208	64.0978
1192	64.0301
1176	64.0638
1160	64.0092
1144	63.9793
1128	63.9662
1112	63.8972
1096	64.0712
1080	63.9216
1064	63.9942
1048	63.9865
1032	64.0128
1016	63.9914
1000	64.0855
984	 64.0215
968	 64.1027
952	 64.174
936	 64.0806
920	 63.9867
904	 64.0507
888	 64.0826
872	 64.1177
856	 63.9883
840	 64.0267
824	 63.885
808	 63.9445
792	 64.3394
776	 63.724
760	 63.6312
744	 63.8099
728	 63.356
712	 63.4479
696	 63.8313
680	 64.0949
664	 64.2103
648	 63.413
632	 63.9496
616	 63.4525
600	 64.3454
584	 63.3045
568	 63.1841
552	 64.0452
536	 62.315
520	 63.1273
504	 63.5602
488	 63.0274
472	 63.6519
456	 63.3877
440	 61.2528
424	 63.5301
408	 60.4466
392	 65.6276
376	 57.9548
370	 65.5193