File: Bakgrunnsmateriale/MATLAB/FTIR/ftir_data/subAa/Mapping_121/BZ1503107-1_t37.asc
PE IR       SPECTRUM    SPECTRUM    ASCII       PEDS        1.60
  -1
BZ2567~1.ASC
17/04/07
16:15:08.00
17/04/07
16:15:34.00
tln
$BZ1503107-1_t0037$<tbV0>[5.2,-5.2,8.0,0.0,27,1,0]
27.028
64

2002,4.07
MIRTGS : RIGHTBACK : INTERNAL 2
MIR : ON : INTERNAL 2
OPTKBR

0.200000
8
8.000000
FILLER
RATIO
SPECTRUM
UNLOCKED 256

DOUBLE
64
COMBINED
1
0
0

0.002000
RATIO

1
0
TRUE
51149
0
LEFT NOT FITTED RIGHT NOT FITTED 0
NONE
NONE
15600
12
4.427000
51148
TRUE
1 0 8 72 0 0 0 0

15798

#HDR
-1
-1
#GR
µM
%T
2.38419e-05
0.0
2.000000
0.002000
12515
8
76.7254
38.5127
#DATA
2.000000	 65.5849
2.084000	 65.1449
2.168000	 65.04
2.252000	 65.0485
2.336000	 65.1895
2.420000	 64.937
2.504000	 65.185
2.588000	 65.2572
2.672000	 65.2347
2.756000	 65.2159
2.840000	 65.1332
2.924000	 65.3932
3.008000	 65.1196
3.092000	 65.0948
3.176000	 65.0857
3.260000	 65.1331
3.344000	 65.0535
3.428000	 65.1894
3.512000	 64.8824
3.596000	 65.0229
3.680000	 65.1777
3.764000	 65.0938
3.848000	 65.0405
3.932000	 64.8856
4.016000	 64.9438
4.100000	 64.8885
4.184000	 65.0483
4.268000	 64.9352
4.352000	 64.9227
4.436000	 64.7779
4.520000	 64.7645
4.604000	 64.8525
4.688000	 64.8929
4.772000	 64.7978
4.856000	 64.8518
4.940000	 64.8239
5.024000	 64.7292
5.108000	 64.7215
5.192000	 64.7977
5.276000	 64.6492
5.359999	 64.7577
5.444000	 64.6681
5.528000	 64.6213
5.612000	 64.5897
5.696000	 64.4864
5.780000	 64.3179
5.864000	 64.5968
5.948000	 64.6078
6.032000	 64.3818
6.116000	 64.4871
6.200000	 64.328
6.284000	 64.4164
6.368000	 64.276
6.452000	 64.3433
6.536000	 64.3663
6.620000	 64.4527
6.704000	 64.3239
6.788000	 64.3027
6.872000	 64.3986
6.956000	 64.3831
7.040000	 64.2876
7.124000	 64.353
7.208000	 64.2496
7.292000	 64.3624
7.376000	 64.1964
7.460000	 64.2108
7.544000	 64.2951
7.628000	 64.2517
7.712000	 64.1966
7.796000	 64.2825
7.880000	 64.1209
7.964000	 64.0836
8.048000	 64.1702
8.132000	 64.1529
8.216000	 64.212
8.300000	 64.0762
8.384000	 63.9752
8.468000	 64.0099
8.552000	 63.954
8.635999	 64.0306
8.719999	 64.113
8.804000	 63.7896
8.888000	 63.7667
8.972000	 64.0459
9.056000	 63.9868
9.140000	 63.9224
9.224000	 64.0039
9.308000	 63.9078
9.391999	 64.0228
9.475999	 63.9579
9.560000	 64.0576
9.644000	 63.9089
9.728000	 64.0192
9.812000	 64.1131
9.896000	 64.1036
9.980000	 64.1444
10.064	64.1267
10.148	63.9974
10.232	64.1223
10.316	63.937
10.4	63.9016
10.484	63.892
10.568	63.9669
10.652	64.1219
10.736	64.11
10.82	64.0623
10.904	64.2342
10.988	64.122
11.072	64.1004
11.156	64.115
11.24	64.0964
11.324	63.9453
11.408	63.9999
11.492	63.9303
11.576	63.9919
11.66	63.9469
11.744	63.9981
11.828	63.8692
11.912	64.1275
11.996	64.1704
12.08	63.929
12.164	63.8817
12.248	63.7914
12.332	63.8547
12.416	64.0891
12.5	64.1042
12.584	63.9998
12.668	64.0469
12.752	64.2402
12.836	64.1911
12.92	63.9879
13.004	63.7771
13.088	63.7668
13.172	63.8364
13.256	63.5712
13.34	63.4186
13.424	63.6561
13.508	63.7902
13.592	63.6804
13.676	63.4463
13.76	63.3606
13.844	63.4456
13.928	63.5155
14.012	63.4501
14.096	63.416
14.18	63.4034
14.264	63.3326
14.348	63.3437
14.432	63.5674
14.516	63.9095
14.6	64.1074
14.684	64.1624
14.768	64.036
14.852	63.7212
14.936	63.584
15.02	63.6529
15.104	63.6265
15.188	63.6039
15.272	63.7197
15.356	63.7987
15.44	63.8069
15.524	63.9579
15.608	64.222
15.692	64.4345
15.776	64.6771
15.86	64.8705
15.944	64.8188
16.028	64.6019
16.112	64.1964
16.196	63.5425
16.28	63.1051
16.364	63.3159
16.448	63.8666
16.532	64.265
16.616	64.4696
16.7	64.5998
16.784	64.58
16.868	64.333
16.952	64.0079
17.036	63.8347
17.12	63.8359
17.204	63.8279
17.288	63.714
17.372	63.5868
17.456	63.514
17.54	63.4706
17.624	63.4909
17.708	63.6466
17.792	63.8676
17.876	64.0055
17.96	64.0765
18.044	64.2144
18.128	64.381
18.212	64.3562
18.296	64.0352
18.38	63.587
18.464	63.2924
18.548	63.2933
18.632	63.5053
18.716	63.7459
18.8	63.9088
18.884	64.0039
18.968	64.0705
19.052	64.1052
19.136	64.0671
19.22	63.9322
19.304	63.7261
19.388	63.5181
19.472	63.3876
19.556	63.3681
19.64	63.4375
19.724	63.5611
19.808	63.7183
19.892	63.869
19.976	63.9399
20.06	63.8844
20.144	63.7424
20.228	63.6104
20.312	63.5461
20.396	63.5234
20.48	63.4986
20.564	63.489
20.648	63.563
20.732	63.7547
20.816	64.0101
20.9	64.2293
20.984	64.3445
21.068	64.3508
21.152	64.2678
21.236	64.0932
21.32	63.8119
21.404	63.443
21.488	63.0507
21.572	62.7095
21.656	62.4563
21.74	62.279
21.824	62.151
21.908	62.0745
21.992	62.0887
22.076	62.2345
22.16	62.5028
22.244	62.8138
22.328	63.0521
22.412	63.1288
22.496	63.0408
22.58	62.8739
22.664	62.7606
22.748	62.813
22.832	63.0496
22.916	63.4043
23	63.7614
23.084	64.0244
23.168	64.1375
23.252	64.1039
23.336	63.9755
23.42	63.7866
23.504	63.5571
23.588	63.3074
23.672	63.0598
23.756	62.8297
23.84	62.6731
23.924	62.6621
24.008	62.8645
24.092	63.3313
24.176	64.0725
24.26	64.9803
24.344	65.812
24.428	66.3136
24.512	66.3523
24.596	66.0093
24.68	65.6256
24.764	65.7096
24.848	66.6661
24.932	68.6254
25.016	71.2753
25.1	73.9293
25.184	75.5897
25.268	75.3855
25.352	72.9424
25.436	68.5121
25.52	63.0535
25.604	57.9352
25.688	54.5628
25.772	53.8557
25.856	55.9348
25.94	60.0897
26.024	64.934
26.108	68.8767
26.192	70.7092
26.276	69.8946
26.36	66.6312
26.444	61.6938
26.528	56.0847
26.612	50.6037
26.696	45.8252
26.78	42.0944
26.864	39.5962
26.948	38.525
27.028	39.1054