File: Bakgrunnsmateriale/MATLAB/FTIR/ftir_data/subAa/Mapping_121/BZ1503107-1_t15_cm-1.asc
PE IR       SPECTRUM    SPECTRUM    ASCII       PEDS        1.60
  -1
BZ6DA1~1.ASC
17/04/07
14:25:45.00
17/04/07
14:25:45.00
tln
$BZ1503107-1_t0015$<tbV0>[5.2,-10.4,8.0,0.0,27,1,0]
370
64

2002,4.07
MIRTGS : RIGHTBACK : INTERNAL 2
MIR : ON : INTERNAL 2
OPTKBR

0.200000
8
8.000000
FILLER
RATIO
SPECTRUM
UNLOCKED 256

DOUBLE
64
COMBINED
1
0
0

1.000000
RATIO

1
0
TRUE
51149
0
LEFT NOT FITTED RIGHT NOT FITTED 0
NONE
NONE
15600
12
4.427000
51148
TRUE
1 0 8 72 0 0 0 0

15798

#HDR
-1
-1
#GR
CM-1
%T
2.38419e-05
0.0
5000
-1.000000
4631
8
88.6363
56.5448
#DATA
5000	64.6437
4984	61.9673
4968	64.3246
4952	64.4135
4936	65.3024
4920	64.2952
4904	64.6479
4888	64.5199
4872	64.5698
4856	65.5933
4840	65.6525
4824	64.9416
4808	65.3253
4792	65.6341
4776	65.3429
4760	65.6479
4744	64.9735
4728	64.8765
4712	64.6947
4696	64.7566
4680	65.021
4664	64.7921
4648	65.1316
4632	64.7913
4616	64.7365
4600	64.6709
4584	64.6899
4568	64.0577
4552	63.7513
4536	64.0838
4520	63.4588
4504	64.2542
4488	67.0556
4472	64.6619
4456	62.2551
4440	77.6084
4424	65.5333
4408	64.5187
4392	63.5046
4376	64.1262
4360	64.341
4344	64.4546
4328	64.2716
4312	64.5161
4296	64.5533
4280	64.7881
4264	64.6886
4248	64.6862
4232	65.3399
4216	65.0728
4200	65.2007
4184	65.4116
4168	65.1842
4152	65.5333
4136	65.1376
4120	65.3062
4104	65.1942
4088	65.2226
4072	65.2859
4056	65.6092
4040	65.2009
4024	65.3659
4008	65.132
3992	64.9138
3976	65.1881
3960	65.0813
3944	65.1078
3928	64.9079
3912	65.1315
3896	65.1201
3880	65.3796
3864	64.9539
3848	65.1392
3832	65.3457
3816	65.4182
3800	65.2651
3784	65.076
3768	65.3152
3752	65.5556
3736	65.4389
3720	65.4011
3704	65.2779
3688	65.565
3672	65.6369
3656	65.234
3640	65.3592
3624	65.4335
3608	65.3137
3592	65.2853
3576	65.3062
3560	65.1478
3544	65.237
3528	65.1724
3512	65.0969
3496	65.0468
3480	65.2877
3464	64.8184
3448	65.1401
3432	65.1196
3416	65.1795
3400	65.1366
3384	65.1705
3368	65.0619
3352	65.2926
3336	65.2957
3320	65.3929
3304	65.1935
3288	65.2016
3272	65.1393
3256	65.3223
3240	65.1464
3224	65.1134
3208	65.3408
3192	65.3245
3176	65.2985
3160	65.334
3144	65.1421
3128	64.9451
3112	65.0194
3096	65.2637
3080	65.1836
3064	64.9954
3048	65.1845
3032	65.2271
3016	65.2039
3000	65.277
2984	65.0767
2968	64.9994
2952	65.134
2936	65.0348
2920	64.9336
2904	65.0514
2888	65.0721
2872	65.1308
2856	65.05
2840	65.1757
2824	65.1364
2808	65.1403
2792	65.1418
2776	65.1817
2760	65.088
2744	65.1206
2728	65.0605
2712	65.0826
2696	65.1841
2680	65.0888
2664	65.0172
2648	64.9739
2632	64.9644
2616	65.1239
2600	65.0412
2584	65.0941
2568	65.0441
2552	65.2226
2536	65.07
2520	65.0881
2504	64.9183
2488	65.2591
2472	65.1434
2456	65.0153
2440	64.9847
2424	65.0714
2408	65.0486
2392	65.1191
2376	65.0853
2360	65.0846
2344	65.0605
2328	65.0552
2312	64.9333
2296	64.9461
2280	64.9228
2264	65.0061
2248	65.0572
2232	64.8997
2216	64.9927
2200	64.9564
2184	64.9065
2168	64.989
2152	64.6596
2136	64.9654
2120	65.0335
2104	64.9731
2088	64.9545
2072	64.9238
2056	64.8466
2040	64.9667
2024	64.9458
2008	64.904
1992	64.8924
1976	64.8739
1960	64.9917
1944	64.8721
1928	64.8338
1912	64.8673
1896	64.8483
1880	64.8489
1864	64.8803
1848	64.926
1832	64.8849
1816	64.7797
1800	64.8853
1784	64.7092
1768	64.8315
1752	64.6764
1736	64.5917
1720	64.6681
1704	64.7501
1688	64.7103
1672	64.7026
1656	64.8449
1640	64.713
1624	64.8519
1608	64.6427
1592	64.6545
1576	64.8245
1560	64.7452
1544	64.6864
1528	64.6761
1512	64.7696
1496	64.9168
1480	64.6058
1464	64.6429
1448	64.4782
1432	64.5505
1416	64.4841
1400	64.5931
1384	64.4808
1368	64.5167
1352	64.5588
1336	64.4432
1320	64.4193
1304	64.2874
1288	64.3881
1272	64.2929
1256	64.34
1240	64.3156
1224	64.3114
1208	64.3094
1192	64.4083
1176	64.2172
1160	64.2605
1144	64.1757
1128	64.2606
1112	64.3986
1096	64.3749
1080	64.344
1064	64.0825
1048	64.1567
1032	64.2392
1016	64.2056
1000	64.1409
984	 64.3216
968	 64.2207
952	 64.1935
936	 64.2645
920	 64.2845
904	 64.1683
888	 64.1273
872	 64.1601
856	 64.2552
840	 64.2639
824	 63.9041
808	 64.1873
792	 64.1068
776	 64.2946
760	 64.19
744	 64.0146
728	 64.1554
712	 64.0849
696	 64.0374
680	 64.0134
664	 63.7548
648	 63.9231
632	 63.6262
616	 64.348
600	 64.2154
584	 63.7349
568	 63.2592
552	 63.8829
536	 63.7725
520	 64.917
504	 63.5208
488	 63.8049
472	 64.2904
456	 63.5412
440	 62.548
424	 64.5278
408	 65.6626
392	 66.9973
376	 75.2953
370	 73.6676