File: Bakgrunnsmateriale/MATLAB/FTIR/ftir_data/subAa/Mapping_121/BZ1503107-1_t16.asc
PE IR       SPECTRUM    SPECTRUM    ASCII       PEDS        1.60
  -1
BZ216B~1.ASC
17/04/07
14:30:22.00
17/04/07
14:30:48.00
tln
$BZ1503107-1_t0016$<tbV0>[2.6,-10.4,8.0,0.0,27,1,0]
27.028
64

2002,4.07
MIRTGS : RIGHTBACK : INTERNAL 2
MIR : ON : INTERNAL 2
OPTKBR

0.200000
8
8.000000
FILLER
RATIO
SPECTRUM
UNLOCKED 256

DOUBLE
64
COMBINED
1
0
0

0.002000
RATIO

1
0
TRUE
51149
0
LEFT NOT FITTED RIGHT NOT FITTED 0
NONE
NONE
15600
12
4.427000
51148
TRUE
1 0 8 72 0 0 0 0

15798

#HDR
-1
-1
#GR
µM
%T
2.38419e-05
0.0
2.000000
0.002000
12515
8
75.3616
38.0228
#DATA
2.000000	 64.2256
2.084000	 65.8691
2.168000	 64.672
2.252000	 68.5881
2.336000	 64.9922
2.420000	 65.3405
2.504000	 65.1762
2.588000	 65.1092
2.672000	 65.4628
2.756000	 65.5205
2.840000	 65.1664
2.924000	 65.3398
3.008000	 65.4285
3.092000	 65.1345
3.176000	 65.1222
3.260000	 65.2235
3.344000	 65.2468
3.428000	 65.0628
3.512000	 65.0392
3.596000	 65.1437
3.680000	 65.1073
3.764000	 65.0876
3.848000	 65.0529
3.932000	 65.016
4.016000	 65.0713
4.100000	 64.959
4.184000	 64.9271
4.268000	 65.0657
4.352000	 64.8989
4.436000	 64.9587
4.520000	 64.9462
4.604000	 64.963
4.688000	 64.8471
4.772000	 64.8227
4.856000	 64.8691
4.940000	 64.8881
5.024000	 64.8358
5.108000	 64.8765
5.192000	 64.753
5.276000	 64.9165
5.359999	 64.8368
5.444000	 64.8011
5.528000	 64.8172
5.612000	 64.8102
5.696000	 64.7801
5.780000	 64.3644
5.864000	 64.6946
5.948000	 64.7045
6.032000	 64.7159
6.116000	 64.6682
6.200000	 64.6511
6.284000	 64.7037
6.368000	 64.709
6.452000	 64.8263
6.536000	 64.6872
6.620000	 64.8363
6.704000	 64.6841
6.788000	 64.6254
6.872000	 64.6027
6.956000	 64.6776
7.040000	 64.4208
7.124000	 64.5588
7.208000	 64.397
7.292000	 64.4402
7.376000	 64.3905
7.460000	 64.5604
7.544000	 64.4295
7.628000	 64.2257
7.712000	 64.3513
7.796000	 64.3011
7.880000	 64.2236
7.964000	 64.2425
8.048000	 64.1939
8.132000	 64.2331
8.216000	 64.1994
8.300000	 64.2119
8.384000	 64.3783
8.468000	 64.2048
8.552000	 64.0845
8.635999	 64.1504
8.719999	 64.152
8.804000	 64.4579
8.888000	 64.4728
8.972000	 64.2059
9.056000	 64.0523
9.140000	 64.1195
9.224000	 64.3529
9.308000	 64.1663
9.391999	 64.0872
9.475999	 64.266
9.560000	 64.1325
9.644000	 64.151
9.728000	 64.263
9.812000	 64.1515
9.896000	 64.2854
9.980000	 64.1748
10.064	64.3198
10.148	64.0032
10.232	63.8575
10.316	64.2272
10.4	64.2132
10.484	64.2713
10.568	64.2832
10.652	64.1993
10.736	64.2969
10.82	64.3693
10.904	64.3964
10.988	64.3486
11.072	64.1393
11.156	64.2207
11.24	64.0201
11.324	64.1035
11.408	64.182
11.492	64.1147
11.576	64.0495
11.66	64.2453
11.744	64.4128
11.828	64.399
11.912	64.1749
11.996	64.0865
12.08	64.0758
12.164	64.0924
12.248	64.0665
12.332	64.1873
12.416	64.1874
12.5	64.101
12.584	64.1191
12.668	64.2657
12.752	64.3712
12.836	64.3155
12.92	64.1791
13.004	64.137
13.088	64.0643
13.172	64.1218
13.256	64.2168
13.34	64.0901
13.424	63.9974
13.508	63.992
13.592	63.9335
13.676	64.0072
13.76	64.1409
13.844	64.0889
13.928	64.0918
14.012	64.2009
14.096	64.1724
14.18	63.9844
14.264	63.9539
14.348	64.1425
14.432	64.324
14.516	64.359
14.6	64.1349
14.684	63.8289
14.768	63.7496
14.852	63.7526
14.936	63.6425
15.02	63.531
15.104	63.5771
15.188	63.7297
15.272	63.8064
15.356	63.8768
15.44	64.0925
15.524	64.3033
15.608	64.3386
15.692	64.2181
15.776	64.0514
15.86	63.9908
15.944	64.0633
16.028	64.1008
16.112	64.0129
16.196	63.9129
16.28	63.9055
16.364	63.9629
16.448	64.0528
16.532	64.1719
16.616	64.2569
16.7	64.2458
16.784	64.2166
16.868	64.2887
16.952	64.3896
17.036	64.4011
17.12	64.4284
17.204	64.6244
17.288	64.8796
17.372	64.9242
17.456	64.6255
17.54	64.1264
17.624	63.8063
17.708	63.9541
17.792	64.4251
17.876	64.8228
17.96	64.9864
18.044	65.0302
18.128	65.0065
18.212	64.8816
18.296	64.7894
18.38	64.9407
18.464	65.2293
18.548	65.236
18.632	64.7099
18.716	63.8755
18.8	63.1962
18.884	62.9674
18.968	63.1491
19.052	63.4454
19.136	63.5758
19.22	63.5102
19.304	63.4755
19.388	63.6806
19.472	64.058
19.556	64.2788
19.64	64.0758
19.724	63.5591
19.808	63.1425
19.892	63.1601
19.976	63.5915
20.06	64.1349
20.144	64.4867
20.228	64.5141
20.312	64.254
20.396	63.8391
20.48	63.4376
20.564	63.1911
20.648	63.1401
20.732	63.2001
20.816	63.2411
20.9	63.2104
20.984	63.1708
21.068	63.2153
21.152	63.3622
21.236	63.5437
21.32	63.6874
21.404	63.8023
21.488	63.9528
21.572	64.1529
21.656	64.3074
21.74	64.2775
21.824	64.0205
21.908	63.6804
21.992	63.501
22.076	63.6406
22.16	64.0389
22.244	64.4445
22.328	64.6034
22.412	64.4361
22.496	64.1133
22.58	63.9222
22.664	64.085
22.748	64.6173
22.832	65.3354
22.916	65.9734
23	66.3534
23.084	66.4485
23.168	66.3753
23.252	66.2846
23.336	66.2551
23.42	66.2129
23.504	65.9964
23.588	65.4825
23.672	64.6925
23.756	63.8232
23.84	63.1521
23.924	62.9089
24.008	63.1747
24.092	63.8603
24.176	64.7519
24.26	65.5597
24.344	65.9849
24.428	65.8366
24.512	65.0363
24.596	63.6627
24.68	61.9856
24.764	60.4321
24.848	59.3866
24.932	59.1149
25.016	59.6399
25.1	60.743
25.184	62.0014
25.268	62.949
25.352	63.2288
25.436	62.6952
25.52	61.517
25.604	60.1172
25.688	58.8393
25.772	58.0194
25.856	58.0152
25.94	59.5275
26.024	62.6535
26.108	66.1385
26.192	68.8021
26.276	70.1961
26.36	71.7214
26.444	73.7893
26.528	75.3421
26.612	72.3339
26.696	62.6793
26.78	48.9692
26.864	38.9776
26.948	40.3669
27.028	51.1831