File: Bakgrunnsmateriale/MATLAB/FTIR/ftir_data/subAa/Mapping_121/BZ1503107-1_t03_cm-1.asc
PE IR       SPECTRUM    SPECTRUM    ASCII       PEDS        1.60
  -1
BZ6B22~1.ASC
17/04/07
13:29:44.00
17/04/07
13:29:44.00
tln
$BZ1503107-1_t0003$<tbV0>[7.8,-13.0,8.0,0.0,27,1,0]
370
64

2002,4.07
MIRTGS : RIGHTBACK : INTERNAL 2
MIR : ON : INTERNAL 2
OPTKBR

0.200000
8
8.000000
FILLER
RATIO
SPECTRUM
UNLOCKED 256

DOUBLE
64
COMBINED
1
0
0

1.000000
RATIO

1
0
TRUE
51149
0
LEFT NOT FITTED RIGHT NOT FITTED 0
NONE
NONE
15600
12
4.427000
51148
TRUE
1 0 8 72 0 0 0 0

15798

#HDR
-1
-1
#GR
CM-1
%T
2.38419e-05
0.0
5000
-1.000000
4631
8
101.089
29.3866
#DATA
5000	64.8863
4984	64.5957
4968	64.5313
4952	64.1214
4936	65.064
4920	64.5233
4904	63.8613
4888	64.1517
4872	68.1323
4856	65.4213
4840	65.8336
4824	65.0887
4808	64.7104
4792	65.3724
4776	64.6719
4760	65.5664
4744	64.5156
4728	64.8379
4712	64.6789
4696	64.4742
4680	65.1303
4664	64.9979
4648	64.9761
4632	64.6945
4616	64.8441
4600	64.7145
4584	65.2429
4568	64.6293
4552	64.3011
4536	64.8636
4520	65.1556
4504	65.7107
4488	66.9543
4472	64.5459
4456	61.2737
4440	65.7064
4424	64.738
4408	65.2102
4392	65.5035
4376	64.9851
4360	64.5528
4344	65.315
4328	64.7797
4312	65.0952
4296	65.011
4280	65.0967
4264	65.1467
4248	65.0472
4232	65.0753
4216	64.9389
4200	64.9471
4184	64.8725
4168	65.2252
4152	65.1387
4136	65.0679
4120	65.1302
4104	65.3375
4088	65.3741
4072	65.224
4056	65.6259
4040	64.9732
4024	65.2789
4008	64.8392
3992	65.0426
3976	65.007
3960	64.7726
3944	65.2575
3928	64.8119
3912	65.0887
3896	65.2294
3880	65.0326
3864	64.9272
3848	65.2689
3832	65.16
3816	65.1668
3800	65.0634
3784	65.1182
3768	65.1507
3752	65.2807
3736	65.187
3720	65.1792
3704	65.1269
3688	65.3726
3672	65.4403
3656	65.0676
3640	65.1424
3624	65.3383
3608	65.1241
3592	65.1868
3576	65.161
3560	64.9684
3544	65.1617
3528	65.04
3512	64.9507
3496	64.96
3480	65.1282
3464	64.9544
3448	65.0476
3432	65.1189
3416	64.9638
3400	65.0482
3384	65.0589
3368	65.0337
3352	64.8865
3336	65.1779
3320	65.1624
3304	65.0956
3288	65.0591
3272	65.0505
3256	65.0004
3240	64.9247
3224	64.9503
3208	65.1662
3192	65.1328
3176	65.0214
3160	65.1488
3144	65.086
3128	64.9937
3112	64.8608
3096	65.151
3080	65.0177
3064	65.1907
3048	65.0166
3032	65.0249
3016	65.212
3000	65.2199
2984	65.0319
2968	64.9651
2952	64.9121
2936	65.0146
2920	64.9599
2904	65.0008
2888	64.9733
2872	65.0818
2856	65.0918
2840	65.0198
2824	64.9172
2808	65.0425
2792	65.0047
2776	65.0297
2760	65.0269
2744	65.0684
2728	65.0369
2712	64.9783
2696	65.1098
2680	64.9631
2664	65.0634
2648	64.9214
2632	65.0278
2616	64.9449
2600	65.0335
2584	65.0744
2568	65.144
2552	65.1248
2536	65.0916
2520	65.0387
2504	65.0379
2488	64.995
2472	64.8987
2456	64.8819
2440	65.0067
2424	64.9042
2408	64.9668
2392	64.9796
2376	64.9315
2360	64.9266
2344	64.8851
2328	64.9721
2312	64.9232
2296	64.9331
2280	64.8422
2264	64.9248
2248	64.9401
2232	64.7782
2216	64.9534
2200	64.9245
2184	64.8015
2168	65.0326
2152	64.7659
2136	64.7629
2120	64.9252
2104	64.7777
2088	64.7955
2072	64.7689
2056	64.8651
2040	64.8411
2024	64.8816
2008	64.8937
1992	64.8287
1976	64.8068
1960	64.8912
1944	64.9013
1928	64.6806
1912	64.8968
1896	64.7609
1880	64.829
1864	64.7875
1848	64.8131
1832	64.811
1816	64.8237
1800	64.8541
1784	64.7726
1768	64.6955
1752	64.7614
1736	64.4865
1720	64.6178
1704	64.7154
1688	64.6246
1672	64.7014
1656	64.7295
1640	64.6842
1624	64.625
1608	64.6728
1592	64.5518
1576	64.6862
1560	64.6219
1544	64.5977
1528	64.5087
1512	64.6005
1496	64.5725
1480	64.6313
1464	64.5869
1448	64.5862
1432	64.5945
1416	64.6119
1400	64.4801
1384	64.416
1368	64.4356
1352	64.4962
1336	64.3843
1320	64.3919
1304	64.3317
1288	64.4246
1272	64.2951
1256	64.3887
1240	64.2861
1224	64.373
1208	64.343
1192	64.4049
1176	64.2324
1160	64.1641
1144	64.2336
1128	64.4247
1112	64.2136
1096	64.3433
1080	64.3215
1064	64.0894
1048	64.1086
1032	64.3177
1016	64.1794
1000	64.2231
984	 64.2482
968	 64.2776
952	 64.3172
936	 64.3511
920	 64.2115
904	 64.2493
888	 64.1594
872	 64.1585
856	 64.1802
840	 64.2421
824	 64.201
808	 64.0823
792	 64.2359
776	 64.182
760	 64.0787
744	 64.1061
728	 64.0462
712	 63.9003
696	 63.6653
680	 63.9028
664	 64.0692
648	 63.9222
632	 63.852
616	 64.0302
600	 63.7529
584	 63.3331
568	 63.6929
552	 64.2326
536	 64.635
520	 64.4191
504	 63.7431
488	 64.1286
472	 64.8756
456	 64.0765
440	 62.9097
424	 63.072
408	 63.675
392	 55.7682
376	 43.233
370	 101.089