File: Bakgrunnsmateriale/MATLAB/FTIR/ftir_data/subAa/Mapping_121/BZ1503107-1_t72_cm-1.asc
PE IR       SPECTRUM    SPECTRUM    ASCII       PEDS        1.60
  -1
BZ6AA6~1.ASC
17/04/07
19:11:09.00
17/04/07
19:11:09.00
tln
$BZ1503107-1_t0072$<tbV0>[0.0,2.6,8.0,0.0,27,1,0]
370
64

2002,4.07
MIRTGS : RIGHTBACK : INTERNAL 2
MIR : ON : INTERNAL 2
OPTKBR

0.200000
8
8.000000
FILLER
RATIO
SPECTRUM
UNLOCKED 256

DOUBLE
64
COMBINED
1
0
0

1.000000
RATIO

1
0
TRUE
51149
0
LEFT NOT FITTED RIGHT NOT FITTED 0
NONE
NONE
15600
12
4.427000
51148
TRUE
1 0 8 72 0 0 0 0

15798

#HDR
-1
-1
#GR
CM-1
%T
2.38419e-05
0.0
5000
-1.000000
4631
8
73.2925
51.1179
#DATA
5000	64.8177
4984	65.005
4968	64.4866
4952	64.7019
4936	64.7102
4920	64.6183
4904	64.3576
4888	65.0046
4872	64.968
4856	64.644
4840	64.2039
4824	64.4838
4808	64.5703
4792	64.3691
4776	64.0927
4760	64.5534
4744	64.2466
4728	64.5794
4712	64.6631
4696	64.5545
4680	64.268
4664	64.5318
4648	64.3275
4632	64.543
4616	64.6871
4600	64.8797
4584	64.7772
4568	64.9099
4552	64.676
4536	64.813
4520	65.079
4504	65.2399
4488	65.6385
4472	64.4741
4456	64.7512
4440	65.4267
4424	61.679
4408	59.1789
4392	65.1437
4376	65.1532
4360	65.2927
4344	65.0932
4328	64.9016
4312	65.1165
4296	64.8238
4280	64.6835
4264	64.7889
4248	64.8981
4232	64.7874
4216	64.7474
4200	64.6342
4184	64.6204
4168	65.0085
4152	64.7209
4136	64.2434
4120	65.1084
4104	64.7725
4088	64.8106
4072	64.953
4056	64.8616
4040	64.712
4024	64.7611
4008	64.9991
3992	64.6668
3976	65.0778
3960	64.7584
3944	64.8968
3928	64.5153
3912	64.7835
3896	65.0321
3880	64.7918
3864	64.9972
3848	64.7763
3832	64.7439
3816	64.7858
3800	64.8273
3784	64.898
3768	64.8897
3752	64.7352
3736	65.0467
3720	64.6551
3704	64.9398
3688	64.95
3672	64.8659
3656	64.8342
3640	64.9371
3624	64.8197
3608	64.9834
3592	65.0503
3576	64.8444
3560	64.8239
3544	64.908
3528	64.9705
3512	65.0561
3496	64.8449
3480	64.7828
3464	65.0122
3448	64.9401
3432	64.784
3416	64.7583
3400	64.8541
3384	64.8173
3368	64.8167
3352	64.8302
3336	64.9173
3320	64.732
3304	64.692
3288	64.7224
3272	64.6943
3256	64.7149
3240	64.8534
3224	64.7835
3208	64.784
3192	64.8796
3176	64.7256
3160	64.926
3144	64.8088
3128	64.5948
3112	64.9876
3096	64.6589
3080	64.7125
3064	64.8946
3048	64.7327
3032	64.8417
3016	64.6973
3000	64.6869
2984	64.7174
2968	64.632
2952	64.5796
2936	64.565
2920	64.7578
2904	64.6881
2888	64.7123
2872	64.6581
2856	64.7336
2840	64.4778
2824	64.7358
2808	64.7198
2792	64.6339
2776	64.6686
2760	64.8156
2744	64.6692
2728	64.7025
2712	64.7452
2696	64.7192
2680	64.6904
2664	64.5939
2648	64.623
2632	64.6506
2616	64.6682
2600	64.5528
2584	64.5238
2568	64.5181
2552	64.5825
2536	64.6149
2520	64.6317
2504	64.5118
2488	64.477
2472	64.6458
2456	64.6764
2440	64.5838
2424	64.6214
2408	64.5231
2392	64.3802
2376	64.479
2360	64.4638
2344	64.4967
2328	64.4259
2312	64.56
2296	64.2998
2280	64.5034
2264	64.4133
2248	64.3485
2232	64.3787
2216	64.3575
2200	64.2678
2184	64.3137
2168	64.2281
2152	64.2879
2136	64.3011
2120	64.2341
2104	64.2948
2088	64.2455
2072	64.349
2056	64.2035
2040	64.2739
2024	64.1658
2008	64.0966
1992	64.108
1976	64.1617
1960	64.2798
1944	64.0808
1928	64.2277
1912	64.1999
1896	64.0641
1880	64.1388
1864	64.1255
1848	64.1043
1832	64.0093
1816	64.0619
1800	64.1136
1784	63.9828
1768	64.1132
1752	63.8632
1736	63.8191
1720	63.8842
1704	63.8631
1688	63.8608
1672	63.7415
1656	63.8028
1640	63.7
1624	63.992
1608	63.7621
1592	63.7163
1576	63.7617
1560	63.6834
1544	63.7723
1528	63.7406
1512	63.8227
1496	63.6674
1480	63.6901
1464	63.5622
1448	63.6372
1432	63.6729
1416	63.6127
1400	63.5566
1384	63.5241
1368	63.5627
1352	63.5267
1336	63.6124
1320	63.6224
1304	63.5523
1288	63.5236
1272	63.4823
1256	63.3859
1240	63.4068
1224	63.4785
1208	63.4401
1192	63.3203
1176	63.328
1160	63.1974
1144	63.305
1128	63.3192
1112	63.2426
1096	63.1334
1080	63.1832
1064	63.2314
1048	63.1052
1032	63.2392
1016	63.108
1000	63.113
984	 63.3663
968	 63.1211
952	 63.0695
936	 63.2594
920	 63.0661
904	 63.0583
888	 63.0385
872	 63.3604
856	 63.1715
840	 63.2695
824	 63.374
808	 63.3579
792	 63.0467
776	 63.0817
760	 62.5044
744	 62.3537
728	 62.638
712	 62.1975
696	 63.1587
680	 63.6106
664	 62.4872
648	 62.2576
632	 62.0555
616	 62.8109
600	 62.2916
584	 62.0982
568	 62.9354
552	 62.5832
536	 62.4081
520	 62.7455
504	 62.0363
488	 62.5832
472	 61.6103
456	 62.7183
440	 63.1912
424	 63.2388
408	 60.6057
392	 58.4764
376	 59.3188
370	 55.2502