File: Bakgrunnsmateriale/MATLAB/FTIR/ftir_data/subAa/Mapping_121/BZ1503107-1_t02_cm-1.asc
PE IR       SPECTRUM    SPECTRUM    ASCII       PEDS        1.60
  -1
BZ6A22~1.ASC
17/04/07
13:25:07.00
17/04/07
13:25:07.00
tln
$BZ1503107-1_t0002$<tbV0>[10.4,-13.0,8.0,0.0,27,1,0]
370
64

2002,4.07
MIRTGS : RIGHTBACK : INTERNAL 2
MIR : ON : INTERNAL 2
OPTKBR

0.200000
8
8.000000
FILLER
RATIO
SPECTRUM
UNLOCKED 256

DOUBLE
64
COMBINED
1
0
0

1.000000
RATIO

1
0
TRUE
51149
0
LEFT NOT FITTED RIGHT NOT FITTED 0
NONE
NONE
15600
12
4.427000
51148
TRUE
1 0 8 72 0 0 0 0

15798

#HDR
-1
-1
#GR
CM-1
%T
2.38419e-05
0.0
5000
-1.000000
4631
8
69.7163
7.017636
#DATA
5000	65.1864
4984	64.7685
4968	64.5522
4952	64.6833
4936	65.4109
4920	64.3627
4904	64.2134
4888	64.2829
4872	62.0616
4856	65.3312
4840	63.9736
4824	64.5081
4808	64.2489
4792	65.2732
4776	64.3833
4760	64.9385
4744	64.7777
4728	64.569
4712	64.7777
4696	64.7253
4680	65.1799
4664	64.9887
4648	64.8395
4632	64.6526
4616	64.4844
4600	65.3534
4584	65.1367
4568	64.8419
4552	64.4639
4536	64.3836
4520	64.602
4504	65.0023
4488	67.7371
4472	67.5359
4456	52.4538
4440	65.8081
4424	65.4894
4408	65.2101
4392	65.0964
4376	64.6845
4360	65.2382
4344	65.1063
4328	64.9009
4312	65.1355
4296	64.8319
4280	64.8921
4264	64.7276
4248	65.3118
4232	65.2446
4216	65.1108
4200	65.0149
4184	65.044
4168	64.8684
4152	64.8961
4136	65.1125
4120	65.1962
4104	65.5013
4088	65.2831
4072	65.416
4056	65.0119
4040	65.0464
4024	65.1613
4008	65.3266
3992	65.2021
3976	65.0157
3960	64.919
3944	65.3468
3928	65.1061
3912	65.0939
3896	65.2083
3880	65.2468
3864	65.0369
3848	65.1265
3832	65.2449
3816	65.506
3800	65.162
3784	65.2569
3768	65.0827
3752	65.5368
3736	65.3415
3720	65.1975
3704	65.1962
3688	65.3446
3672	65.4099
3656	65.1834
3640	65.3383
3624	65.2426
3608	65.2229
3592	65.1566
3576	65.2089
3560	65.0989
3544	65.3258
3528	65.0565
3512	64.9434
3496	65.0836
3480	65.051
3464	65.0739
3448	64.9421
3432	65.3023
3416	65.2374
3400	65.1712
3384	65.1778
3368	65.2088
3352	64.9629
3336	65.129
3320	65.2839
3304	65.0628
3288	65.1822
3272	65.0523
3256	65.0678
3240	65.0749
3224	65.2565
3208	65.2247
3192	65.1912
3176	65.165
3160	65.3603
3144	65.1473
3128	65.1703
3112	65.0354
3096	64.9813
3080	65.1742
3064	65.0164
3048	65.2197
3032	65.133
3016	65.2869
3000	65.0256
2984	65.0968
2968	65.0444
2952	65.0824
2936	65.0597
2920	65.1314
2904	65.0006
2888	65.082
2872	65.141
2856	65.0562
2840	65.1374
2824	65.1191
2808	65.142
2792	65.063
2776	65.1454
2760	65.0505
2744	65.1257
2728	65.1095
2712	65.0345
2696	65.0994
2680	65.0493
2664	65.1616
2648	64.9147
2632	65.006
2616	64.9122
2600	65.0889
2584	65.0392
2568	65.0706
2552	65.156
2536	65.049
2520	64.9921
2504	64.9384
2488	64.9694
2472	65.0271
2456	64.973
2440	65.1061
2424	64.9694
2408	64.8938
2392	64.9271
2376	64.9979
2360	65.1209
2344	65.0312
2328	64.9185
2312	65.0659
2296	64.9319
2280	64.9513
2264	64.9497
2248	65.0729
2232	64.9252
2216	65.0048
2200	65.0508
2184	64.8387
2168	65.009
2152	64.9576
2136	64.8641
2120	65.0047
2104	64.9365
2088	64.9699
2072	64.9105
2056	64.8441
2040	64.9307
2024	64.9181
2008	65.004
1992	64.8288
1976	64.8834
1960	64.9716
1944	64.8487
1928	64.8205
1912	64.9031
1896	64.8778
1880	64.748
1864	64.9361
1848	64.8104
1832	64.8878
1816	64.8596
1800	64.7231
1784	64.7745
1768	64.6895
1752	64.7878
1736	64.6079
1720	64.6227
1704	64.7022
1688	64.7916
1672	64.8051
1656	64.6903
1640	64.7049
1624	64.702
1608	64.6912
1592	64.6872
1576	64.8386
1560	64.8273
1544	64.7451
1528	64.7065
1512	64.683
1496	64.6568
1480	64.6471
1464	64.5436
1448	64.5243
1432	64.7063
1416	64.619
1400	64.4881
1384	64.4753
1368	64.4881
1352	64.5349
1336	64.4802
1320	64.426
1304	64.3907
1288	64.4544
1272	64.314
1256	64.3502
1240	64.2433
1224	64.2792
1208	64.4732
1192	64.4244
1176	64.1603
1160	64.2968
1144	64.2716
1128	64.3925
1112	64.4456
1096	64.4219
1080	64.5256
1064	64.1487
1048	64.1465
1032	64.1754
1016	64.2156
1000	64.2773
984	 64.1506
968	 64.1776
952	 64.2568
936	 64.3142
920	 64.3478
904	 64.3048
888	 64.2135
872	 64.2038
856	 64.2225
840	 64.2692
824	 64.0461
808	 64.4262
792	 64.2829
776	 64.2956
760	 64.0531
744	 64.0095
728	 64.3191
712	 64.2231
696	 63.89
680	 64.0965
664	 64.328
648	 64.1472
632	 64.1394
616	 64.13
600	 63.8254
584	 64.3472
568	 63.7918
552	 64.2712
536	 64.8369
520	 64.4262
504	 64.3631
488	 63.948
472	 65.2027
456	 64.0682
440	 63.4499
424	 59.5501
408	 63.6877
392	 48.1148
376	 7.825207
370	 47.5534