File: Bakgrunnsmateriale/MATLAB/FTIR/ftir_data/subAa/Mapping_121/BZ1503107-1_t80.asc
PE IR       SPECTRUM    SPECTRUM    ASCII       PEDS        1.60
  -1
BZ2945~1.ASC
17/04/07
19:48:42.00
17/04/07
19:49:09.00
tln
$BZ1503107-1_t0080$<tbV0>[7.8,5.2,8.0,0.0,27,1,0]
27.028
64

2002,4.07
MIRTGS : RIGHTBACK : INTERNAL 2
MIR : ON : INTERNAL 2
OPTKBR

0.200000
8
8.000000
FILLER
RATIO
SPECTRUM
UNLOCKED 256

DOUBLE
64
COMBINED
1
0
0

0.002000
RATIO

1
0
TRUE
51149
0
LEFT NOT FITTED RIGHT NOT FITTED 0
NONE
NONE
15600
12
4.427000
51148
TRUE
1 0 8 72 0 0 0 0

15798

#HDR
-1
-1
#GR
µM
%T
2.38419e-05
0.0
2.000000
0.002000
12515
8
77.6363
48.5214
#DATA
2.000000	 64.6998
2.084000	 64.5115
2.168000	 65.0561
2.252000	 55.0984
2.336000	 64.9519
2.420000	 64.8926
2.504000	 64.8708
2.588000	 65.0285
2.672000	 65.1487
2.756000	 65.083
2.840000	 65.0802
2.924000	 64.9484
3.008000	 64.7077
3.092000	 64.8319
3.176000	 64.8592
3.260000	 64.8369
3.344000	 64.8589
3.428000	 64.8342
3.512000	 64.7399
3.596000	 64.883
3.680000	 64.8278
3.764000	 64.6947
3.848000	 64.8318
3.932000	 64.7275
4.016000	 64.6593
4.100000	 64.5433
4.184000	 64.5497
4.268000	 64.5191
4.352000	 64.4894
4.436000	 64.4819
4.520000	 64.5175
4.604000	 64.4533
4.688000	 64.4586
4.772000	 64.3607
4.856000	 64.3466
4.940000	 64.3872
5.024000	 64.2909
5.108000	 64.3788
5.192000	 64.3202
5.276000	 64.1509
5.359999	 64.2095
5.444000	 64.3689
5.528000	 64.218
5.612000	 64.1262
5.696000	 64.1014
5.780000	 63.881
5.864000	 63.95
5.948000	 63.9586
6.032000	 63.9832
6.116000	 63.9398
6.200000	 64.0629
6.284000	 63.9276
6.368000	 63.9424
6.452000	 63.8363
6.536000	 63.8178
6.620000	 63.937
6.704000	 63.8717
6.788000	 63.6664
6.872000	 63.7789
6.956000	 63.7993
7.040000	 63.8109
7.124000	 63.6617
7.208000	 63.7293
7.292000	 63.7065
7.376000	 63.5929
7.460000	 63.6982
7.544000	 63.6653
7.628000	 63.5876
7.712000	 63.6635
7.796000	 63.4115
7.880000	 63.3018
7.964000	 63.5052
8.048000	 63.5287
8.132000	 63.4726
8.216000	 63.4176
8.300000	 63.479
8.384000	 63.3423
8.468000	 63.4622
8.552000	 63.4678
8.635999	 63.3243
8.719999	 63.4441
8.804000	 63.378
8.888000	 63.3584
8.972000	 63.5006
9.056000	 63.3067
9.140000	 63.2054
9.224000	 63.2456
9.308000	 63.1441
9.391999	 63.4278
9.475999	 63.4378
9.560000	 63.3231
9.644000	 63.1208
9.728000	 63.0264
9.812000	 63.2318
9.896000	 63.3899
9.980000	 63.3956
10.064	63.2693
10.148	63.2361
10.232	63.2891
10.316	63.238
10.4	63.3769
10.484	63.2651
10.568	63.1576
10.652	63.2632
10.736	63.1371
10.82	63.377
10.904	63.1907
10.988	63.2247
11.072	63.3294
11.156	63.2064
11.24	63.4369
11.324	63.4369
11.408	63.3299
11.492	63.3573
11.576	63.2146
11.66	63.1533
11.744	63.0848
11.828	63.1957
11.912	63.2774
11.996	63.233
12.08	63.2335
12.164	63.2882
12.248	63.174
12.332	63.0586
12.416	63.0238
12.5	63.0736
12.584	63.0029
12.668	63.0011
12.752	63.1262
12.836	63.2753
12.92	63.1662
13.004	63.0388
13.088	62.9925
13.172	62.9111
13.256	62.9334
13.34	62.9997
13.424	62.9688
13.508	62.8899
13.592	62.7687
13.676	62.6923
13.76	62.6783
13.844	62.7144
13.928	62.7532
14.012	62.7751
14.096	62.6656
14.18	62.437
14.264	62.3717
14.348	62.4477
14.432	62.7003
14.516	63.0493
14.6	63.0875
14.684	63.0225
14.768	63.0615
14.852	62.9558
14.936	62.7366
15.02	62.6387
15.104	62.7781
15.188	62.8513
15.272	62.6293
15.356	62.4248
15.44	62.3933
15.524	62.2684
15.608	62.0322
15.692	62.0454
15.776	62.3638
15.86	62.5769
15.944	62.3923
16.028	62.034
16.112	62.0339
16.196	62.6239
16.28	63.3628
16.364	63.6456
16.448	63.4351
16.532	63.1277
16.616	62.8242
16.7	62.36
16.784	61.9158
16.868	61.8215
16.952	61.9758
17.036	62.0927
17.12	62.1808
17.204	62.3334
17.288	62.469
17.372	62.5355
17.456	62.6527
17.54	62.9012
17.624	63.1713
17.708	63.3359
17.792	63.423
17.876	63.5051
17.96	63.5355
18.044	63.4137
18.128	63.1667
18.212	62.9598
18.296	62.8862
18.38	62.808
18.464	62.5189
18.548	62.0391
18.632	61.651
18.716	61.605
18.8	61.8732
18.884	62.2132
18.968	62.4228
19.052	62.4927
19.136	62.5309
19.22	62.6301
19.304	62.8005
19.388	62.9588
19.472	62.9476
19.556	62.6567
19.64	62.1475
19.724	61.6225
19.808	61.29
19.892	61.2726
19.976	61.5937
20.06	62.1846
20.144	62.8869
20.228	63.5013
20.312	63.8719
20.396	63.9556
20.48	63.8035
20.564	63.5004
20.648	63.1316
20.732	62.7928
20.816	62.5793
20.9	62.5358
20.984	62.6074
21.068	62.6672
21.152	62.6203
21.236	62.4829
21.32	62.3665
21.404	62.3726
21.488	62.5041
21.572	62.6645
21.656	62.7458
21.74	62.71
21.824	62.6105
21.908	62.5454
21.992	62.5749
22.076	62.6784
22.16	62.7673
22.244	62.726
22.328	62.4887
22.412	62.0797
22.496	61.6179
22.58	61.2496
22.664	61.0779
22.748	61.1072
22.832	61.2549
22.916	61.3999
23	61.4609
23.084	61.4334
23.168	61.3938
23.252	61.4447
23.336	61.6589
23.42	62.029
23.504	62.4697
23.588	62.8515
23.672	63.0609
23.756	63.0434
23.84	62.8288
23.924	62.5094
24.008	62.1824
24.092	61.9023
24.176	61.666
24.26	61.4299
24.344	61.1362
24.428	60.7561
24.512	60.3197
24.596	59.8944
24.68	59.5573
24.764	59.3594
24.848	59.3202
24.932	59.4016
25.016	59.5135
25.1	59.5752
25.184	59.4726
25.268	59.101
25.352	58.4143
25.436	57.4906
25.52	56.5097
25.604	55.6616
25.688	55.1359
25.772	55.0181
25.856	55.2295
25.94	55.5054
26.024	55.4927
26.108	54.9354
26.192	53.7373
26.276	52.05
26.36	50.3068
26.444	48.9947
26.528	48.5231
26.612	49.1403
26.696	50.9915
26.78	54.1149
26.864	58.4136
26.948	63.5811
27.028	68.7618