File: Bakgrunnsmateriale/MATLAB/FTIR/ftir_data/subAa/Mapping_121/BZ1503107-1_t120_cm-1.asc
PE IR       SPECTRUM    SPECTRUM    ASCII       PEDS        1.60
  -1
BZBC70~1.ASC
17/04/07
23:06:50.00
17/04/07
23:06:50.00
tln
$BZ1503107-1_t0120$<tbV0>[-10.4,13.0,8.0,0.0,27,1,0]
370
64

2002,4.07
MIRTGS : RIGHTBACK : INTERNAL 2
MIR : ON : INTERNAL 2
OPTKBR

0.200000
8
8.000000
FILLER
RATIO
SPECTRUM
UNLOCKED 256

DOUBLE
64
COMBINED
1
0
0

1.000000
RATIO

1
0
TRUE
51149
0
LEFT NOT FITTED RIGHT NOT FITTED 0
NONE
NONE
15600
12
4.427000
51148
TRUE
1 0 8 72 0 0 0 0

15798

#HDR
-1
-1
#GR
CM-1
%T
2.38419e-05
0.0
5000
-1.000000
4631
8
70.4605
50.7792
#DATA
5000	66.8204
4984	66.4148
4968	65.6012
4952	65.5007
4936	65.402
4920	65.032
4904	65.0823
4888	64.8598
4872	64.9313
4856	64.7724
4840	65.1044
4824	64.4829
4808	64.4893
4792	64.6614
4776	64.2317
4760	64.9414
4744	65.0643
4728	64.9075
4712	64.6777
4696	64.7637
4680	64.4765
4664	64.8577
4648	65.2212
4632	65.1217
4616	65.1674
4600	64.8506
4584	65.3738
4568	64.9987
4552	65.2665
4536	65.327
4520	65.2534
4504	65.0937
4488	64.5747
4472	65.6387
4456	67.5432
4440	56.6138
4424	59.7807
4408	66.4378
4392	66.2244
4376	65.3142
4360	65.2614
4344	65.3486
4328	65.3019
4312	65.062
4296	65.3972
4280	65.274
4264	65.109
4248	64.8918
4232	64.7587
4216	65.0767
4200	65.0388
4184	64.572
4168	64.7903
4152	64.9406
4136	64.6952
4120	64.6641
4104	64.7554
4088	64.6794
4072	65.0061
4056	64.8869
4040	64.7432
4024	64.5879
4008	64.9542
3992	64.691
3976	64.9591
3960	64.8371
3944	64.7878
3928	64.9356
3912	64.9067
3896	64.7556
3880	65.2199
3864	65.011
3848	64.7426
3832	65.0912
3816	64.9415
3800	65.3435
3784	64.9156
3768	64.9882
3752	65.0983
3736	64.9096
3720	64.9859
3704	64.9037
3688	65.1274
3672	65.0778
3656	65.0038
3640	64.8117
3624	65.0118
3608	64.8619
3592	64.8893
3576	64.8191
3560	64.9086
3544	64.8862
3528	64.8241
3512	64.8413
3496	64.7855
3480	64.9268
3464	64.9533
3448	64.9369
3432	65.0822
3416	64.9517
3400	64.8507
3384	64.9367
3368	64.8745
3352	65.038
3336	64.8858
3320	64.8644
3304	64.6317
3288	64.8125
3272	64.9544
3256	64.9063
3240	64.7322
3224	64.8376
3208	64.8944
3192	64.9987
3176	64.8501
3160	64.8471
3144	64.7879
3128	64.8498
3112	64.9075
3096	64.7415
3080	64.9165
3064	64.7078
3048	64.6918
3032	64.7775
3016	64.7418
3000	64.7424
2984	64.58
2968	64.6628
2952	64.6593
2936	64.7425
2920	64.5033
2904	64.3781
2888	64.6194
2872	64.5492
2856	64.6478
2840	64.6933
2824	64.5035
2808	64.5349
2792	64.4826
2776	64.5706
2760	64.5728
2744	64.5664
2728	64.623
2712	64.6817
2696	64.5696
2680	64.4985
2664	64.5022
2648	64.4317
2632	64.4724
2616	64.4726
2600	64.5588
2584	64.5563
2568	64.6032
2552	64.4427
2536	64.5449
2520	64.5099
2504	64.448
2488	64.3329
2472	64.5275
2456	64.4547
2440	64.4841
2424	64.2745
2408	64.2885
2392	64.4229
2376	64.2344
2360	64.4012
2344	64.3355
2328	64.2367
2312	64.222
2296	64.365
2280	64.3385
2264	64.2742
2248	64.1772
2232	64.2428
2216	64.1762
2200	64.25
2184	64.1739
2168	64.1745
2152	64.1886
2136	64.2076
2120	64.2092
2104	64.0791
2088	64.0658
2072	64.1392
2056	64.0741
2040	63.947
2024	63.9283
2008	63.9997
1992	63.935
1976	63.902
1960	63.8422
1944	63.8303
1928	63.8219
1912	63.7951
1896	63.8
1880	63.8368
1864	63.7859
1848	63.7604
1832	63.7459
1816	63.7828
1800	63.6531
1784	63.592
1768	63.6435
1752	63.612
1736	63.3179
1720	63.4786
1704	63.5673
1688	63.521
1672	63.4733
1656	63.5098
1640	63.4692
1624	63.3913
1608	63.2076
1592	63.3976
1576	63.2907
1560	63.3622
1544	63.1957
1528	63.347
1512	63.3554
1496	63.3805
1480	63.2284
1464	63.2043
1448	63.1474
1432	63.2463
1416	63.1363
1400	63.1189
1384	63.0176
1368	63.0491
1352	63.1231
1336	63.111
1320	63.0215
1304	62.9879
1288	62.8539
1272	62.9846
1256	62.8865
1240	62.8036
1224	62.877
1208	62.8458
1192	62.8436
1176	62.7307
1160	62.7364
1144	62.6082
1128	62.7069
1112	62.6972
1096	62.4888
1080	62.5461
1064	62.6623
1048	62.6115
1032	62.4613
1016	62.321
1000	62.5347
984	 62.5622
968	 62.6306
952	 62.5462
936	 62.503
920	 62.2766
904	 62.4607
888	 62.5021
872	 62.3983
856	 62.4639
840	 62.292
824	 62.3244
808	 62.2983
792	 62.4038
776	 62.0803
760	 62.0375
744	 62.0712
728	 61.8036
712	 61.8735
696	 61.7886
680	 61.5445
664	 61.2859
648	 61.7376
632	 61.5132
616	 61.4844
600	 61.3469
584	 59.864
568	 61.7426
552	 61.2553
536	 62.8032
520	 60.8891
504	 60.6143
488	 62.3205
472	 60.6901
456	 60.1989
440	 59.6127
424	 61.8321
408	 60.1852
392	 64.4085
376	 51.4639
370	 64.9462