File: Bakgrunnsmateriale/MATLAB/FTIR/ftir_data/subAa/Mapping_121/BZ1503107-1_t45.asc
PE IR       SPECTRUM    SPECTRUM    ASCII       PEDS        1.60
  -1
BZ2D5D~1.ASC
17/04/07
16:59:02.00
17/04/07
16:59:29.00
tln
$BZ1503107-1_t0045$<tbV0>[13.0,-2.6,8.0,0.0,27,1,0]
27.028
64

2002,4.07
MIRTGS : RIGHTBACK : INTERNAL 2
MIR : ON : INTERNAL 2
OPTKBR

0.200000
8
8.000000
FILLER
RATIO
SPECTRUM
UNLOCKED 256

DOUBLE
64
COMBINED
1
0
0

0.002000
RATIO

1
0
TRUE
51149
0
LEFT NOT FITTED RIGHT NOT FITTED 0
NONE
NONE
15600
12
4.427000
51148
TRUE
1 0 8 72 0 0 0 0

15798

#HDR
-1
-1
#GR
µM
%T
2.38419e-05
0.0
2.000000
0.002000
12515
8
75.8533
52.8803
#DATA
2.000000	 65.2387
2.084000	 65.0532
2.168000	 64.7741
2.252000	 62.675
2.336000	 64.5513
2.420000	 65.0041
2.504000	 65.1775
2.588000	 64.9133
2.672000	 65.1768
2.756000	 65.1581
2.840000	 65.1779
2.924000	 65.1764
3.008000	 65.0527
3.092000	 65.136
3.176000	 64.9864
3.260000	 64.9664
3.344000	 64.9015
3.428000	 64.8127
3.512000	 64.9489
3.596000	 65.0143
3.680000	 65.0722
3.764000	 64.8616
3.848000	 64.98
3.932000	 64.9111
4.016000	 64.8958
4.100000	 64.8996
4.184000	 64.8301
4.268000	 64.7983
4.352000	 64.7191
4.436000	 64.8155
4.520000	 64.7301
4.604000	 64.6889
4.688000	 64.7641
4.772000	 64.7312
4.856000	 64.642
4.940000	 64.7063
5.024000	 64.7909
5.108000	 64.5741
5.192000	 64.621
5.276000	 64.4649
5.359999	 64.5859
5.444000	 64.6264
5.528000	 64.5749
5.612000	 64.5795
5.696000	 64.4123
5.780000	 64.3254
5.864000	 64.3284
5.948000	 64.2521
6.032000	 64.392
6.116000	 64.265
6.200000	 64.3349
6.284000	 64.3162
6.368000	 64.3286
6.452000	 64.4215
6.536000	 64.3164
6.620000	 64.1813
6.704000	 64.2903
6.788000	 64.3113
6.872000	 64.2938
6.956000	 64.2355
7.040000	 64.207
7.124000	 64.2123
7.208000	 64.2086
7.292000	 64.2253
7.376000	 64.1461
7.460000	 64.1004
7.544000	 64.0965
7.628000	 64.0768
7.712000	 64.1052
7.796000	 63.9572
7.880000	 64.1328
7.964000	 64.029
8.048000	 64.0353
8.132000	 64.031
8.216000	 63.8911
8.300000	 64.0101
8.384000	 63.9737
8.468000	 64.1149
8.552000	 64.0227
8.635999	 63.8453
8.719999	 63.7189
8.804000	 63.8983
8.888000	 63.955
8.972000	 63.8637
9.056000	 63.9651
9.140000	 63.8531
9.224000	 63.9153
9.308000	 64.2315
9.391999	 63.8505
9.475999	 63.984
9.560000	 63.88
9.644000	 63.9021
9.728000	 64.0211
9.812000	 63.8948
9.896000	 63.8076
9.980000	 63.855
10.064	63.8844
10.148	63.962
10.232	63.8542
10.316	63.9057
10.4	63.7059
10.484	63.7766
10.568	63.8128
10.652	63.6551
10.736	63.8131
10.82	63.8377
10.904	63.7967
10.988	63.9379
11.072	63.8779
11.156	63.8445
11.24	63.88
11.324	64.0359
11.408	63.9187
11.492	63.8121
11.576	63.9067
11.66	64.0613
11.744	64.0607
11.828	63.9618
11.912	63.836
11.996	63.9301
12.08	64.1131
12.164	63.7969
12.248	63.7922
12.332	63.8718
12.416	63.7311
12.5	63.7649
12.584	63.892
12.668	64.0646
12.752	63.9516
12.836	63.7987
12.92	63.6483
13.004	63.6872
13.088	63.7663
13.172	63.7827
13.256	63.7625
13.34	63.5284
13.424	63.4624
13.508	63.5945
13.592	63.5643
13.676	63.5471
13.76	63.776
13.844	63.7883
13.928	63.677
14.012	63.8238
14.096	63.8821
14.18	63.4355
14.264	63.1797
14.348	63.4256
14.432	63.6474
14.516	63.6859
14.6	63.529
14.684	63.5286
14.768	63.7804
14.852	63.9367
14.936	64.0096
15.02	63.9574
15.104	63.9066
15.188	64.1599
15.272	64.4132
15.356	64.302
15.44	63.9466
15.524	63.578
15.608	63.3404
15.692	63.2371
15.776	63.2283
15.86	63.339
15.944	63.5178
16.028	63.8135
16.112	64.2722
16.196	64.4396
16.28	63.9492
16.364	63.3564
16.448	63.3832
16.532	63.9299
16.616	64.322
16.7	64.1053
16.784	63.4324
16.868	62.8327
16.952	62.7519
17.036	63.1582
17.12	63.6012
17.204	63.7637
17.288	63.7248
17.372	63.61
17.456	63.4083
17.54	63.228
17.624	63.264
17.708	63.4707
17.792	63.6343
17.876	63.6816
17.96	63.7172
18.044	63.8002
18.128	63.8647
18.212	63.8461
18.296	63.7394
18.38	63.5557
18.464	63.3328
18.548	63.1506
18.632	63.0562
18.716	63.0335
18.8	63.0949
18.884	63.3178
18.968	63.7099
19.052	64.1118
19.136	64.3133
19.22	64.2575
19.304	64.0764
19.388	63.9082
19.472	63.7587
19.556	63.5712
19.64	63.364
19.724	63.2154
19.808	63.1545
19.892	63.1263
19.976	63.0666
20.06	62.9629
20.144	62.8441
20.228	62.7334
20.312	62.6345
20.396	62.5442
20.48	62.4712
20.564	62.4294
20.648	62.428
20.732	62.4762
20.816	62.5892
20.9	62.7754
20.984	63.0131
21.068	63.2561
21.152	63.4619
21.236	63.6174
21.32	63.7185
21.404	63.7401
21.488	63.6281
21.572	63.3482
21.656	62.9321
21.74	62.4842
21.824	62.1287
21.908	61.9354
21.992	61.8987
22.076	61.9702
22.16	62.1011
22.244	62.2704
22.328	62.4701
22.412	62.7022
22.496	62.958
22.58	63.2222
22.664	63.4823
22.748	63.7286
22.832	63.9579
22.916	64.1796
23	64.4091
23.084	64.6599
23.168	64.9212
23.252	65.1528
23.336	65.3028
23.42	65.3374
23.504	65.2529
23.588	65.0588
23.672	64.7463
23.756	64.2728
23.84	63.6042
23.924	62.7678
24.008	61.8842
24.092	61.1573
24.176	60.7974
24.26	60.9417
24.344	61.5828
24.428	62.5577
24.512	63.606
24.596	64.5047
24.68	65.1198
24.764	65.4203
24.848	65.4854
24.932	65.4182
25.016	65.2644
25.1	64.9977
25.184	64.5295
25.268	63.7911
25.352	62.8084
25.436	61.7479
25.52	60.8486
25.604	60.2882
25.688	60.1468
25.772	60.3091
25.856	60.4808
25.94	60.2509
26.024	59.282
26.108	57.5324
26.192	55.3808
26.276	53.5453
26.36	52.8858
26.444	54.0075
26.528	56.9935
26.612	61.3232
26.696	66.1037
26.78	70.3771
26.864	73.5013
26.948	75.2769
27.028	75.8533