File: Bakgrunnsmateriale/MATLAB/FTIR/ftir_data/subAa/Mapping_121/BZ1503107-1_e124.asc
PE IR       SPECTRUM    SPECTRUM    ASCII       PEDS        1.60
  -1
BZD0A2~1.ASC
17/04/07
16:53:18.00
17/04/07
16:53:45.00
tln
$BZ1503107-1_e0124$<ebV0>[-23.3,12.1,10.0,0.0,27,1,0]
27.028
64

2002,4.07
MIRTGS : RIGHTBACK : INTERNAL 2
MIR : ON : INTERNAL 2
OPTKBR

0.200000
8
8.000000
FILLER
SINGLE
SPECTRUM
UNLOCKED 256

DOUBLE

COMBINED
1
0
0

0.002000
BACKG

1
0
TRUE
51149
0
LEFT NOT FITTED RIGHT NOT FITTED 0
NONE
NONE
15600
12
4.427000
51148
TRUE
1 0 8 72 0 0 0 0

15798

#HDR
-1
-1
#GR
µM
EGY
2.38419e-05
0.0
2.000000
0.002000
12515
8
2.464169
0.008201
#DATA
2.000000	 0.774908
2.084000	 0.879393
2.168000	 0.941161
2.252000	 1.008644
2.336000	 1.147246
2.420000	 1.246616
2.504000	 1.404249
2.588000	 1.458797
2.672000	 1.565415
2.756000	 1.587257
2.840000	 1.639301
2.924000	 1.597293
3.008000	 1.697201
3.092000	 1.797808
3.176000	 1.824666
3.260000	 1.946000
3.344000	 2.043053
3.428000	 1.848256
3.512000	 2.022325
3.596000	 2.230254
3.680000	 2.267075
3.764000	 2.232549
3.848000	 2.236060
3.932000	 2.307547
4.016000	 2.336033
4.100000	 2.297022
4.184000	 2.258844
4.268000	 2.273715
4.352000	 2.349420
4.436000	 2.388139
4.520000	 2.377823
4.604000	 2.348514
4.688000	 2.342977
4.772000	 2.345063
4.856000	 2.392620
4.940000	 2.451959
5.024000	 2.462150
5.108000	 2.441327
5.192000	 2.410103
5.276000	 2.380877
5.359999	 2.387888
5.444000	 2.412548
5.528000	 2.437463
5.612000	 2.435520
5.696000	 2.405719
5.780000	 2.331158
5.864000	 2.288527
5.948000	 2.245901
6.032000	 2.197504
6.116000	 2.146756
6.200000	 2.011771
6.284000	 2.022271
6.368000	 1.986959
6.452000	 1.962742
6.536000	 2.104262
6.620000	 2.088081
6.704000	 1.693099
6.788000	 1.977842
6.872000	 1.795999
6.956000	 1.867813
7.040000	 1.858892
7.124000	 1.729399
7.208000	 1.791153
7.292000	 1.817695
7.376000	 1.819824
7.460000	 1.820179
7.544000	 1.852505
7.628000	 1.859304
7.712000	 1.856667
7.796000	 1.853404
7.880000	 1.776494
7.964000	 1.763785
8.048000	 1.836874
8.132000	 1.829998
8.216000	 1.789316
8.300000	 1.745845
8.384000	 1.745193
8.468000	 1.715520
8.552000	 1.674426
8.635999	 1.626797
8.719999	 1.607379
8.804000	 1.576486
8.888000	 1.528491
8.972000	 1.473189
9.056000	 1.434013
9.140000	 1.425882
9.224000	 1.431316
9.308000	 1.430002
9.391999	 1.438973
9.475999	 1.360366
9.560000	 1.327211
9.644000	 1.386710
9.728000	 1.370680
9.812000	 1.362694
9.896000	 1.383051
9.980000	 1.399011
10.064	1.398177
10.148	1.385494
10.232	1.368680
10.316	1.348415
10.4	1.323767
10.484	1.296906
10.568	1.275249
10.652	1.261862
10.736	1.244727
10.82	1.227207
10.904	1.208146
10.988	1.180222
11.072	1.160285
11.156	1.152222
11.24	1.132199
11.324	1.079083
11.408	1.032791
11.492	1.049862
11.576	1.085263
11.66	1.093472
11.744	1.088118
11.828	1.078427
11.912	1.057938
11.996	0.992547
12.08	0.880792
12.164	0.852267
12.248	0.915516
12.332	0.948156
12.416	0.949151
12.5	0.947284
12.584	0.954594
12.668	0.968802
12.752	0.979069
12.836	0.980273
12.92	0.977535
13.004	0.972622
13.088	0.968330
13.172	0.964955
13.256	0.960388
13.34	0.954059
13.424	0.945191
13.508	0.935391
13.592	0.925880
13.676	0.914484
13.76	0.900353
13.844	0.886782
13.928	0.875128
14.012	0.862984
14.096	0.850090
14.18	0.837151
14.264	0.821031
14.348	0.798932
14.432	0.768841
14.516	0.739724
14.6	0.730089
14.684	0.733391
14.768	0.732191
14.852	0.727094
14.936	0.720774
15.02	0.712969
15.104	0.703738
15.188	0.692753
15.272	0.682421
15.356	0.672937
15.44	0.663359
15.524	0.655641
15.608	0.648317
15.692	0.638969
15.776	0.630542
15.86	0.623867
15.944	0.614704
16.028	0.601609
16.112	0.587924
16.196	0.577159
16.28	0.568109
16.364	0.556030
16.448	0.540909
16.532	0.529134
16.616	0.524896
16.7	0.524710
16.784	0.523702
16.868	0.520909
16.952	0.517485
17.036	0.513662
17.12	0.509514
17.204	0.505807
17.288	0.503196
17.372	0.501189
17.456	0.498909
17.54	0.495878
17.624	0.492105
17.708	0.487921
17.792	0.483457
17.876	0.478671
17.96	0.473617
18.044	0.468757
18.128	0.464354
18.212	0.460398
18.296	0.456678
18.38	0.453160
18.464	0.449915
18.548	0.446559
18.632	0.442361
18.716	0.436846
18.8	0.430240
18.884	0.423076
18.968	0.415777
19.052	0.408984
19.136	0.403178
19.22	0.398469
19.304	0.394440
19.388	0.390386
19.472	0.385933
19.556	0.380977
19.64	0.375514
19.724	0.369634
19.808	0.363393
19.892	0.356904
19.976	0.350182
20.06	0.343200
20.144	0.336085
20.228	0.328944
20.312	0.321781
20.396	0.314516
20.48	0.307028
20.564	0.299418
20.648	0.291960
20.732	0.284875
20.816	0.278323
20.9	0.272146
20.984	0.266184
21.068	0.260236
21.152	0.254225
21.236	0.248250
21.32	0.242322
21.404	0.236469
21.488	0.230533
21.572	0.224402
21.656	0.218071
21.74	0.211480
21.824	0.204819
21.908	0.198104
21.992	0.191508
22.076	0.185255
22.16	0.179447
22.244	0.174233
22.328	0.169521
22.412	0.165219
22.496	0.161176
22.58	0.157234
22.664	0.153248
22.748	0.149153
22.832	0.144957
22.916	0.140555
23	0.135881
23.084	0.130883
23.168	0.125531
23.252	0.119899
23.336	0.114151
23.42	0.108499
23.504	0.103020
23.588	0.097826
23.672	0.092916
23.756	0.088416
23.84	0.084282
23.924	0.080513
24.008	0.077006
24.092	0.073655
24.176	0.070313
24.26	0.066966
24.344	0.063619
24.428	0.060349
24.512	0.057211
24.596	0.054219
24.68	0.051257
24.764	0.048328
24.848	0.045339
24.932	0.042329
25.016	0.039384
25.1	0.036593
25.184	0.034065
25.268	0.031819
25.352	0.029865
25.436	0.028147
25.52	0.026549
25.604	0.025083
25.688	0.023620
25.772	0.022192
25.856	0.020817
25.94	0.019515
26.024	0.018276
26.108	0.017093
26.192	0.015918
26.276	0.014743
26.36	0.013583
26.444	0.012466
26.528	0.011411
26.612	0.010523
26.696	0.009796
26.78	0.009253
26.864	0.008851
26.948	0.008511
27.028	0.008201