File: Bakgrunnsmateriale/MATLAB/FTIR/ftir_data/subAa/Mapping_121/BZ1503107-1_t81.asc
PE IR       SPECTRUM    SPECTRUM    ASCII       PEDS        1.60
  -1
BZ2D45~1.ASC
17/04/07
19:53:20.00
17/04/07
19:53:46.00
tln
$BZ1503107-1_t0081$<tbV0>[5.2,5.2,8.0,0.0,27,1,0]
27.028
64

2002,4.07
MIRTGS : RIGHTBACK : INTERNAL 2
MIR : ON : INTERNAL 2
OPTKBR

0.200000
8
8.000000
FILLER
RATIO
SPECTRUM
UNLOCKED 256

DOUBLE
64
COMBINED
1
0
0

0.002000
RATIO

1
0
TRUE
51149
0
LEFT NOT FITTED RIGHT NOT FITTED 0
NONE
NONE
15600
12
4.427000
51148
TRUE
1 0 8 72 0 0 0 0

15798

#HDR
-1
-1
#GR
µM
%T
2.38419e-05
0.0
2.000000
0.002000
12515
8
71.6566
48.3762
#DATA
2.000000	 66.1013
2.084000	 64.522
2.168000	 65.0189
2.252000	 52.5307
2.336000	 64.9244
2.420000	 64.8316
2.504000	 64.7677
2.588000	 65.0174
2.672000	 65.0553
2.756000	 64.852
2.840000	 65.0549
2.924000	 64.9399
3.008000	 64.8833
3.092000	 64.9063
3.176000	 65.0167
3.260000	 64.9987
3.344000	 64.9519
3.428000	 64.7089
3.512000	 64.6334
3.596000	 64.7648
3.680000	 64.768
3.764000	 64.6255
3.848000	 64.6362
3.932000	 64.6689
4.016000	 64.6374
4.100000	 64.5426
4.184000	 64.5628
4.268000	 64.4487
4.352000	 64.3757
4.436000	 64.4904
4.520000	 64.4821
4.604000	 64.2988
4.688000	 64.4796
4.772000	 64.4234
4.856000	 64.3097
4.940000	 64.3299
5.024000	 64.3037
5.108000	 64.2045
5.192000	 64.2025
5.276000	 64.109
5.359999	 64.1629
5.444000	 64.0635
5.528000	 64.1292
5.612000	 64.0604
5.696000	 63.9776
5.780000	 63.8693
5.864000	 63.8068
5.948000	 63.9347
6.032000	 63.8934
6.116000	 63.8357
6.200000	 63.7821
6.284000	 63.6937
6.368000	 63.6917
6.452000	 63.7913
6.536000	 63.7967
6.620000	 63.8018
6.704000	 63.6109
6.788000	 63.6676
6.872000	 63.6365
6.956000	 63.7426
7.040000	 63.7568
7.124000	 63.5761
7.208000	 63.6182
7.292000	 63.5912
7.376000	 63.4927
7.460000	 63.592
7.544000	 63.5854
7.628000	 63.5733
7.712000	 63.4631
7.796000	 63.485
7.880000	 63.4487
7.964000	 63.4649
8.048000	 63.3796
8.132000	 63.4783
8.216000	 63.2825
8.300000	 63.2898
8.384000	 63.4643
8.468000	 63.3385
8.552000	 63.2633
8.635999	 63.1744
8.719999	 63.4094
8.804000	 63.2933
8.888000	 63.2458
8.972000	 63.14
9.056000	 63.2038
9.140000	 63.1793
9.224000	 63.2557
9.308000	 63.2678
9.391999	 63.3536
9.475999	 63.2888
9.560000	 63.2877
9.644000	 63.2188
9.728000	 63.1212
9.812000	 63.0992
9.896000	 63.133
9.980000	 63.3256
10.064	63.2135
10.148	63.2317
10.232	63.3014
10.316	63.1251
10.4	63.2119
10.484	63.3397
10.568	63.3475
10.652	63.2148
10.736	63.1204
10.82	63.3013
10.904	63.3353
10.988	63.3081
11.072	63.3571
11.156	63.1132
11.24	63.1133
11.324	63.2067
11.408	63.1949
11.492	63.3267
11.576	63.0502
11.66	63.0556
11.744	63.0096
11.828	62.8793
11.912	63.1499
11.996	63.2765
12.08	63.3446
12.164	63.3563
12.248	63.0281
12.332	62.8975
12.416	63.0809
12.5	63.0072
12.584	62.7669
12.668	62.9551
12.752	63.0028
12.836	62.9381
12.92	62.9325
13.004	62.7568
13.088	62.6594
13.172	62.765
13.256	62.8843
13.34	62.893
13.424	62.8117
13.508	62.7975
13.592	62.8135
13.676	62.781
13.76	62.7519
13.844	62.7206
13.928	62.7664
14.012	62.8095
14.096	62.7507
14.18	62.7569
14.264	62.84
14.348	62.7194
14.432	62.5716
14.516	62.6812
14.6	62.9534
14.684	63.1662
14.768	63.1363
14.852	62.9797
14.936	62.7618
15.02	62.5405
15.104	62.6617
15.188	62.9067
15.272	62.8749
15.356	62.7893
15.44	62.8093
15.524	62.7115
15.608	62.3224
15.692	61.9106
15.776	61.9132
15.86	62.1969
15.944	62.3169
16.028	62.3105
16.112	62.4376
16.196	62.6215
16.28	62.6812
16.364	62.6702
16.448	62.707
16.532	62.7337
16.616	62.5873
16.7	62.2393
16.784	61.891
16.868	61.7859
16.952	61.9172
17.036	62.1109
17.12	62.2548
17.204	62.2823
17.288	62.2435
17.372	62.309
17.456	62.4946
17.54	62.5797
17.624	62.4411
17.708	62.3115
17.792	62.5054
17.876	62.9856
17.96	63.3824
18.044	63.4326
18.128	63.2363
18.212	63.0932
18.296	63.1867
18.38	63.468
18.464	63.7926
18.548	64.0435
18.632	64.1168
18.716	63.9328
18.8	63.5629
18.884	63.2355
18.968	63.1058
19.052	63.0362
19.136	62.7523
19.22	62.1825
19.304	61.5374
19.388	61.0583
19.472	60.7992
19.556	60.7074
19.64	60.7978
19.724	61.1434
19.808	61.6996
19.892	62.2515
19.976	62.5661
20.06	62.6057
20.144	62.5452
20.228	62.6124
20.312	62.9221
20.396	63.4325
20.48	63.9938
20.564	64.4481
20.648	64.7078
20.732	64.7757
20.816	64.6816
20.9	64.411
20.984	63.9113
21.068	63.1744
21.152	62.317
21.236	61.5609
21.32	61.1186
21.404	61.0641
21.488	61.3177
21.572	61.7214
21.656	62.1325
21.74	62.4556
21.824	62.6352
21.908	62.6377
21.992	62.4453
22.076	62.0774
22.16	61.6179
22.244	61.2062
22.328	60.9796
22.412	61.0093
22.496	61.2618
22.58	61.6169
22.664	61.9301
22.748	62.0912
22.832	62.0526
22.916	61.8168
23	61.4168
23.084	60.9044
23.168	60.38
23.252	59.9791
23.336	59.8383
23.42	60.032
23.504	60.5137
23.588	61.118
23.672	61.6409
23.756	61.9229
23.84	61.9415
23.924	61.8177
24.008	61.709
24.092	61.7066
24.176	61.8152
24.26	61.9594
24.344	62.0457
24.428	62.0231
24.512	61.8812
24.596	61.6163
24.68	61.2077
24.764	60.6197
24.848	59.8449
24.932	58.9006
25.016	57.8271
25.1	56.6875
25.184	55.4991
25.268	54.2525
25.352	52.9761
25.436	51.7954
25.52	50.9708
25.604	50.8446
25.688	51.7417
25.772	53.7873
25.856	56.8002
25.94	60.3121
26.024	63.6254
26.108	66.0096
26.192	67.03
26.276	66.6337
26.36	65.0845
26.444	62.9522
26.528	60.9283
26.612	59.578
26.696	59.2692
26.78	60.1007
26.864	62.0139
26.948	64.8562
27.028	68.1833