File: Bakgrunnsmateriale/MATLAB/FTIR/ftir_data/subAa/Mapping_121/BZ1503107-1_t58.asc
PE IR       SPECTRUM    SPECTRUM    ASCII       PEDS        1.60
  -1
BZ2963~1.ASC
17/04/07
17:59:44.00
17/04/07
18:00:10.00
tln
$BZ1503107-1_t0058$<tbV0>[7.8,0.0,8.0,0.0,27,1,0]
27.028
64

2002,4.07
MIRTGS : RIGHTBACK : INTERNAL 2
MIR : ON : INTERNAL 2
OPTKBR

0.200000
8
8.000000
FILLER
RATIO
SPECTRUM
UNLOCKED 256

DOUBLE
64
COMBINED
1
0
0

0.002000
RATIO

1
0
TRUE
51149
0
LEFT NOT FITTED RIGHT NOT FITTED 0
NONE
NONE
15600
12
4.427000
51148
TRUE
1 0 8 72 0 0 0 0

15798

#HDR
-1
-1
#GR
µM
%T
2.38419e-05
0.0
2.000000
0.002000
12515
8
82.9054
49.0161
#DATA
2.000000	 65.79
2.084000	 64.6565
2.168000	 65.1403
2.252000	 74.4314
2.336000	 65.2023
2.420000	 64.8145
2.504000	 65.0792
2.588000	 65.1149
2.672000	 65.0721
2.756000	 64.9401
2.840000	 65.1584
2.924000	 65.0976
3.008000	 64.9977
3.092000	 65.1929
3.176000	 65.0727
3.260000	 65.0212
3.344000	 65.0559
3.428000	 64.875
3.512000	 65.0457
3.596000	 64.8908
3.680000	 64.8824
3.764000	 64.8179
3.848000	 64.8254
3.932000	 64.7833
4.016000	 64.9529
4.100000	 64.8161
4.184000	 64.8469
4.268000	 64.7804
4.352000	 64.8508
4.436000	 64.729
4.520000	 64.7849
4.604000	 64.5961
4.688000	 64.6849
4.772000	 64.713
4.856000	 64.6527
4.940000	 64.4692
5.024000	 64.5991
5.108000	 64.5484
5.192000	 64.5552
5.276000	 64.4698
5.359999	 64.5273
5.444000	 64.4555
5.528000	 64.4694
5.612000	 64.387
5.696000	 64.3493
5.780000	 64.2279
5.864000	 64.1699
5.948000	 64.1977
6.032000	 64.2304
6.116000	 64.1554
6.200000	 64.2358
6.284000	 64.1442
6.368000	 64.108
6.452000	 64.1384
6.536000	 64.1502
6.620000	 64.1475
6.704000	 64.1974
6.788000	 64.1589
6.872000	 64.1144
6.956000	 64.0272
7.040000	 64.1345
7.124000	 64.0677
7.208000	 63.9934
7.292000	 64.1369
7.376000	 63.9549
7.460000	 64.0143
7.544000	 63.9961
7.628000	 63.9382
7.712000	 64.0812
7.796000	 63.9587
7.880000	 63.8275
7.964000	 63.8565
8.048000	 63.872
8.132000	 63.818
8.216000	 63.8617
8.300000	 63.8441
8.384000	 63.7317
8.468000	 63.8109
8.552000	 63.6985
8.635999	 63.6878
8.719999	 63.7304
8.804000	 63.5569
8.888000	 63.7775
8.972000	 63.696
9.056000	 63.8014
9.140000	 63.8088
9.224000	 63.7065
9.308000	 63.6642
9.391999	 63.6531
9.475999	 63.6274
9.560000	 63.7133
9.644000	 63.766
9.728000	 63.7111
9.812000	 63.7305
9.896000	 63.7094
9.980000	 63.6864
10.064	63.7107
10.148	63.7745
10.232	63.6809
10.316	63.7157
10.4	63.5677
10.484	63.5402
10.568	63.5962
10.652	63.7009
10.736	63.6267
10.82	63.6234
10.904	63.5149
10.988	63.6111
11.072	63.6576
11.156	63.4941
11.24	63.5348
11.324	63.6606
11.408	63.6917
11.492	63.6375
11.576	63.6363
11.66	63.6286
11.744	63.5891
11.828	63.7246
11.912	63.7818
11.996	63.7934
12.08	63.7287
12.164	63.5869
12.248	63.4858
12.332	63.4641
12.416	63.4568
12.5	63.3898
12.584	63.4576
12.668	63.5713
12.752	63.5665
12.836	63.5024
12.92	63.4081
13.004	63.3706
13.088	63.3694
13.172	63.2692
13.256	63.1618
13.34	63.1735
13.424	63.2728
13.508	63.3334
13.592	63.24
13.676	63.0718
13.76	63.0519
13.844	63.2145
13.928	63.317
14.012	63.3099
14.096	63.201
14.18	63.0276
14.264	63.0057
14.348	63.1381
14.432	63.2888
14.516	63.4494
14.6	63.4599
14.684	63.4278
14.768	63.4558
14.852	63.2651
14.936	63.0776
15.02	63.2075
15.104	63.4018
15.188	63.4834
15.272	63.4759
15.356	63.3901
15.44	63.2836
15.524	63.1721
15.608	63.1543
15.692	63.2681
15.776	63.2291
15.86	63.0284
15.944	63.1062
16.028	63.561
16.112	63.9312
16.196	63.7733
16.28	63.1741
16.364	62.6945
16.448	62.6827
16.532	62.8823
16.616	62.975
16.7	63.0248
16.784	63.1407
16.868	63.2199
16.952	63.1897
17.036	63.1602
17.12	63.2154
17.204	63.2361
17.288	63.0876
17.372	62.9234
17.456	63.036
17.54	63.3994
17.624	63.6588
17.708	63.6471
17.792	63.5551
17.876	63.5375
17.96	63.5169
18.044	63.4515
18.128	63.4154
18.212	63.3683
18.296	63.1158
18.38	62.5979
18.464	62.0438
18.548	61.7398
18.632	61.7353
18.716	61.8587
18.8	61.964
18.884	62.086
18.968	62.3354
19.052	62.7215
19.136	63.0896
19.22	63.2514
19.304	63.1671
19.388	62.9829
19.472	62.9163
19.556	63.1124
19.64	63.5579
19.724	64.0629
19.808	64.3285
19.892	64.1171
19.976	63.4797
20.06	62.7927
20.144	62.4529
20.228	62.5164
20.312	62.7021
20.396	62.7361
20.48	62.624
20.564	62.5575
20.648	62.629
20.732	62.7162
20.816	62.648
20.9	62.4344
20.984	62.275
21.068	62.35
21.152	62.6385
21.236	62.9459
21.32	63.0994
21.404	63.093
21.488	63.0431
21.572	63.0444
21.656	63.0971
21.74	63.1483
21.824	63.1655
21.908	63.1732
21.992	63.2205
22.076	63.3348
22.16	63.5081
22.244	63.7018
22.328	63.8714
22.412	63.9722
22.496	63.9527
22.58	63.7878
22.664	63.4899
22.748	63.1127
22.832	62.7364
22.916	62.433
23	62.2759
23.084	62.3182
23.168	62.5821
23.252	63.047
23.336	63.65
23.42	64.306
23.504	64.9378
23.588	65.4843
23.672	65.8847
23.756	66.0529
23.84	65.8802
23.924	65.2549
24.008	64.1321
24.092	62.5868
24.176	60.8014
24.26	58.9926
24.344	57.3526
24.428	55.9791
24.512	54.8769
24.596	54.0414
24.68	53.5047
24.764	53.3256
24.848	53.5836
24.932	54.3037
25.016	55.3835
25.1	56.6085
25.184	57.6648
25.268	58.2654
25.352	58.2694
25.436	57.6558
25.52	56.5117
25.604	54.9793
25.688	53.2831
25.772	51.6619
25.856	50.3093
25.94	49.3801
26.024	49.0172
26.108	49.3508
26.192	50.5756
26.276	52.9036
26.36	56.4595
26.444	61.1099
26.528	66.4186
26.612	71.6913
26.696	76.209
26.78	79.4469
26.864	81.3239
26.948	82.2349
27.028	82.9054