File: Bakgrunnsmateriale/MATLAB/FTIR/ftir_data/subAa/Mapping_121/BZ1503107-1_t29.asc
PE IR       SPECTRUM    SPECTRUM    ASCII       PEDS        1.60
  -1
BZ2D69~1.ASC
17/04/07
15:37:34.00
17/04/07
15:38:00.00
tln
$BZ1503107-1_t0029$<tbV0>[-2.6,-7.8,8.0,0.0,27,1,0]
27.028
64

2002,4.07
MIRTGS : RIGHTBACK : INTERNAL 2
MIR : ON : INTERNAL 2
OPTKBR

0.200000
8
8.000000
FILLER
RATIO
SPECTRUM
UNLOCKED 256

DOUBLE
64
COMBINED
1
0
0

0.002000
RATIO

1
0
TRUE
51149
0
LEFT NOT FITTED RIGHT NOT FITTED 0
NONE
NONE
15600
12
4.427000
51148
TRUE
1 0 8 72 0 0 0 0

15798

#HDR
-1
-1
#GR
µM
%T
2.38419e-05
0.0
2.000000
0.002000
12515
8
77.1468
49.761
#DATA
2.000000	 65.9522
2.084000	 64.5441
2.168000	 65.0746
2.252000	 66.1059
2.336000	 64.9496
2.420000	 65.162
2.504000	 65.0794
2.588000	 65.1525
2.672000	 65.0975
2.756000	 65.1678
2.840000	 65.0665
2.924000	 65.1344
3.008000	 65.1419
3.092000	 65.0252
3.176000	 65.1571
3.260000	 65.1027
3.344000	 65.022
3.428000	 64.9795
3.512000	 64.9458
3.596000	 65.0652
3.680000	 65.011
3.764000	 65.1438
3.848000	 64.9807
3.932000	 64.9556
4.016000	 64.8613
4.100000	 64.9891
4.184000	 65.0683
4.268000	 65.0283
4.352000	 64.9045
4.436000	 64.8854
4.520000	 64.8133
4.604000	 64.828
4.688000	 64.8192
4.772000	 64.7616
4.856000	 64.7468
4.940000	 64.7714
5.024000	 64.608
5.108000	 64.7559
5.192000	 64.7115
5.276000	 64.7298
5.359999	 64.6519
5.444000	 64.6913
5.528000	 64.6981
5.612000	 64.5547
5.696000	 64.4276
5.780000	 63.9847
5.864000	 64.4981
5.948000	 64.4172
6.032000	 64.5011
6.116000	 64.4667
6.200000	 64.3293
6.284000	 64.3856
6.368000	 64.3818
6.452000	 64.2084
6.536000	 64.3253
6.620000	 64.5216
6.704000	 64.3778
6.788000	 64.3258
6.872000	 64.2615
6.956000	 64.5137
7.040000	 64.3254
7.124000	 64.3737
7.208000	 64.0449
7.292000	 64.3142
7.376000	 64.1969
7.460000	 64.2703
7.544000	 64.1513
7.628000	 64.1285
7.712000	 64.2228
7.796000	 64.1448
7.880000	 64.1575
7.964000	 63.9814
8.048000	 64.0841
8.132000	 63.8948
8.216000	 64.045
8.300000	 63.9981
8.384000	 63.9931
8.468000	 64.0011
8.552000	 63.7798
8.635999	 63.8508
8.719999	 63.898
8.804000	 63.9847
8.888000	 63.8551
8.972000	 63.951
9.056000	 64.0747
9.140000	 63.9224
9.224000	 64.0373
9.308000	 64.0316
9.391999	 63.8938
9.475999	 64.0259
9.560000	 64.0495
9.644000	 63.9528
9.728000	 64.0227
9.812000	 64.2463
9.896000	 64.1023
9.980000	 63.9278
10.064	64.0807
10.148	64.0887
10.232	64.0459
10.316	63.8725
10.4	64.0036
10.484	64.0605
10.568	64.0511
10.652	63.9389
10.736	64.0491
10.82	64.2404
10.904	64.0803
10.988	64.1215
11.072	64.1018
11.156	64.0234
11.24	63.9922
11.324	63.9457
11.408	64.1556
11.492	64.171
11.576	64.0972
11.66	63.9885
11.744	64.0965
11.828	63.9731
11.912	63.9618
11.996	63.8425
12.08	63.9642
12.164	64.1014
12.248	63.9896
12.332	64.0971
12.416	63.9763
12.5	64.0685
12.584	64.31
12.668	64.1584
12.752	63.9443
12.836	63.8856
12.92	63.9387
13.004	63.901
13.088	63.9075
13.172	63.8033
13.256	63.6099
13.34	63.6181
13.424	63.6439
13.508	63.6951
13.592	63.7613
13.676	63.8026
13.76	63.9355
13.844	63.8386
13.928	63.4796
14.012	63.189
14.096	63.172
14.18	63.5885
14.264	63.9348
14.348	64.031
14.432	64.2056
14.516	63.7061
14.6	62.8323
14.684	62.9398
14.768	63.5284
14.852	63.7009
14.936	63.6309
15.02	63.5728
15.104	63.4787
15.188	63.4838
15.272	63.6175
15.356	63.6787
15.44	63.7375
15.524	63.79
15.608	63.5877
15.692	63.3069
15.776	63.2967
15.86	63.4671
15.944	63.5821
16.028	63.5769
16.112	63.4537
16.196	63.193
16.28	62.9146
16.364	62.9552
16.448	63.3854
16.532	63.813
16.616	64.0155
16.7	64.1257
16.784	64.1324
16.868	63.9329
16.952	63.6322
17.036	63.4301
17.12	63.4245
17.204	63.587
17.288	63.8068
17.372	63.9666
17.456	64.0124
17.54	63.9502
17.624	63.8305
17.708	63.723
17.792	63.6713
17.876	63.6949
17.96	63.814
18.044	64.0105
18.128	64.162
18.212	64.119
18.296	63.8464
18.38	63.454
18.464	63.1119
18.548	62.9336
18.632	62.9067
18.716	62.9547
18.8	63.0589
18.884	63.2721
18.968	63.6149
19.052	64.0047
19.136	64.3073
19.22	64.4273
19.304	64.3459
19.388	64.1121
19.472	63.8277
19.556	63.5953
19.64	63.4676
19.724	63.4431
19.808	63.4906
19.892	63.5573
19.976	63.5742
20.06	63.5012
20.144	63.3634
20.228	63.2288
20.312	63.1337
20.396	63.0506
20.48	62.9566
20.564	62.8999
20.648	62.9682
20.732	63.1769
20.816	63.4116
20.9	63.5031
20.984	63.3652
21.068	63.0721
21.152	62.7965
21.236	62.6844
21.32	62.7722
21.404	62.9859
21.488	63.1991
21.572	63.2953
21.656	63.2118
21.74	62.9556
21.824	62.5913
21.908	62.2107
21.992	61.9032
22.076	61.7389
22.16	61.7567
22.244	61.9607
22.328	62.3085
22.412	62.7148
22.496	63.059
22.58	63.2301
22.664	63.1698
22.748	62.9032
22.832	62.5207
22.916	62.1472
23	61.8959
23.084	61.8194
23.168	61.8875
23.252	62.0086
23.336	62.0695
23.42	61.9867
23.504	61.742
23.588	61.3811
23.672	60.9712
23.756	60.5694
23.84	60.2133
23.924	59.937
24.008	59.784
24.092	59.8062
24.176	60.0408
24.26	60.465
24.344	60.9558
24.428	61.3325
24.512	61.4274
24.596	61.1886
24.68	60.718
24.764	60.242
24.848	60.0272
24.932	60.2727
25.016	60.9909
25.1	62.025
25.184	63.0413
25.268	63.6809
25.352	63.7203
25.436	63.2002
25.52	62.4361
25.604	61.8527
25.688	61.8148
25.772	62.4345
25.856	63.5194
25.94	64.631
26.024	65.2347
26.108	64.9391
26.192	63.7328
26.276	61.9748
26.36	60.2371
26.444	59.1239
26.528	59.0783
26.612	60.2485
26.696	62.5491
26.78	65.7136
26.864	69.4689
26.948	73.5114
27.028	77.1468