File: Bakgrunnsmateriale/MATLAB/FTIR/ftir_data/subAa/Mapping_121/BZ1503107-1_t32_cm-1.asc
PE IR       SPECTRUM    SPECTRUM    ASCII       PEDS        1.60
  -1
BZ6AA0~1.ASC
17/04/07
15:51:25.00
17/04/07
15:51:25.00
tln
$BZ1503107-1_t0032$<tbV0>[-10.4,-7.8,8.0,0.0,27,1,0]
370
64

2002,4.07
MIRTGS : RIGHTBACK : INTERNAL 2
MIR : ON : INTERNAL 2
OPTKBR

0.200000
8
8.000000
FILLER
RATIO
SPECTRUM
UNLOCKED 256

DOUBLE
64
COMBINED
1
0
0

1.000000
RATIO

1
0
TRUE
51149
0
LEFT NOT FITTED RIGHT NOT FITTED 0
NONE
NONE
15600
12
4.427000
51148
TRUE
1 0 8 72 0 0 0 0

15798

#HDR
-1
-1
#GR
CM-1
%T
2.38419e-05
0.0
5000
-1.000000
4631
8
74.5331
43.6573
#DATA
5000	64.1541
4984	63.5581
4968	63.1554
4952	63.7362
4936	63.2859
4920	63.0639
4904	63.5321
4888	63.2518
4872	63.369
4856	63.9271
4840	63.8087
4824	63.6582
4808	63.387
4792	63.1675
4776	63.5622
4760	63.5815
4744	63.6751
4728	63.8267
4712	64.0445
4696	63.7897
4680	63.4387
4664	63.1968
4648	63.6817
4632	63.6061
4616	63.7493
4600	63.5058
4584	63.8067
4568	63.3398
4552	63.4441
4536	63.6804
4520	63.925
4504	63.7283
4488	63.6266
4472	63.973
4456	64.646
4440	65.386
4424	71.9889
4408	47.1095
4392	63.7085
4376	63.7832
4360	64.2354
4344	63.6123
4328	64.1503
4312	64.0282
4296	64.1855
4280	63.7497
4264	63.8367
4248	63.7024
4232	63.823
4216	63.7911
4200	63.6769
4184	63.739
4168	63.8493
4152	63.9082
4136	63.7048
4120	63.8482
4104	63.8798
4088	63.7784
4072	63.7418
4056	63.9065
4040	63.8827
4024	63.9357
4008	63.8872
3992	63.9854
3976	63.9969
3960	63.9855
3944	63.9251
3928	64.0411
3912	64.0865
3896	64.1504
3880	63.7617
3864	64.0653
3848	64.1425
3832	63.9506
3816	64.023
3800	64.2765
3784	63.967
3768	64.1222
3752	64.0726
3736	64.1998
3720	63.9953
3704	64.085
3688	63.8625
3672	64.0513
3656	64.1411
3640	64.0476
3624	64.1479
3608	64.2527
3592	64.2072
3576	63.932
3560	64.1602
3544	64.1479
3528	64.1144
3512	63.9818
3496	64.0894
3480	63.9785
3464	64.0776
3448	64.079
3432	64.1234
3416	64.228
3400	64.3023
3384	64.297
3368	64.2282
3352	64.1244
3336	64.0335
3320	64.0684
3304	64.0667
3288	63.9807
3272	64.0551
3256	63.9886
3240	64.0708
3224	64.0573
3208	64.0711
3192	63.9086
3176	64.1032
3160	64.1776
3144	63.9437
3128	64.0186
3112	64.1159
3096	64.1953
3080	64.1882
3064	64.3059
3048	64.0563
3032	64.0635
3016	64.0131
3000	64.0859
2984	64.2752
2968	63.9423
2952	64.0206
2936	64.1002
2920	64.0852
2904	64.137
2888	64.2265
2872	64.0693
2856	64.1395
2840	64.1393
2824	64.2471
2808	64.205
2792	64.3584
2776	64.2093
2760	64.1487
2744	64.2473
2728	64.1525
2712	64.1328
2696	64.2317
2680	64.2819
2664	64.0626
2648	64.2187
2632	64.2632
2616	64.1606
2600	64.2386
2584	64.1384
2568	64.164
2552	64.1357
2536	64.2345
2520	64.1767
2504	64.2023
2488	64.3291
2472	64.1357
2456	64.1325
2440	64.1506
2424	64.217
2408	64.1503
2392	64.2776
2376	64.1729
2360	64.2434
2344	64.2594
2328	64.1864
2312	64.2168
2296	64.1404
2280	64.098
2264	64.1111
2248	64.1469
2232	64.2023
2216	64.1937
2200	64.2187
2184	64.1775
2168	64.1474
2152	64.2041
2136	64.1958
2120	64.2083
2104	64.149
2088	64.0752
2072	64.2247
2056	64.2177
2040	64.0151
2024	64.2462
2008	64.0971
1992	64.1288
1976	64.1168
1960	64.1791
1944	64.0931
1928	64.0879
1912	64.095
1896	63.9965
1880	64.1883
1864	64.1941
1848	64.1073
1832	64.1799
1816	64.0811
1800	64.1846
1784	64.0742
1768	64.0585
1752	64.0304
1736	63.6156
1720	63.8545
1704	64.0519
1688	64.1849
1672	64.0714
1656	63.9181
1640	63.9474
1624	63.9132
1608	64.0109
1592	63.9305
1576	63.876
1560	64.0659
1544	63.9228
1528	63.9551
1512	64.0121
1496	63.9862
1480	63.9746
1464	63.9287
1448	63.9122
1432	63.9668
1416	63.9094
1400	63.7896
1384	63.9021
1368	63.9159
1352	63.8942
1336	64.1016
1320	63.8395
1304	63.8223
1288	63.7954
1272	63.7638
1256	63.7218
1240	63.7672
1224	63.8021
1208	63.7436
1192	63.7772
1176	63.7187
1160	63.7286
1144	63.7308
1128	63.7483
1112	63.7915
1096	63.6911
1080	63.6865
1064	63.7167
1048	63.846
1032	63.9331
1016	63.6618
1000	63.9991
984	 63.816
968	 63.6574
952	 63.7586
936	 63.7623
920	 64.0048
904	 63.8795
888	 63.9383
872	 63.9552
856	 64.0228
840	 63.9504
824	 63.9498
808	 63.8956
792	 64.0854
776	 63.8271
760	 63.6816
744	 63.4778
728	 64.4817
712	 63.6027
696	 63.6721
680	 63.0293
664	 63.7366
648	 63.5609
632	 63.3409
616	 63.6326
600	 64.2608
584	 64.039
568	 63.914
552	 64.5597
536	 63.3622
520	 63.5067
504	 63.5488
488	 63.7757
472	 63.6153
456	 63.3589
440	 61.6274
424	 63.2586
408	 59.8036
392	 52.3837
376	 48.175
370	 64.721