File: Bakgrunnsmateriale/MATLAB/FTIR/ftir_data/subAa/Mapping_121/BZ1503107-1_t11.asc
PE IR       SPECTRUM    SPECTRUM    ASCII       PEDS        1.60
  -1
BZ2D4B~1.ASC
17/04/07
14:06:39.00
17/04/07
14:07:06.00
tln
$BZ1503107-1_t0011$<tbV0>[-13.0,-13.0,8.0,0.0,27,1,0]
27.028
64

2002,4.07
MIRTGS : RIGHTBACK : INTERNAL 2
MIR : ON : INTERNAL 2
OPTKBR

0.200000
8
8.000000
FILLER
RATIO
SPECTRUM
UNLOCKED 256

DOUBLE
64
COMBINED
1
0
0

0.002000
RATIO

1
0
TRUE
51149
0
LEFT NOT FITTED RIGHT NOT FITTED 0
NONE
NONE
15600
12
4.427000
51148
TRUE
1 0 8 72 0 0 0 0

15798

#HDR
-1
-1
#GR
µM
%T
2.38419e-05
0.0
2.000000
0.002000
12515
8
92.8159
61.6059
#DATA
2.000000	 65.1273
2.084000	 66.365
2.168000	 64.5792
2.252000	 81.9068
2.336000	 64.6605
2.420000	 65.4704
2.504000	 65.1242
2.588000	 64.8413
2.672000	 65.3617
2.756000	 65.4835
2.840000	 65.0831
2.924000	 65.1979
3.008000	 65.2486
3.092000	 65.0167
3.176000	 65.1244
3.260000	 65.1214
3.344000	 65.0163
3.428000	 64.8943
3.512000	 65.0996
3.596000	 65.113
3.680000	 65.1288
3.764000	 65.1865
3.848000	 65.0902
3.932000	 65.093
4.016000	 65.2508
4.100000	 65.1025
4.184000	 65.0468
4.268000	 65.0183
4.352000	 64.9531
4.436000	 64.9832
4.520000	 64.9221
4.604000	 64.9118
4.688000	 64.8532
4.772000	 64.8087
4.856000	 64.8711
4.940000	 64.99
5.024000	 64.9249
5.108000	 64.9829
5.192000	 64.8466
5.276000	 64.9131
5.359999	 64.9582
5.444000	 64.7853
5.528000	 64.7716
5.612000	 64.7837
5.696000	 64.8062
5.780000	 64.6241
5.864000	 64.7299
5.948000	 64.7992
6.032000	 64.8982
6.116000	 64.7947
6.200000	 64.6689
6.284000	 64.6541
6.368000	 64.7577
6.452000	 64.7963
6.536000	 64.7017
6.620000	 64.8467
6.704000	 64.8183
6.788000	 64.7738
6.872000	 64.676
6.956000	 64.6981
7.040000	 64.6456
7.124000	 64.5011
7.208000	 64.4944
7.292000	 64.5174
7.376000	 64.549
7.460000	 64.4779
7.544000	 64.4842
7.628000	 64.3628
7.712000	 64.3801
7.796000	 64.3672
7.880000	 64.3683
7.964000	 64.4071
8.048000	 64.2468
8.132000	 64.2314
8.216000	 64.4387
8.300000	 64.4023
8.384000	 64.4021
8.468000	 64.2496
8.552000	 64.4172
8.635999	 64.3038
8.719999	 64.3218
8.804000	 64.4951
8.888000	 64.4443
8.972000	 64.3796
9.056000	 64.2304
9.140000	 64.4612
9.224000	 64.4588
9.308000	 64.3239
9.391999	 64.2049
9.475999	 64.3384
9.560000	 64.0626
9.644000	 64.1598
9.728000	 64.4143
9.812000	 64.4109
9.896000	 64.4191
9.980000	 64.3388
10.064	64.2379
10.148	64.4039
10.232	64.5099
10.316	64.3777
10.4	64.3814
10.484	64.3279
10.568	64.4807
10.652	64.4937
10.736	64.2741
10.82	64.323
10.904	64.4505
10.988	64.4438
11.072	64.3712
11.156	64.3544
11.24	64.121
11.324	64.0696
11.408	64.1913
11.492	64.1933
11.576	64.2452
11.66	64.3321
11.744	64.5032
11.828	64.453
11.912	64.2947
11.996	64.3183
12.08	64.3007
12.164	64.3336
12.248	64.3752
12.332	64.3049
12.416	64.1672
12.5	64.1655
12.584	64.3405
12.668	64.3348
12.752	64.2565
12.836	64.3004
12.92	64.4224
13.004	64.2897
13.088	64.1632
13.172	64.1595
13.256	64.1712
13.34	64.1857
13.424	64.1556
13.508	64.1307
13.592	64.1144
13.676	64.217
13.76	64.3054
13.844	64.1495
13.928	64.0427
14.012	64.1567
14.096	64.1871
14.18	64.1192
14.264	64.1145
14.348	64.0371
14.432	63.9376
14.516	63.8867
14.6	63.9384
14.684	64.1295
14.768	64.1537
14.852	63.9972
14.936	63.9354
15.02	63.9786
15.104	64.0148
15.188	63.9403
15.272	63.7342
15.356	63.6768
15.44	63.9042
15.524	64.1295
15.608	64.2521
15.692	64.306
15.776	64.2015
15.86	64.0617
15.944	63.9975
16.028	63.917
16.112	63.8662
16.196	63.9498
16.28	64.0966
16.364	64.2076
16.448	64.2784
16.532	64.2775
16.616	64.1315
16.7	63.8625
16.784	63.6544
16.868	63.704
16.952	63.9719
17.036	64.2133
17.12	64.3127
17.204	64.3924
17.288	64.4874
17.372	64.3952
17.456	64.0235
17.54	63.6621
17.624	63.6337
17.708	63.8417
17.792	63.9871
17.876	64.1043
17.96	64.4878
18.044	65.0828
18.128	65.3547
18.212	64.9059
18.296	64.0048
18.38	63.3597
18.464	63.3948
18.548	63.9119
18.632	64.4812
18.716	64.9077
18.8	65.2177
18.884	65.4173
18.968	65.445
19.052	65.3282
19.136	65.2296
19.22	65.2967
19.304	65.5047
19.388	65.6822
19.472	65.6664
19.556	65.4214
19.64	65.0551
19.724	64.7543
19.808	64.6243
19.892	64.5776
19.976	64.4022
20.06	64.0061
20.144	63.5508
20.228	63.3172
20.312	63.443
20.396	63.8203
20.48	64.2288
20.564	64.5218
20.648	64.6641
20.732	64.6484
20.816	64.4407
20.9	64.038
20.984	63.5281
21.068	63.0715
21.152	62.7994
21.236	62.7418
21.32	62.8453
21.404	63.0423
21.488	63.2926
21.572	63.5577
21.656	63.7777
21.74	63.892
21.824	63.8943
21.908	63.8594
21.992	63.8918
22.076	64.0429
22.16	64.263
22.244	64.4363
22.328	64.4814
22.412	64.4072
22.496	64.3104
22.58	64.2741
22.664	64.3017
22.748	64.3037
22.832	64.1705
22.916	63.8614
23	63.4623
23.084	63.131
23.168	63.0176
23.252	63.1639
23.336	63.4918
23.42	63.8503
23.504	64.0905
23.588	64.1414
23.672	64.0252
23.756	63.8323
23.84	63.6808
23.924	63.6785
24.008	63.8951
24.092	64.3501
24.176	65.0011
24.26	65.7376
24.344	66.4042
24.428	66.8714
24.512	67.0645
24.596	67.0099
24.68	66.8206
24.764	66.6416
24.848	66.5971
24.932	66.6848
25.016	66.7619
25.1	66.6689
25.184	66.2804
25.268	65.5853
25.352	64.6948
25.436	63.7522
25.52	62.9045
25.604	62.2963
25.688	61.9096
25.772	61.6897
25.856	61.6349
25.94	62.2229
26.024	63.5725
26.108	64.7591
26.192	65.0224
26.276	64.4069
26.36	64.6684
26.444	66.8875
26.528	70.8269
26.612	73.3273
26.696	72.3604
26.78	69.2773
26.864	69.4735
26.948	78.2569
27.028	92.8159