File: Bakgrunnsmateriale/MATLAB/FTIR/ftir_data/subAa/Mapping_121/BZ1503107-1_t60_cm-1.asc
PE IR       SPECTRUM    SPECTRUM    ASCII       PEDS        1.60
  -1
BZ6821~1.ASC
17/04/07
18:08:58.00
17/04/07
18:08:58.00
tln
$BZ1503107-1_t0060$<tbV0>[2.6,0.0,8.0,0.0,27,1,0]
370
64

2002,4.07
MIRTGS : RIGHTBACK : INTERNAL 2
MIR : ON : INTERNAL 2
OPTKBR

0.200000
8
8.000000
FILLER
RATIO
SPECTRUM
UNLOCKED 256

DOUBLE
64
COMBINED
1
0
0

1.000000
RATIO

1
0
TRUE
51149
0
LEFT NOT FITTED RIGHT NOT FITTED 0
NONE
NONE
15600
12
4.427000
51148
TRUE
1 0 8 72 0 0 0 0

15798

#HDR
-1
-1
#GR
CM-1
%T
2.38419e-05
0.0
5000
-1.000000
4631
8
81.2887
57.2145
#DATA
5000	65.3455
4984	64.356
4968	64.3445
4952	66.0609
4936	65.0072
4920	63.6395
4904	64.8369
4888	64.6806
4872	64.8169
4856	64.7963
4840	64.8768
4824	64.8152
4808	64.8721
4792	64.5214
4776	64.5284
4760	64.9335
4744	64.7386
4728	65.0829
4712	64.8583
4696	64.7446
4680	65.1649
4664	64.7878
4648	64.7066
4632	65.1523
4616	65.056
4600	65.318
4584	65.3872
4568	65.3237
4552	65.4916
4536	65.4746
4520	65.5416
4504	66.0867
4488	65.8386
4472	65.4369
4456	65.4005
4440	61.8109
4424	60.2445
4408	65.3382
4392	65.9545
4376	65.5846
4360	65.8483
4344	65.6797
4328	65.5887
4312	65.238
4296	65.5137
4280	65.0458
4264	65.4275
4248	64.8141
4232	65.2422
4216	65.0735
4200	65.1246
4184	64.895
4168	64.6969
4152	64.7305
4136	64.8268
4120	64.9695
4104	64.7011
4088	64.9847
4072	64.929
4056	64.942
4040	64.9327
4024	65.0814
4008	65.0843
3992	65.0823
3976	65.3075
3960	65.1121
3944	65.0534
3928	64.9657
3912	65.0681
3896	65.1433
3880	65.0583
3864	65.1167
3848	65.441
3832	65.0874
3816	64.9765
3800	65.0382
3784	65.1403
3768	65.0276
3752	65.0103
3736	64.9301
3720	65.0015
3704	65.0768
3688	65.0316
3672	65.172
3656	65.0849
3640	65.1467
3624	65.0185
3608	64.9329
3592	64.9433
3576	64.952
3560	65.2322
3544	65.1456
3528	65.0571
3512	65.0627
3496	65.2017
3480	65.1599
3464	65.2051
3448	65.2311
3432	65.0098
3416	65.127
3400	64.9689
3384	64.9724
3368	65.185
3352	64.9254
3336	65.0141
3320	65.0189
3304	64.9616
3288	65.0654
3272	64.9255
3256	65.0728
3240	64.9289
3224	65.1593
3208	65.0434
3192	65.0497
3176	65.1049
3160	65.0139
3144	64.9188
3128	65.1357
3112	64.9029
3096	65.0113
3080	65.0326
3064	64.9476
3048	64.9705
3032	64.9374
3016	65.0734
3000	64.9324
2984	64.926
2968	64.7988
2952	64.7932
2936	64.8068
2920	64.8518
2904	64.8285
2888	64.9819
2872	64.8801
2856	65.0563
2840	64.9052
2824	64.9577
2808	64.9015
2792	64.8717
2776	64.9804
2760	64.886
2744	64.9661
2728	64.9521
2712	65.0756
2696	64.8437
2680	64.97
2664	64.8521
2648	64.8765
2632	64.8752
2616	64.9368
2600	64.9974
2584	64.9936
2568	64.8593
2552	64.8514
2536	64.7974
2520	64.8716
2504	64.7787
2488	64.9437
2472	64.7298
2456	64.7329
2440	64.8561
2424	64.7043
2408	64.7296
2392	64.7566
2376	64.6463
2360	64.7168
2344	64.6905
2328	64.7299
2312	64.6536
2296	64.7049
2280	64.7249
2264	64.7582
2248	64.6726
2232	64.6099
2216	64.7441
2200	64.6558
2184	64.6837
2168	64.6601
2152	64.6563
2136	64.6744
2120	64.5982
2104	64.6113
2088	64.6013
2072	64.5623
2056	64.674
2040	64.5101
2024	64.5862
2008	64.5277
1992	64.5936
1976	64.5068
1960	64.366
1944	64.5551
1928	64.4954
1912	64.4437
1896	64.4211
1880	64.4397
1864	64.3676
1848	64.4268
1832	64.397
1816	64.457
1800	64.3679
1784	64.4502
1768	64.3615
1752	64.2259
1736	64.1596
1720	64.273
1704	64.2452
1688	64.1984
1672	64.2272
1656	64.2162
1640	64.2848
1624	64.1397
1608	64.2065
1592	64.1122
1576	64.0854
1560	64.1322
1544	64.1439
1528	64.0871
1512	64.1302
1496	64.0808
1480	64.1942
1464	64.1193
1448	63.9514
1432	63.9823
1416	64.0884
1400	64.0246
1384	63.9411
1368	63.7992
1352	63.9077
1336	63.9081
1320	63.7974
1304	63.8605
1288	63.907
1272	63.885
1256	63.8313
1240	63.8724
1224	63.6817
1208	63.8058
1192	63.8047
1176	63.687
1160	63.6466
1144	63.5778
1128	63.5874
1112	63.7331
1096	63.7989
1080	63.7565
1064	63.7447
1048	63.5345
1032	63.5588
1016	63.6649
1000	63.6771
984	 63.7231
968	 63.5031
952	 63.711
936	 63.3441
920	 63.5941
904	 63.819
888	 63.4569
872	 63.6755
856	 63.7054
840	 63.7313
824	 63.4537
808	 63.3023
792	 63.5183
776	 63.5127
760	 63.5552
744	 63.2685
728	 63.1434
712	 63.1935
696	 63.0721
680	 63.7066
664	 63.0565
648	 63.4598
632	 63.0582
616	 63.7495
600	 63.1133
584	 62.9369
568	 63.4686
552	 63.1461
536	 62.8906
520	 62.761
504	 62.5072
488	 62.8138
472	 62.9816
456	 62.4169
440	 62.2544
424	 61.9751
408	 60.4545
392	 72.1905
376	 65.6993
370	 81.2887