File: Bakgrunnsmateriale/MATLAB/FTIR/ftir_data/subAa/Mapping_121/BZ1503107-1_t52_cm-1.asc
PE IR       SPECTRUM    SPECTRUM    ASCII       PEDS        1.60
  -1
BZ6AA3~1.ASC
17/04/07
17:31:23.00
17/04/07
17:31:23.00
tln
$BZ1503107-1_t0052$<tbV0>[-5.2,-2.6,8.0,0.0,27,1,0]
370
64

2002,4.07
MIRTGS : RIGHTBACK : INTERNAL 2
MIR : ON : INTERNAL 2
OPTKBR

0.200000
8
8.000000
FILLER
RATIO
SPECTRUM
UNLOCKED 256

DOUBLE
64
COMBINED
1
0
0

1.000000
RATIO

1
0
TRUE
51149
0
LEFT NOT FITTED RIGHT NOT FITTED 0
NONE
NONE
15600
12
4.427000
51148
TRUE
1 0 8 72 0 0 0 0

15798

#HDR
-1
-1
#GR
CM-1
%T
2.38419e-05
0.0
5000
-1.000000
4631
8
73.1369
54.122
#DATA
5000	66.481
4984	65.1844
4968	66.501
4952	64.6048
4936	65.3235
4920	64.0205
4904	64.9049
4888	65.2173
4872	64.1065
4856	64.5675
4840	64.6664
4824	64.5791
4808	64.548
4792	64.9049
4776	65.1073
4760	64.83
4744	64.9652
4728	64.7151
4712	64.5254
4696	64.8632
4680	65.1983
4664	64.6326
4648	64.6751
4632	64.5463
4616	64.6851
4600	64.795
4584	64.7373
4568	64.754
4552	65.2073
4536	64.5882
4520	65.0708
4504	65.0985
4488	64.561
4472	64.1587
4456	65.8922
4440	73.1369
4424	63.7033
4408	64.3578
4392	65.1382
4376	64.5449
4360	65.4237
4344	65.0471
4328	64.6689
4312	64.8882
4296	64.7938
4280	64.8153
4264	64.9991
4248	64.7976
4232	65.06
4216	64.9828
4200	64.9471
4184	64.9749
4168	65.2436
4152	64.9244
4136	65.063
4120	65.0918
4104	65.1373
4088	64.8134
4072	65.0938
4056	65.2312
4040	64.9222
4024	65.2645
4008	64.8606
3992	65.1664
3976	65.1382
3960	64.9643
3944	65.0276
3928	64.9481
3912	65.1593
3896	64.9336
3880	65.2762
3864	65.0553
3848	65.1396
3832	65.3152
3816	64.9277
3800	64.9074
3784	65.0637
3768	64.9544
3752	64.9919
3736	65.0444
3720	65.1744
3704	65.2869
3688	65.0605
3672	65.0288
3656	65.2274
3640	65.1483
3624	65.0835
3608	65.1026
3592	65.0647
3576	64.9759
3560	65.0946
3544	65.1688
3528	65.1255
3512	65.4088
3496	65.1569
3480	65.1608
3464	64.9759
3448	65.187
3432	65.0839
3416	65.0513
3400	64.8582
3384	65.1814
3368	65.2862
3352	64.9207
3336	65.141
3320	65.0739
3304	65.0123
3288	65.0546
3272	65.0441
3256	65.1771
3240	65.0439
3224	64.9281
3208	64.8987
3192	65.0952
3176	64.9489
3160	64.7248
3144	64.9792
3128	65.1324
3112	64.9776
3096	65.0091
3080	64.8897
3064	64.9621
3048	64.9076
3032	64.9476
3016	64.9908
3000	65.043
2984	64.9498
2968	64.8171
2952	64.9326
2936	64.8595
2920	64.6889
2904	64.8104
2888	64.9169
2872	64.7878
2856	64.9525
2840	64.9212
2824	64.96
2808	64.8846
2792	65.0457
2776	64.9518
2760	64.8578
2744	64.917
2728	65.0275
2712	64.9963
2696	64.9797
2680	64.9572
2664	64.9803
2648	64.8757
2632	64.943
2616	64.8293
2600	64.938
2584	64.831
2568	64.9219
2552	64.8233
2536	64.9276
2520	65.0158
2504	64.7893
2488	64.8533
2472	64.7763
2456	64.9405
2440	64.8213
2424	64.8344
2408	64.8689
2392	64.8957
2376	64.7741
2360	64.7418
2344	64.9007
2328	64.8082
2312	64.7318
2296	64.7293
2280	64.8408
2264	64.7418
2248	64.7346
2232	64.5927
2216	64.6658
2200	64.6927
2184	64.6734
2168	64.558
2152	64.7687
2136	64.7707
2120	64.7352
2104	64.6913
2088	64.6612
2072	64.5505
2056	64.6562
2040	64.5843
2024	64.5436
2008	64.6307
1992	64.5191
1976	64.585
1960	64.4815
1944	64.5766
1928	64.5939
1912	64.4914
1896	64.5087
1880	64.5103
1864	64.5831
1848	64.6623
1832	64.5408
1816	64.4458
1800	64.4574
1784	64.4503
1768	64.4646
1752	64.3648
1736	64.1346
1720	64.2323
1704	64.3376
1688	64.2223
1672	64.2332
1656	64.3215
1640	64.2072
1624	64.3315
1608	64.2073
1592	64.1859
1576	64.1067
1560	64.2221
1544	64.0981
1528	64.1949
1512	64.2077
1496	64.3269
1480	64.1464
1464	64.2122
1448	64.0026
1432	64.1769
1416	64.0967
1400	64.1194
1384	64.0412
1368	64.1597
1352	63.9548
1336	63.9575
1320	64.1317
1304	64.0556
1288	64.0541
1272	64.0448
1256	63.9757
1240	63.9709
1224	63.8562
1208	64.0141
1192	63.9136
1176	63.9176
1160	63.7648
1144	63.6815
1128	63.7228
1112	63.7345
1096	63.7123
1080	63.8201
1064	63.7407
1048	63.6283
1032	63.743
1016	63.5387
1000	63.8888
984	 63.8998
968	 63.7869
952	 63.6844
936	 63.4577
920	 63.8539
904	 63.9169
888	 63.5865
872	 63.6639
856	 63.8874
840	 63.6467
824	 63.6693
808	 63.7296
792	 63.4313
776	 63.5636
760	 63.5107
744	 63.6476
728	 63.3802
712	 63.3974
696	 63.0509
680	 63.5231
664	 63.5715
648	 63.7692
632	 62.8844
616	 63.3535
600	 63.6329
584	 63.2375
568	 63.1026
552	 62.312
536	 61.787
520	 63.3047
504	 63.1045
488	 62.4291
472	 62.4671
456	 63.3633
440	 62.4983
424	 65.14
408	 61.8806
392	 59.7296
376	 54.2482
370	 62.1351