File: Bakgrunnsmateriale/MATLAB/FTIR/ftir_data/subAa/Mapping_121/BZ1503107-1_t83_cm-1.asc
PE IR       SPECTRUM    SPECTRUM    ASCII       PEDS        1.60
  -1
BZ6B26~1.ASC
17/04/07
20:02:34.00
17/04/07
20:02:34.00
tln
$BZ1503107-1_t0083$<tbV0>[0.0,5.2,8.0,0.0,27,1,0]
370
64

2002,4.07
MIRTGS : RIGHTBACK : INTERNAL 2
MIR : ON : INTERNAL 2
OPTKBR

0.200000
8
8.000000
FILLER
RATIO
SPECTRUM
UNLOCKED 256

DOUBLE
64
COMBINED
1
0
0

1.000000
RATIO

1
0
TRUE
51149
0
LEFT NOT FITTED RIGHT NOT FITTED 0
NONE
NONE
15600
12
4.427000
51148
TRUE
1 0 8 72 0 0 0 0

15798

#HDR
-1
-1
#GR
CM-1
%T
2.38419e-05
0.0
5000
-1.000000
4631
8
78.435
47.3621
#DATA
5000	64.054
4984	64.6902
4968	66.046
4952	65.2119
4936	65.1267
4920	64.5046
4904	64.7695
4888	64.9288
4872	65.0594
4856	64.6607
4840	64.6324
4824	64.585
4808	64.5496
4792	65.0199
4776	64.7249
4760	64.8854
4744	65.2349
4728	65.2654
4712	64.9258
4696	65.1809
4680	64.5315
4664	64.7552
4648	64.3481
4632	64.9478
4616	64.8862
4600	64.4907
4584	64.8427
4568	64.7884
4552	64.4811
4536	64.5956
4520	64.3848
4504	64.3743
4488	64.9198
4472	63.9153
4456	64.5921
4440	66.7397
4424	67.3758
4408	67.0982
4392	63.1056
4376	63.7311
4360	64.5432
4344	64.6457
4328	64.4297
4312	64.5077
4296	64.6878
4280	64.7958
4264	64.9727
4248	64.8009
4232	64.5076
4216	64.5826
4200	64.6758
4184	65.0192
4168	65.1578
4152	64.826
4136	64.7773
4120	64.9661
4104	65.2594
4088	65.0095
4072	64.7685
4056	65.0893
4040	65.0488
4024	64.9798
4008	65.0548
3992	64.6463
3976	65.2667
3960	64.9528
3944	64.9738
3928	64.7511
3912	65.0307
3896	65.1747
3880	64.9485
3864	65.0532
3848	64.8736
3832	64.69
3816	64.8533
3800	65.0037
3784	65.1404
3768	64.8313
3752	64.9023
3736	65.1119
3720	65.0158
3704	65.0587
3688	65.1786
3672	65.1721
3656	65.1011
3640	65.0633
3624	64.9752
3608	65.1651
3592	65.0326
3576	65.0259
3560	64.9434
3544	64.9266
3528	65.2138
3512	65.1066
3496	65.0416
3480	65.0043
3464	65.0103
3448	65.1889
3432	64.7694
3416	64.8844
3400	64.9441
3384	64.8734
3368	64.8475
3352	65.0042
3336	65.149
3320	64.7752
3304	64.9405
3288	65.0006
3272	64.8334
3256	64.8413
3240	65.0045
3224	64.9813
3208	64.945
3192	64.9022
3176	64.9088
3160	65.0946
3144	65.0998
3128	64.6523
3112	64.8714
3096	64.7519
3080	64.8793
3064	65.0317
3048	64.9188
3032	64.7912
3016	64.9225
3000	64.9352
2984	64.694
2968	64.7954
2952	64.6048
2936	64.7674
2920	64.7688
2904	64.7346
2888	64.6687
2872	64.7712
2856	64.6917
2840	64.6774
2824	64.8338
2808	64.8349
2792	64.7594
2776	64.8709
2760	64.8368
2744	64.8817
2728	64.811
2712	64.8046
2696	64.771
2680	64.7989
2664	64.7707
2648	64.6527
2632	64.7305
2616	64.7058
2600	64.7782
2584	64.6914
2568	64.7313
2552	64.6176
2536	64.6621
2520	64.6288
2504	64.6104
2488	64.6132
2472	64.5312
2456	64.7198
2440	64.5528
2424	64.6168
2408	64.6453
2392	64.5103
2376	64.6773
2360	64.4801
2344	64.5028
2328	64.5676
2312	64.5358
2296	64.4113
2280	64.4546
2264	64.4991
2248	64.4124
2232	64.5747
2216	64.4128
2200	64.4878
2184	64.3409
2168	64.4375
2152	64.3213
2136	64.3735
2120	64.3949
2104	64.3756
2088	64.2853
2072	64.398
2056	64.2207
2040	64.3337
2024	64.4025
2008	64.3029
1992	64.1594
1976	64.2515
1960	64.3345
1944	64.2289
1928	64.2322
1912	64.3631
1896	64.2738
1880	64.2925
1864	64.1551
1848	64.2062
1832	64.1731
1816	64.124
1800	64.0598
1784	64.1175
1768	64.0724
1752	63.8887
1736	63.8069
1720	63.8296
1704	63.8349
1688	63.932
1672	63.7771
1656	63.8478
1640	63.8062
1624	64.0082
1608	63.7152
1592	63.7393
1576	63.9689
1560	63.8178
1544	63.7118
1528	63.8171
1512	63.9001
1496	63.7633
1480	63.6911
1464	63.4717
1448	63.6363
1432	63.7891
1416	63.688
1400	63.5364
1384	63.5357
1368	63.5647
1352	63.4543
1336	63.6345
1320	63.6354
1304	63.5346
1288	63.4442
1272	63.3531
1256	63.326
1240	63.4585
1224	63.4617
1208	63.3445
1192	63.3623
1176	63.3019
1160	63.2735
1144	63.3423
1128	63.3181
1112	63.2174
1096	63.2398
1080	63.2594
1064	63.3664
1048	63.208
1032	63.0852
1016	63.2411
1000	63.3688
984	 63.3882
968	 63.014
952	 63.1422
936	 63.2035
920	 63.3065
904	 63.2738
888	 63.2873
872	 63.4712
856	 63.113
840	 63.1012
824	 63.1478
808	 62.9682
792	 62.817
776	 63.0251
760	 62.8605
744	 63.0391
728	 62.8874
712	 63.0276
696	 62.8612
680	 63.1388
664	 62.5848
648	 62.3415
632	 62.5156
616	 62.6056
600	 62.8425
584	 63.1432
568	 62.4864
552	 62.6417
536	 62.861
520	 60.9472
504	 63.1277
488	 63.2737
472	 62.2847
456	 62.5952
440	 62.3483
424	 63.0808
408	 60.7343
392	 59.8104
376	 49.8425
370	 56.0812