File: Bakgrunnsmateriale/MATLAB/FTIR/ftir_data/subAa/Mapping_121/BZ1503107-1_t05.asc
PE IR       SPECTRUM    SPECTRUM    ASCII       PEDS        1.60
  -1
BZ1D55~1.ASC
17/04/07
13:38:58.00
17/04/07
13:39:24.00
tln
$BZ1503107-1_t0005$<tbV0>[2.6,-13.0,8.0,0.0,27,1,0]
27.028
64

2002,4.07
MIRTGS : RIGHTBACK : INTERNAL 2
MIR : ON : INTERNAL 2
OPTKBR

0.200000
8
8.000000
FILLER
RATIO
SPECTRUM
UNLOCKED 256

DOUBLE
64
COMBINED
1
0
0

0.002000
RATIO

1
0
TRUE
51149
0
LEFT NOT FITTED RIGHT NOT FITTED 0
NONE
NONE
15600
12
4.427000
51148
TRUE
1 0 8 72 0 0 0 0

15798

#HDR
-1
-1
#GR
µM
%T
2.38419e-05
0.0
2.000000
0.002000
12515
8
85.746
58.9055
#DATA
2.000000	 65.2549
2.084000	 65.9139
2.168000	 64.7909
2.252000	 66.6881
2.336000	 64.7465
2.420000	 65.1192
2.504000	 65.2173
2.588000	 64.8882
2.672000	 65.1697
2.756000	 65.2891
2.840000	 65.0332
2.924000	 65.0832
3.008000	 65.1129
3.092000	 65.041
3.176000	 65.0562
3.260000	 65.0123
3.344000	 65.0845
3.428000	 65.0615
3.512000	 65.1502
3.596000	 65.1096
3.680000	 65.1374
3.764000	 65.0681
3.848000	 65.0019
3.932000	 64.9601
4.016000	 65.1225
4.100000	 65.0573
4.184000	 65.058
4.268000	 65.049
4.352000	 65.0663
4.436000	 64.8956
4.520000	 64.869
4.604000	 64.9897
4.688000	 64.834
4.772000	 64.8355
4.856000	 64.9678
4.940000	 64.8983
5.024000	 64.8848
5.108000	 64.9026
5.192000	 64.7976
5.276000	 64.963
5.359999	 64.8817
5.444000	 64.8086
5.528000	 64.7933
5.612000	 64.7375
5.696000	 64.8557
5.780000	 64.5855
5.864000	 64.8203
5.948000	 64.7158
6.032000	 64.8114
6.116000	 64.7152
6.200000	 64.5936
6.284000	 64.7527
6.368000	 64.5656
6.452000	 64.7355
6.536000	 64.5618
6.620000	 64.7288
6.704000	 64.6134
6.788000	 64.7081
6.872000	 64.7446
6.956000	 64.5432
7.040000	 64.705
7.124000	 64.4655
7.208000	 64.5035
7.292000	 64.414
7.376000	 64.5594
7.460000	 64.4655
7.544000	 64.4394
7.628000	 64.4038
7.712000	 64.3449
7.796000	 64.39
7.880000	 64.3726
7.964000	 64.4067
8.048000	 64.3318
8.132000	 64.3062
8.216000	 64.391
8.300000	 64.3149
8.384000	 64.4562
8.468000	 64.2484
8.552000	 64.2709
8.635999	 64.32
8.719999	 64.1752
8.804000	 64.385
8.888000	 64.3067
8.972000	 64.3114
9.056000	 64.2254
9.140000	 64.3656
9.224000	 64.3661
9.308000	 64.1511
9.391999	 64.2755
9.475999	 64.3393
9.560000	 64.2827
9.644000	 64.3103
9.728000	 64.3912
9.812000	 64.2042
9.896000	 64.279
9.980000	 64.1602
10.064	64.1047
10.148	64.151
10.232	64.2639
10.316	64.1625
10.4	64.2553
10.484	64.2325
10.568	64.4987
10.652	64.3163
10.736	64.35
10.82	64.257
10.904	64.5131
10.988	64.3493
11.072	64.1079
11.156	64.2528
11.24	64.1665
11.324	64.1815
11.408	64.3106
11.492	64.2726
11.576	64.1552
11.66	64.2334
11.744	64.3823
11.828	64.3798
11.912	64.1496
11.996	63.9541
12.08	63.9644
12.164	64.1027
12.248	64.1485
12.332	64.1292
12.416	64.1021
12.5	63.9813
12.584	64.0138
12.668	64.1309
12.752	64.114
12.836	64.1151
12.92	64.3423
13.004	64.4044
13.088	64.2323
13.172	64.0768
13.256	64.1356
13.34	64.2292
13.424	64.034
13.508	63.8038
13.592	63.7578
13.676	63.9313
13.76	64.2279
13.844	64.3161
13.928	64.2409
14.012	64.0461
14.096	63.8331
14.18	63.8393
14.264	63.9729
14.348	64.0243
14.432	64.0411
14.516	64.0632
14.6	64.0385
14.684	64.056
14.768	64.0979
14.852	64.0208
14.936	63.8794
15.02	63.9041
15.104	64.1077
15.188	64.2084
15.272	64.1126
15.356	63.9679
15.44	63.9109
15.524	63.9557
15.608	63.9673
15.692	63.9226
15.776	63.936
15.86	63.9902
15.944	63.979
16.028	63.8549
16.112	63.7294
16.196	63.8019
16.28	64.0145
16.364	64.1042
16.448	64.0242
16.532	63.882
16.616	63.6923
16.7	63.4947
16.784	63.3953
16.868	63.4068
16.952	63.4985
17.036	63.7337
17.12	64.1273
17.204	64.4851
17.288	64.5685
17.372	64.3317
17.456	63.944
17.54	63.6459
17.624	63.5977
17.708	63.7889
17.792	64.0813
17.876	64.3328
17.96	64.4326
18.044	64.3128
18.128	64.0454
18.212	63.8027
18.296	63.6737
18.38	63.6183
18.464	63.5832
18.548	63.5726
18.632	63.6169
18.716	63.7284
18.8	63.9038
18.884	64.1267
18.968	64.3418
19.052	64.4741
19.136	64.5019
19.22	64.4867
19.304	64.4806
19.388	64.4423
19.472	64.2815
19.556	63.9767
19.64	63.6293
19.724	63.3903
19.808	63.3247
19.892	63.3512
19.976	63.3394
20.06	63.2714
20.144	63.2471
20.228	63.3487
20.312	63.5365
20.396	63.7084
20.48	63.8303
20.564	63.9831
20.648	64.2729
20.732	64.6929
20.816	65.0912
20.9	65.2616
20.984	65.0994
21.068	64.6749
21.152	64.1884
21.236	63.8584
21.32	63.8067
21.404	64.0289
21.488	64.4271
21.572	64.873
21.656	65.2528
21.74	65.4766
21.824	65.4795
21.908	65.2209
21.992	64.6842
22.076	63.8914
22.16	62.9291
22.244	61.9748
22.328	61.2586
22.412	60.9961
22.496	61.2959
22.58	62.0972
22.664	63.1994
22.748	64.3089
22.832	65.1468
22.916	65.5195
23	65.4001
23.084	64.8887
23.168	64.179
23.252	63.4686
23.336	62.9127
23.42	62.5627
23.504	62.4116
23.588	62.4251
23.672	62.5699
23.756	62.8187
23.84	63.1371
23.924	63.4945
24.008	63.8973
24.092	64.4032
24.176	65.0764
24.26	65.8843
24.344	66.6144
24.428	66.9318
24.512	66.4835
24.596	65.1285
24.68	63.0808
24.764	60.91
24.848	59.3273
24.932	58.9363
25.016	59.915
25.1	61.9857
25.184	64.5209
25.268	66.8096
25.352	68.2921
25.436	68.767
25.52	68.4103
25.604	67.5602
25.688	66.6508
25.772	65.9469
25.856	65.4011
25.94	65.1069
26.024	65.0982
26.108	65.1561
26.192	65.0787
26.276	64.8712
26.36	64.9124
26.444	65.6201
26.528	67.2528
26.612	69.3724
26.696	71.6017
26.78	74.0246
26.864	77.3301
26.948	81.8733
27.028	85.746