File: Bakgrunnsmateriale/MATLAB/FTIR/ftir_data/subAa/Mapping_121/BZ1503107-1_t44_cm-1.asc
PE IR       SPECTRUM    SPECTRUM    ASCII       PEDS        1.60
  -1
BZ6C24~1.ASC
17/04/07
16:47:28.00
17/04/07
16:47:28.00
tln
$BZ1503107-1_t0044$<tbV0>[-13.0,-5.2,8.0,0.0,27,1,0]
370
64

2002,4.07
MIRTGS : RIGHTBACK : INTERNAL 2
MIR : ON : INTERNAL 2
OPTKBR

0.200000
8
8.000000
FILLER
RATIO
SPECTRUM
UNLOCKED 256

DOUBLE
64
COMBINED
1
0
0

1.000000
RATIO

1
0
TRUE
51149
0
LEFT NOT FITTED RIGHT NOT FITTED 0
NONE
NONE
15600
12
4.427000
51148
TRUE
1 0 8 72 0 0 0 0

15798

#HDR
-1
-1
#GR
CM-1
%T
2.38419e-05
0.0
5000
-1.000000
4631
8
71.0333
40.3922
#DATA
5000	65.1152
4984	64.484
4968	63.9699
4952	64.0205
4936	64.4538
4920	64.5592
4904	64.6137
4888	64.7959
4872	64.9601
4856	64.8065
4840	64.9601
4824	64.7959
4808	64.8618
4792	64.7074
4776	64.6962
4760	64.8436
4744	65.0898
4728	64.9266
4712	65.2708
4696	64.4692
4680	64.6525
4664	64.4489
4648	65.1357
4632	64.6948
4616	64.6923
4600	64.1917
4584	64.5233
4568	64.2736
4552	64.3498
4536	64.2006
4520	64.7086
4504	64.3026
4488	64.0945
4472	64.1639
4456	64.4732
4440	66.203
4424	69.2825
4408	67.259
4392	63.8064
4376	64.2493
4360	64.1907
4344	64.2594
4328	64.4068
4312	64.358
4296	64.7815
4280	64.8477
4264	64.8278
4248	64.7148
4232	64.7909
4216	64.8512
4200	64.9428
4184	65.0993
4168	64.9505
4152	64.9675
4136	64.8176
4120	65.2062
4104	64.7964
4088	64.8461
4072	65.0711
4056	64.9151
4040	64.8815
4024	64.8219
4008	64.8609
3992	64.9075
3976	64.9078
3960	64.8756
3944	64.941
3928	64.7411
3912	64.919
3896	64.8414
3880	64.7785
3864	64.8177
3848	64.9996
3832	65.1523
3816	65.0831
3800	65.207
3784	65.0514
3768	65.1463
3752	64.694
3736	64.8604
3720	64.801
3704	65.0964
3688	64.8484
3672	65.0218
3656	65.0083
3640	64.9095
3624	65.1689
3608	65.1202
3592	65.0744
3576	64.783
3560	64.9488
3544	64.7771
3528	64.9722
3512	64.9151
3496	65.0444
3480	64.7182
3464	64.9476
3448	64.9667
3432	64.801
3416	64.7824
3400	65.124
3384	65.0668
3368	65.0879
3352	64.9683
3336	65.2368
3320	64.931
3304	64.8868
3288	64.8174
3272	65.0755
3256	64.9945
3240	65.021
3224	65.0141
3208	64.9953
3192	64.8298
3176	65.064
3160	64.9861
3144	64.9013
3128	65.0684
3112	65.0787
3096	65.042
3080	64.9001
3064	64.9643
3048	64.9069
3032	64.8606
3016	64.9033
3000	64.9488
2984	64.8336
2968	64.539
2952	64.8713
2936	64.7373
2920	64.7565
2904	64.7775
2888	64.7044
2872	64.9178
2856	64.9538
2840	64.8468
2824	64.8979
2808	64.9379
2792	64.9994
2776	65.0035
2760	64.9313
2744	65.0392
2728	64.8919
2712	64.9132
2696	64.9569
2680	65.0051
2664	64.8665
2648	64.9258
2632	64.8692
2616	64.7832
2600	64.7759
2584	64.8077
2568	64.8898
2552	64.7707
2536	64.8784
2520	64.7316
2504	64.9063
2488	64.8502
2472	64.8403
2456	64.7892
2440	64.801
2424	64.7531
2408	64.701
2392	64.9195
2376	64.7023
2360	64.7438
2344	64.9058
2328	64.89
2312	64.7915
2296	64.7215
2280	64.7936
2264	64.7305
2248	64.7878
2232	64.7457
2216	64.6948
2200	64.7864
2184	64.8302
2168	64.7411
2152	64.7186
2136	64.7066
2120	64.6211
2104	64.5342
2088	64.7126
2072	64.5746
2056	64.6013
2040	64.6453
2024	64.7404
2008	64.7102
1992	64.6384
1976	64.636
1960	64.739
1944	64.6156
1928	64.6299
1912	64.6174
1896	64.518
1880	64.536
1864	64.6303
1848	64.6642
1832	64.5174
1816	64.5385
1800	64.6068
1784	64.4536
1768	64.5016
1752	64.334
1736	64.0183
1720	64.185
1704	64.3138
1688	64.4252
1672	64.4093
1656	64.3649
1640	64.3089
1624	64.1931
1608	64.3657
1592	64.3428
1576	64.2249
1560	64.4215
1544	64.0465
1528	64.3643
1512	64.3983
1496	64.4353
1480	64.2933
1464	64.1965
1448	64.1155
1432	64.2951
1416	64.2385
1400	64.1356
1384	64.1824
1368	64.1733
1352	64.1281
1336	64.2278
1320	64.1787
1304	64.1251
1288	64.1241
1272	64.0009
1256	64.0909
1240	63.9577
1224	63.973
1208	63.9314
1192	63.8384
1176	63.9153
1160	63.9104
1144	63.8588
1128	63.6743
1112	63.9893
1096	63.9429
1080	63.8674
1064	64.0009
1048	63.8859
1032	64.0161
1016	64.0256
1000	63.8106
984	 63.9705
968	 64.0642
952	 64.1132
936	 63.9457
920	 64.035
904	 63.9148
888	 63.9969
872	 63.8739
856	 63.9157
840	 64.2633
824	 63.8863
808	 64.1166
792	 63.9381
776	 63.8029
760	 63.8048
744	 63.7409
728	 63.6632
712	 63.8305
696	 63.8053
680	 63.771
664	 63.5742
648	 63.7118
632	 63.1486
616	 64.3165
600	 63.9874
584	 63.529
568	 64.2027
552	 64.6359
536	 63.5135
520	 63.9015
504	 64.1083
488	 63.9934
472	 63.3888
456	 62.586
440	 62.3751
424	 62.8661
408	 67.9108
392	 62.6054
376	 41.4015
370	 55.588