File: Bakgrunnsmateriale/MATLAB/FTIR/ftir_data/subAa/Mapping_121/BZ1503107-1_t46.asc
PE IR       SPECTRUM    SPECTRUM    ASCII       PEDS        1.60
  -1
BZ216D~1.ASC
17/04/07
17:03:40.00
17/04/07
17:04:06.00
tln
$BZ1503107-1_t0046$<tbV0>[10.4,-2.6,8.0,0.0,27,1,0]
27.028
64

2002,4.07
MIRTGS : RIGHTBACK : INTERNAL 2
MIR : ON : INTERNAL 2
OPTKBR

0.200000
8
8.000000
FILLER
RATIO
SPECTRUM
UNLOCKED 256

DOUBLE
64
COMBINED
1
0
0

0.002000
RATIO

1
0
TRUE
51149
0
LEFT NOT FITTED RIGHT NOT FITTED 0
NONE
NONE
15600
12
4.427000
51148
TRUE
1 0 8 72 0 0 0 0

15798

#HDR
-1
-1
#GR
µM
%T
2.38419e-05
0.0
2.000000
0.002000
12515
8
66.4464
45.7127
#DATA
2.000000	 65.7518
2.084000	 64.6787
2.168000	 65.19
2.252000	 66.4194
2.336000	 65.2258
2.420000	 64.7152
2.504000	 65.0716
2.588000	 65.0937
2.672000	 64.9698
2.756000	 64.7774
2.840000	 65.0242
2.924000	 65.0498
3.008000	 65.047
3.092000	 64.849
3.176000	 64.978
3.260000	 64.831
3.344000	 64.9262
3.428000	 64.8921
3.512000	 64.9853
3.596000	 64.8905
3.680000	 64.8138
3.764000	 64.8504
3.848000	 64.9133
3.932000	 64.7627
4.016000	 64.7881
4.100000	 64.8175
4.184000	 64.7423
4.268000	 64.606
4.352000	 64.6833
4.436000	 64.6565
4.520000	 64.5748
4.604000	 64.564
4.688000	 64.5604
4.772000	 64.6954
4.856000	 64.538
4.940000	 64.639
5.024000	 64.5287
5.108000	 64.3155
5.192000	 64.427
5.276000	 64.3575
5.359999	 64.4476
5.444000	 64.4844
5.528000	 64.3276
5.612000	 64.3685
5.696000	 64.2784
5.780000	 64.0619
5.864000	 64.2392
5.948000	 64.272
6.032000	 64.1935
6.116000	 64.3005
6.200000	 64.2314
6.284000	 64.1594
6.368000	 64.1667
6.452000	 64.1746
6.536000	 64.1097
6.620000	 64.145
6.704000	 64.1876
6.788000	 64.1169
6.872000	 63.973
6.956000	 63.8241
7.040000	 64.1332
7.124000	 64.1112
7.208000	 64.0445
7.292000	 63.9473
7.376000	 64.0457
7.460000	 63.9642
7.544000	 64.0125
7.628000	 63.8897
7.712000	 63.9409
7.796000	 63.9852
7.880000	 64.0236
7.964000	 63.879
8.048000	 63.8409
8.132000	 63.88
8.216000	 63.8247
8.300000	 63.947
8.384000	 63.8489
8.468000	 63.8519
8.552000	 63.8622
8.635999	 63.6854
8.719999	 63.7424
8.804000	 63.9201
8.888000	 63.647
8.972000	 63.8122
9.056000	 63.6895
9.140000	 63.709
9.224000	 63.6559
9.308000	 63.76
9.391999	 63.9151
9.475999	 63.8031
9.560000	 63.7252
9.644000	 63.7115
9.728000	 63.6642
9.812000	 63.8069
9.896000	 63.6748
9.980000	 63.7016
10.064	63.738
10.148	63.6722
10.232	63.7724
10.316	63.776
10.4	63.5966
10.484	63.5493
10.568	63.4617
10.652	63.5608
10.736	63.6273
10.82	63.807
10.904	63.7328
10.988	63.6603
11.072	63.9034
11.156	63.7009
11.24	63.7757
11.324	63.7771
11.408	63.5594
11.492	63.4691
11.576	63.5905
11.66	63.9174
11.744	63.868
11.828	63.8399
11.912	63.8118
11.996	63.7965
12.08	63.8879
12.164	63.8167
12.248	63.7589
12.332	63.685
12.416	63.5833
12.5	63.658
12.584	63.6861
12.668	63.729
12.752	63.7186
12.836	63.579
12.92	63.5556
13.004	63.6605
13.088	63.8001
13.172	63.79
13.256	63.5785
13.34	63.4133
13.424	63.4978
13.508	63.5681
13.592	63.5109
13.676	63.4286
13.76	63.4295
13.844	63.4674
13.928	63.4974
14.012	63.6048
14.096	63.4708
14.18	63.1493
14.264	63.1253
14.348	63.2983
14.432	63.3876
14.516	63.4735
14.6	63.575
14.684	63.87
14.768	64.2297
14.852	64.1242
14.936	63.7314
15.02	63.453
15.104	63.3119
15.188	63.3826
15.272	63.6347
15.356	63.8939
15.44	64.0336
15.524	63.8838
15.608	63.4514
15.692	62.9664
15.776	62.6864
15.86	62.8959
15.944	63.6274
16.028	64.3981
16.112	64.6661
16.196	64.4422
16.28	64.1582
16.364	64.011
16.448	63.8075
16.532	63.4038
16.616	62.988
16.7	62.8758
16.784	63.1032
16.868	63.3246
16.952	63.2689
17.036	63.1593
17.12	63.3475
17.204	63.6935
17.288	63.7546
17.372	63.4339
17.456	63.0429
17.54	62.8751
17.624	63.0021
17.708	63.3272
17.792	63.6519
17.876	63.8276
17.96	63.8981
18.044	63.9875
18.128	64.1024
18.212	64.2029
18.296	64.318
18.38	64.4071
18.464	64.2645
18.548	63.7728
18.632	63.1554
18.716	62.807
18.8	62.9061
18.884	63.3037
18.968	63.7296
19.052	64.0056
19.136	64.1041
19.22	64.0953
19.304	64.0495
19.388	63.9829
19.472	63.8799
19.556	63.7492
19.64	63.6329
19.724	63.5571
19.808	63.4971
19.892	63.4082
19.976	63.2826
20.06	63.1542
20.144	63.0788
20.228	63.1058
20.312	63.2435
20.396	63.4414
20.48	63.6018
20.564	63.6291
20.648	63.4838
20.732	63.2063
20.816	62.9042
20.9	62.6997
20.984	62.6696
21.068	62.8096
21.152	63.0447
21.236	63.2805
21.32	63.4738
21.404	63.6535
21.488	63.8818
21.572	64.1789
21.656	64.4848
21.74	64.6852
21.824	64.6721
21.908	64.4184
21.992	64.0017
22.076	63.5631
22.16	63.244
22.244	63.0996
22.328	63.0863
22.412	63.1044
22.496	63.0511
22.58	62.8867
22.664	62.6268
22.748	62.3185
22.832	62.0177
22.916	61.7632
23	61.5957
23.084	61.5664
23.168	61.7344
23.252	62.1381
23.336	62.7741
23.42	63.5778
23.504	64.4301
23.588	65.1717
23.672	65.6476
23.756	65.7452
23.84	65.4153
23.924	64.6737
24.008	63.5906
24.092	62.2702
24.176	60.8192
24.26	59.3446
24.344	57.9832
24.428	56.8925
24.512	56.2487
24.596	56.1772
24.68	56.7069
24.764	57.7289
24.848	58.9967
24.932	60.1807
25.016	61.0036
25.1	61.348
25.184	61.2701
25.268	60.9469
25.352	60.5627
25.436	60.2141
25.52	59.8183
25.604	59.15
25.688	57.9827
25.772	56.2659
25.856	54.2048
25.94	52.2225
26.024	50.8349
26.108	50.4193
26.192	51.055
26.276	52.4649
26.36	54.0681
26.444	55.165
26.528	55.2392
26.612	54.1947
26.696	52.4032
26.78	50.5668
26.864	49.4984
26.948	49.7574
27.028	51.2612