File: Bakgrunnsmateriale/MATLAB/FTIR/ftir_data/subAa/Mapping_121/BZ1503107-1_t20.asc
PE IR       SPECTRUM    SPECTRUM    ASCII       PEDS        1.60
  -1
BZ2949~1.ASC
17/04/07
14:48:50.00
17/04/07
14:49:17.00
tln
$BZ1503107-1_t0020$<tbV0>[-7.8,-10.4,8.0,0.0,27,1,0]
27.028
64

2002,4.07
MIRTGS : RIGHTBACK : INTERNAL 2
MIR : ON : INTERNAL 2
OPTKBR

0.200000
8
8.000000
FILLER
RATIO
SPECTRUM
UNLOCKED 256

DOUBLE
64
COMBINED
1
0
0

0.002000
RATIO

1
0
TRUE
51149
0
LEFT NOT FITTED RIGHT NOT FITTED 0
NONE
NONE
15600
12
4.427000
51148
TRUE
1 0 8 72 0 0 0 0

15798

#HDR
-1
-1
#GR
µM
%T
2.38419e-05
0.0
2.000000
0.002000
12515
8
78.4285
26.4633
#DATA
2.000000	 61.0909
2.084000	 61.06
2.168000	 60.4606
2.252000	 48.7377
2.336000	 60.5445
2.420000	 61.0766
2.504000	 60.7289
2.588000	 61.0371
2.672000	 61.4032
2.756000	 61.457
2.840000	 61.2472
2.924000	 61.5269
3.008000	 61.5117
3.092000	 61.4152
3.176000	 61.6653
3.260000	 61.7268
3.344000	 61.6609
3.428000	 61.548
3.512000	 61.9103
3.596000	 62.0111
3.680000	 61.8749
3.764000	 62.0142
3.848000	 62.0269
3.932000	 62.0633
4.016000	 62.1436
4.100000	 62.0881
4.184000	 62.0757
4.268000	 62.2119
4.352000	 62.2081
4.436000	 62.2057
4.520000	 62.269
4.604000	 62.3246
4.688000	 62.2249
4.772000	 62.2836
4.856000	 62.3205
4.940000	 62.4221
5.024000	 62.3886
5.108000	 62.4778
5.192000	 62.4563
5.276000	 62.4537
5.359999	 62.6258
5.444000	 62.6099
5.528000	 62.4512
5.612000	 62.5558
5.696000	 62.5964
5.780000	 62.1702
5.864000	 62.6538
5.948000	 62.8085
6.032000	 62.6072
6.116000	 62.6812
6.200000	 62.6235
6.284000	 62.7226
6.368000	 62.8156
6.452000	 62.6087
6.536000	 62.6941
6.620000	 62.9013
6.704000	 62.756
6.788000	 62.9507
6.872000	 62.7581
6.956000	 62.7138
7.040000	 62.805
7.124000	 62.7032
7.208000	 62.8324
7.292000	 62.7738
7.376000	 62.953
7.460000	 62.8514
7.544000	 62.8136
7.628000	 62.7665
7.712000	 62.782
7.796000	 62.8024
7.880000	 62.7759
7.964000	 62.7798
8.048000	 62.7598
8.132000	 62.795
8.216000	 62.8593
8.300000	 62.8351
8.384000	 62.8668
8.468000	 62.8282
8.552000	 62.813
8.635999	 62.7994
8.719999	 62.7666
8.804000	 63.2309
8.888000	 63.1048
8.972000	 62.957
9.056000	 63.0276
9.140000	 62.9386
9.224000	 63.1532
9.308000	 63.0308
9.391999	 62.9182
9.475999	 62.9689
9.560000	 62.8877
9.644000	 62.9644
9.728000	 63.0808
9.812000	 63.0904
9.896000	 63.036
9.980000	 63.1031
10.064	63.1513
10.148	63.253
10.232	63.1848
10.316	62.9865
10.4	63.1297
10.484	63.2079
10.568	63.4443
10.652	63.2393
10.736	63.2459
10.82	63.1968
10.904	63.1881
10.988	63.1688
11.072	63.115
11.156	63.2391
11.24	63.2221
11.324	63.1154
11.408	63.1874
11.492	63.3253
11.576	63.3397
11.66	63.3381
11.744	63.3533
11.828	63.2646
11.912	63.3536
11.996	63.0406
12.08	62.9519
12.164	63.1357
12.248	63.1821
12.332	63.279
12.416	63.2501
12.5	63.1072
12.584	63.2217
12.668	63.207
12.752	63.3181
12.836	63.3863
12.92	63.349
13.004	63.3456
13.088	63.3015
13.172	63.1026
13.256	62.9807
13.34	63.0125
13.424	63.1222
13.508	63.0809
13.592	63.049
13.676	63.2013
13.76	63.2531
13.844	63.0851
13.928	63.0229
14.012	63.21
14.096	63.2977
14.18	63.2777
14.264	63.2543
14.348	63.1586
14.432	62.9882
14.516	62.9378
14.6	63.1102
14.684	63.1006
14.768	63.0348
14.852	63.2194
14.936	63.3387
15.02	63.2406
15.104	63.0469
15.188	62.7717
15.272	62.5574
15.356	62.6559
15.44	63.0151
15.524	63.3696
15.608	63.5801
15.692	63.5833
15.776	63.4826
15.86	63.6092
15.944	64.0043
16.028	64.2991
16.112	64.2119
16.196	63.9203
16.28	63.9319
16.364	64.3552
16.448	64.5986
16.532	64.2886
16.616	63.8675
16.7	63.9355
16.784	64.5462
16.868	65.2005
16.952	65.344
17.036	64.9765
17.12	64.6237
17.204	64.5199
17.288	64.3128
17.372	63.7464
17.456	63.0832
17.54	62.6701
17.624	62.5767
17.708	62.8298
17.792	63.505
17.876	64.3764
17.96	64.8459
18.044	64.549
18.128	63.8318
18.212	63.3895
18.296	63.508
18.38	63.8144
18.464	63.8053
18.548	63.4136
18.632	62.9792
18.716	62.8148
18.8	62.9533
18.884	63.2371
18.968	63.5015
19.052	63.6585
19.136	63.7307
19.22	63.8397
19.304	64.0614
19.388	64.2858
19.472	64.2744
19.556	63.9128
19.64	63.3796
19.724	63.0131
19.808	63.0129
19.892	63.2802
19.976	63.5537
20.06	63.6591
20.144	63.6228
20.228	63.5673
20.312	63.5462
20.396	63.5122
20.48	63.4244
20.564	63.3442
20.648	63.4008
20.732	63.6598
20.816	64.0478
20.9	64.4043
20.984	64.6002
21.068	64.6142
21.152	64.5019
21.236	64.3207
21.32	64.0901
21.404	63.8193
21.488	63.5507
21.572	63.3599
21.656	63.2969
21.74	63.3434
21.824	63.4248
21.908	63.4692
21.992	63.4609
22.076	63.4342
22.16	63.428
22.244	63.4415
22.328	63.4391
22.412	63.3954
22.496	63.3338
22.58	63.3128
22.664	63.3905
22.748	63.592
22.832	63.8985
22.916	64.2694
23	64.6499
23.084	64.992
23.168	65.2357
23.252	65.3266
23.336	65.2481
23.42	65.0207
23.504	64.712
23.588	64.4133
23.672	64.1963
23.756	64.0916
23.84	64.1203
23.924	64.2824
24.008	64.5827
24.092	65.0331
24.176	65.5964
24.26	66.1934
24.344	66.7174
24.428	67.1054
24.512	67.4081
24.596	67.7676
24.68	68.4009
24.764	69.522
24.848	71.1897
24.932	73.253
25.016	75.3737
25.1	77.1766
25.184	78.2564
25.268	78.3307
25.352	77.3377
25.436	75.283
25.52	72.2898
25.604	68.6381
25.688	64.5963
25.772	60.5086
25.856	56.7848
25.94	54.2312
26.024	53.1626
26.108	52.6695
26.192	51.818
26.276	50.2805
26.36	49.2975
26.444	49.3999
26.528	49.9709
26.612	47.7461
26.696	41.0111
26.78	31.7976
26.864	26.5027
26.948	31.5844
27.028	45.3156