File: Bakgrunnsmateriale/MATLAB/FTIR/ftir_data/subAa/Mapping_121/BZ1503107-1_t16_cm-1.asc
PE IR       SPECTRUM    SPECTRUM    ASCII       PEDS        1.60
  -1
BZ6EA1~1.ASC
17/04/07
14:30:22.00
17/04/07
14:30:22.00
tln
$BZ1503107-1_t0016$<tbV0>[2.6,-10.4,8.0,0.0,27,1,0]
370
64

2002,4.07
MIRTGS : RIGHTBACK : INTERNAL 2
MIR : ON : INTERNAL 2
OPTKBR

0.200000
8
8.000000
FILLER
RATIO
SPECTRUM
UNLOCKED 256

DOUBLE
64
COMBINED
1
0
0

1.000000
RATIO

1
0
TRUE
51149
0
LEFT NOT FITTED RIGHT NOT FITTED 0
NONE
NONE
15600
12
4.427000
51148
TRUE
1 0 8 72 0 0 0 0

15798

#HDR
-1
-1
#GR
CM-1
%T
2.38419e-05
0.0
5000
-1.000000
4631
8
75.3547
38.1804
#DATA
5000	64.2256
4984	65.4515
4968	64.2866
4952	66.3897
4936	63.5376
4920	65.4395
4904	64.5523
4888	65.5398
4872	64.4736
4856	64.8958
4840	65.4844
4824	65.4782
4808	64.8539
4792	65.4878
4776	64.8951
4760	65.533
4744	64.8422
4728	64.9911
4712	64.464
4696	64.885
4680	65.0366
4664	65.0455
4648	64.5862
4632	64.7776
4616	64.5976
4600	64.5842
4584	64.6201
4568	64.5827
4552	64.307
4536	64.5176
4520	64.5291
4504	65.0509
4488	67.7057
4472	65.1348
4456	62.3245
4440	68.6803
4424	67.4719
4408	64.8115
4392	65.1866
4376	65.0339
4360	64.4654
4344	65.4579
4328	64.8776
4312	65.0331
4296	65.0222
4280	64.9968
4264	65.0496
4248	65.1433
4232	65.1051
4216	65.16
4200	65.2353
4184	64.8539
4168	65.2779
4152	65.0653
4136	65.2747
4120	65.0222
4104	65.2632
4088	65.118
4072	65.2345
4056	65.165
4040	65.1471
4024	65.1273
4008	65.1352
3992	65.1368
3976	65.1191
3960	65.1814
3944	65.519
3928	64.8244
3912	64.9801
3896	65.0092
3880	65.0429
3864	65.1094
3848	65.4366
3832	65.3359
3816	65.3565
3800	65.1077
3784	65.1554
3768	65.25
3752	65.5269
3736	65.3523
3720	65.2375
3704	65.2853
3688	65.3182
3672	65.5545
3656	65.2844
3640	65.2657
3624	65.5569
3608	65.3203
3592	65.235
3576	65.3288
3560	65.1788
3544	65.0988
3528	65.0361
3512	65.2743
3496	65.0937
3480	65.3175
3464	64.9523
3448	65.104
3432	65.3017
3416	65.369
3400	65.2429
3384	65.1486
3368	65.1731
3352	65.1246
3336	65.3073
3320	65.3726
3304	65.1051
3288	65.3516
3272	65.2343
3256	65.2221
3240	64.9878
3224	65.1062
3208	65.222
3192	65.2433
3176	65.2692
3160	65.2259
3144	65.0476
3128	65.0812
3112	65.0365
3096	65.2895
3080	65.0906
3064	65.2024
3048	65.1443
3032	65.2041
3016	65.1589
3000	65.076
2984	65.1027
2968	65.1874
2952	64.9224
2936	65.1278
2920	65.0083
2904	65.0455
2888	65.0643
2872	65.1159
2856	65.0119
2840	65.096
2824	64.9762
2808	65.0509
2792	65.0861
2776	65.1628
2760	65.0671
2744	65.0854
2728	65.0875
2712	65.1409
2696	65.1196
2680	65.0842
2664	65.047
2648	65.048
2632	65.0977
2616	65.0995
2600	65.0312
2584	65.1519
2568	65.0373
2552	65.1208
2536	65.0829
2520	65.1415
2504	65.1398
2488	65.0989
2472	65.0862
2456	65.0647
2440	64.9556
2424	65.0218
2408	65.0282
2392	64.9266
2376	65.0999
2360	65.1085
2344	65.0711
2328	65.0091
2312	64.9616
2296	64.9279
2280	65.0178
2264	64.9461
2248	64.9718
2232	64.9374
2216	64.9468
2200	64.9506
2184	64.9469
2168	65.036
2152	64.7335
2136	64.8338
2120	65.0132
2104	64.8389
2088	64.9046
2072	64.8962
2056	64.8668
2040	64.8273
2024	64.8831
2008	64.9528
1992	64.8445
1976	64.8284
1960	64.8811
1944	64.8785
1928	64.7506
1912	64.8456
1896	64.9209
1880	64.7841
1864	64.8182
1848	64.8109
1832	64.762
1816	64.8792
1800	64.8488
1784	64.8069
1768	64.896
1752	64.7037
1736	64.4413
1720	64.6614
1704	64.7396
1688	64.7584
1672	64.7591
1656	64.7761
1640	64.7177
1624	64.75
1608	64.6426
1592	64.7068
1576	64.818
1560	64.9416
1544	64.8539
1528	64.7113
1512	64.8055
1496	64.7869
1480	64.5863
1464	64.4974
1448	64.5426
1432	64.5974
1416	64.4472
1400	64.5301
1384	64.4012
1368	64.4813
1352	64.4453
1336	64.4952
1320	64.3324
1304	64.2388
1288	64.4322
1272	64.1876
1256	64.242
1240	64.2317
1224	64.252
1208	64.2428
1192	64.3889
1176	64.088
1160	64.1205
1144	64.219
1128	64.5187
1112	64.175
1096	64.0837
1080	64.4006
1064	64.1062
1048	64.1836
1032	64.2838
1016	64.2233
1000	64.1579
984	 63.915
968	 64.2407
952	 64.2814
936	 64.2135
920	 64.3421
904	 64.1368
888	 64.0274
872	 64.1667
856	 64.3011
840	 64.1955
824	 64.0912
808	 64.2111
792	 64.1851
776	 64.2246
760	 64.0983
744	 63.9965
728	 64.1206
712	 64.2174
696	 64.193
680	 63.7838
664	 63.5299
648	 64.0686
632	 63.9971
616	 63.8976
600	 64.2604
584	 64.4325
568	 63.8409
552	 65.0163
536	 64.4759
520	 63.4984
504	 63.0894
488	 63.3914
472	 63.4379
456	 63.6085
440	 64.459
424	 65.5068
408	 65.065
392	 61.6711
376	 73.4749
370	 51.1831