File: Bakgrunnsmateriale/MATLAB/FTIR/ftir_data/subAa/Mapping_121/BZ1503107-1_t54_cm-1.asc
PE IR       SPECTRUM    SPECTRUM    ASCII       PEDS        1.60
  -1
BZ6CA3~1.ASC
17/04/07
17:40:37.00
17/04/07
17:40:37.00
tln
$BZ1503107-1_t0054$<tbV0>[-10.4,-2.6,8.0,0.0,27,1,0]
370
64

2002,4.07
MIRTGS : RIGHTBACK : INTERNAL 2
MIR : ON : INTERNAL 2
OPTKBR

0.200000
8
8.000000
FILLER
RATIO
SPECTRUM
UNLOCKED 256

DOUBLE
64
COMBINED
1
0
0

1.000000
RATIO

1
0
TRUE
51149
0
LEFT NOT FITTED RIGHT NOT FITTED 0
NONE
NONE
15600
12
4.427000
51148
TRUE
1 0 8 72 0 0 0 0

15798

#HDR
-1
-1
#GR
CM-1
%T
2.38419e-05
0.0
5000
-1.000000
4631
8
67.1367
45.0945
#DATA
5000	64.8395
4984	65.3744
4968	64.2222
4952	65.3199
4936	64.5595
4920	64.4648
4904	65.0977
4888	65.047
4872	64.6462
4856	64.765
4840	64.554
4824	65.1186
4808	64.4629
4792	64.8878
4776	64.6656
4760	64.8028
4744	64.7123
4728	64.8342
4712	64.7977
4696	64.8142
4680	65.0666
4664	64.9673
4648	64.9467
4632	64.9189
4616	64.6279
4600	65.1898
4584	64.7826
4568	64.6601
4552	64.835
4536	64.8106
4520	64.8277
4504	64.8675
4488	64.5697
4472	64.4333
4456	66.0217
4440	67.0261
4424	56.9427
4408	63.9814
4392	65.0603
4376	64.9453
4360	65.4259
4344	64.8563
4328	65.0921
4312	64.7593
4296	65.0113
4280	64.9596
4264	65.1119
4248	64.8178
4232	64.943
4216	65.2311
4200	64.878
4184	65.1914
4168	64.9242
4152	64.9823
4136	64.8803
4120	65.0566
4104	64.9716
4088	64.906
4072	64.8024
4056	65.0608
4040	65.24
4024	65.0367
4008	64.8468
3992	65.2032
3976	65.1351
3960	64.9674
3944	65.1188
3928	64.7455
3912	65.0871
3896	64.8616
3880	64.9879
3864	65.1871
3848	64.9038
3832	65.0426
3816	64.9349
3800	64.9751
3784	65.1357
3768	64.9552
3752	65.1978
3736	65.009
3720	65.1059
3704	65.1839
3688	65.071
3672	64.9749
3656	65.1043
3640	65.2404
3624	64.9616
3608	64.9557
3592	65.0079
3576	65.0058
3560	65.0673
3544	65.0709
3528	64.8779
3512	65.1083
3496	64.9306
3480	65.0503
3464	65.1359
3448	64.9904
3432	64.7964
3416	65.0485
3400	64.9442
3384	64.9774
3368	65.2451
3352	64.9872
3336	65.1371
3320	65.0839
3304	65.2131
3288	65.0009
3272	65.0919
3256	65.0645
3240	65.1128
3224	65.0764
3208	65.0487
3192	65.0419
3176	64.983
3160	64.8708
3144	65.0822
3128	64.974
3112	64.8631
3096	65.1073
3080	65.0396
3064	65.0424
3048	64.9932
3032	64.9554
3016	64.9296
3000	65.1145
2984	64.9995
2968	64.7424
2952	64.9784
2936	64.8098
2920	64.7989
2904	64.804
2888	64.9743
2872	64.9418
2856	65.0219
2840	64.9363
2824	64.998
2808	65.0187
2792	64.9317
2776	65.0072
2760	64.9803
2744	65.09
2728	65.0059
2712	64.9922
2696	64.8919
2680	64.9801
2664	64.96
2648	64.9532
2632	64.98
2616	64.8548
2600	64.9099
2584	64.8977
2568	64.8226
2552	64.8419
2536	64.8087
2520	64.851
2504	64.8923
2488	64.9597
2472	64.8145
2456	64.8909
2440	64.8761
2424	64.9145
2408	64.8512
2392	64.8782
2376	64.8318
2360	64.8133
2344	64.7924
2328	64.72
2312	64.7444
2296	64.8269
2280	64.8253
2264	64.7539
2248	64.7538
2232	64.8029
2216	64.7356
2200	64.7968
2184	64.596
2168	64.6818
2152	64.7876
2136	64.7576
2120	64.7884
2104	64.7063
2088	64.7103
2072	64.6399
2056	64.6972
2040	64.6158
2024	64.6476
2008	64.72
1992	64.5945
1976	64.616
1960	64.4887
1944	64.5775
1928	64.6567
1912	64.6451
1896	64.5614
1880	64.5194
1864	64.551
1848	64.6272
1832	64.489
1816	64.4956
1800	64.4638
1784	64.4374
1768	64.5042
1752	64.3547
1736	64.0902
1720	64.1171
1704	64.3907
1688	64.3963
1672	64.2754
1656	64.3667
1640	64.3248
1624	64.2661
1608	64.3039
1592	64.3008
1576	64.1257
1560	64.2304
1544	64.2628
1528	64.2319
1512	64.2669
1496	64.2058
1480	64.1827
1464	64.1368
1448	64.0636
1432	64.0692
1416	64.2344
1400	64.1732
1384	64.0155
1368	64.0948
1352	64.1027
1336	64.0014
1320	64.1036
1304	64.1411
1288	64.1299
1272	63.988
1256	63.9649
1240	64.0357
1224	63.8304
1208	63.9953
1192	63.8906
1176	63.977
1160	63.7067
1144	63.7485
1128	63.8762
1112	63.8276
1096	63.8858
1080	63.7686
1064	63.7603
1048	63.7044
1032	63.7828
1016	63.6943
1000	63.8524
984	 63.8999
968	 63.8448
952	 63.5704
936	 63.6738
920	 63.8709
904	 63.69
888	 63.7886
872	 63.9492
856	 63.8381
840	 63.8305
824	 63.6979
808	 63.6211
792	 63.6793
776	 63.7202
760	 63.5036
744	 63.5658
728	 63.6063
712	 63.7516
696	 63.4461
680	 63.4776
664	 63.1423
648	 63.7751
632	 62.7054
616	 63.2739
600	 63.863
584	 62.9977
568	 63.5204
552	 63.1974
536	 62.5014
520	 64.2725
504	 63.498
488	 63.2583
472	 62.0441
456	 62.9912
440	 61.8217
424	 63.2115
408	 59.6001
392	 62.1227
376	 57.5622
370	 45.0945