File: Bakgrunnsmateriale/MATLAB/FTIR/ftir_data/subAa/Mapping_121/BZ1503107-1_t49_cm-1.asc
PE IR       SPECTRUM    SPECTRUM    ASCII       PEDS        1.60
  -1
BZ6134~1.ASC
17/04/07
17:17:31.00
17/04/07
17:17:31.00
tln
$BZ1503107-1_t0049$<tbV0>[2.6,-2.6,8.0,0.0,27,1,0]
370
64

2002,4.07
MIRTGS : RIGHTBACK : INTERNAL 2
MIR : ON : INTERNAL 2
OPTKBR

0.200000
8
8.000000
FILLER
RATIO
SPECTRUM
UNLOCKED 256

DOUBLE
64
COMBINED
1
0
0

1.000000
RATIO

1
0
TRUE
51149
0
LEFT NOT FITTED RIGHT NOT FITTED 0
NONE
NONE
15600
12
4.427000
51148
TRUE
1 0 8 72 0 0 0 0

15798

#HDR
-1
-1
#GR
CM-1
%T
2.38419e-05
0.0
5000
-1.000000
4631
8
83.0601
55.7191
#DATA
5000	67.5335
4984	64.1126
4968	64.5782
4952	64.8127
4936	65.0811
4920	65.035
4904	64.8875
4888	65.0157
4872	64.5216
4856	65.0827
4840	64.968
4824	64.598
4808	64.8398
4792	64.6025
4776	64.9811
4760	64.9336
4744	64.8291
4728	65.0888
4712	64.7184
4696	64.8707
4680	65.0688
4664	64.7584
4648	64.755
4632	65.068
4616	64.6006
4600	65.2137
4584	65.0919
4568	64.919
4552	65.186
4536	65.2021
4520	65.1322
4504	64.7701
4488	64.6679
4472	64.544
4456	65.4985
4440	63.1949
4424	55.9356
4408	65.3514
4392	64.5368
4376	64.9873
4360	65.4454
4344	65.1446
4328	64.9657
4312	65.1888
4296	65.1378
4280	65.2042
4264	65.0614
4248	64.7528
4232	65.132
4216	65.0156
4200	64.8716
4184	65.1087
4168	65.0875
4152	64.8111
4136	65.0522
4120	65.0393
4104	65.2009
4088	64.6754
4072	64.8665
4056	65.2073
4040	64.9677
4024	65.0225
4008	64.7129
3992	65.2616
3976	65.2645
3960	65.0668
3944	65.0016
3928	65.031
3912	65.0508
3896	65.1528
3880	65.0155
3864	65.1115
3848	65.1848
3832	65.1528
3816	65.0939
3800	65.0662
3784	65.2407
3768	65.0949
3752	65.2372
3736	65.1955
3720	65.085
3704	65.2784
3688	64.9819
3672	65.0038
3656	65.1453
3640	65.267
3624	64.8905
3608	65.172
3592	64.9443
3576	64.9298
3560	65.0146
3544	65.0301
3528	64.8739
3512	65.0733
3496	65.2905
3480	65.1797
3464	65.0154
3448	65.0413
3432	64.999
3416	64.925
3400	65.0545
3384	65.0176
3368	65.2661
3352	64.8325
3336	64.9309
3320	65.0503
3304	65.0359
3288	65.018
3272	64.9126
3256	65.0848
3240	64.9534
3224	65.2098
3208	65.0593
3192	65.1287
3176	65.1077
3160	65.101
3144	65.0224
3128	65.126
3112	64.9163
3096	65.1942
3080	65.002
3064	65.0019
3048	65.036
3032	65.0782
3016	65.0033
3000	65.0976
2984	64.8199
2968	64.9499
2952	64.8939
2936	64.8176
2920	64.8461
2904	64.9215
2888	65.0055
2872	64.9335
2856	64.8624
2840	64.9069
2824	64.977
2808	64.8455
2792	64.8513
2776	64.8667
2760	64.8653
2744	64.9294
2728	64.9144
2712	64.9946
2696	64.9473
2680	64.9421
2664	64.8677
2648	64.87
2632	64.9236
2616	64.9384
2600	64.8427
2584	64.818
2568	64.724
2552	64.9021
2536	64.8565
2520	64.9431
2504	64.7815
2488	64.9615
2472	64.8174
2456	64.7987
2440	64.8599
2424	64.8425
2408	64.8288
2392	64.8005
2376	64.7705
2360	64.8289
2344	64.768
2328	64.7338
2312	64.7578
2296	64.7982
2280	64.7469
2264	64.793
2248	64.596
2232	64.7363
2216	64.8376
2200	64.784
2184	64.6205
2168	64.6444
2152	64.6732
2136	64.6945
2120	64.7533
2104	64.6235
2088	64.6266
2072	64.638
2056	64.7031
2040	64.5488
2024	64.6127
2008	64.647
1992	64.7238
1976	64.5823
1960	64.5253
1944	64.5841
1928	64.5698
1912	64.5931
1896	64.4275
1880	64.5066
1864	64.5564
1848	64.5824
1832	64.4977
1816	64.4828
1800	64.4778
1784	64.5163
1768	64.3924
1752	64.4295
1736	64.3106
1720	64.2678
1704	64.3211
1688	64.2279
1672	64.2769
1656	64.2868
1640	64.3338
1624	64.1354
1608	64.2796
1592	64.2583
1576	64.1235
1560	64.2331
1544	64.2399
1528	64.1361
1512	64.206
1496	64.1874
1480	64.2692
1464	64.1887
1448	64.0213
1432	64.0826
1416	64.1828
1400	64.1769
1384	64.114
1368	64.0875
1352	64.003
1336	64.1423
1320	64.1688
1304	64.0926
1288	64.1216
1272	63.9585
1256	63.9154
1240	63.8967
1224	63.7997
1208	63.9251
1192	63.7592
1176	63.8783
1160	63.5743
1144	63.7556
1128	63.6686
1112	63.7557
1096	63.7978
1080	63.796
1064	63.7297
1048	63.6452
1032	63.7878
1016	63.9864
1000	63.7746
984	 63.8572
968	 63.8921
952	 63.7762
936	 63.6694
920	 63.6855
904	 63.8147
888	 63.7937
872	 63.7053
856	 63.8864
840	 63.939
824	 63.7716
808	 63.6525
792	 63.7256
776	 63.629
760	 63.5017
744	 63.5911
728	 63.4254
712	 63.3778
696	 63.1901
680	 63.4533
664	 63.1538
648	 62.9693
632	 62.8164
616	 64.2034
600	 63.0019
584	 64.2819
568	 63.6275
552	 65.3237
536	 63.7176
520	 64.1489
504	 64.3358
488	 63.2827
472	 63.514
456	 63.8323
440	 64.2491
424	 64.459
408	 62.8394
392	 57.473
376	 80.6127
370	 57.9876