File: Bakgrunnsmateriale/MATLAB/FTIR/ftir_data/subAa/Mapping_121/BZ1503107-1_t86.asc
PE IR       SPECTRUM    SPECTRUM    ASCII       PEDS        1.60
  -1
BZ2165~1.ASC
17/04/07
20:16:25.00
17/04/07
20:16:51.00
tln
$BZ1503107-1_t0086$<tbV0>[-7.8,5.2,8.0,0.0,27,1,0]
27.028
64

2002,4.07
MIRTGS : RIGHTBACK : INTERNAL 2
MIR : ON : INTERNAL 2
OPTKBR

0.200000
8
8.000000
FILLER
RATIO
SPECTRUM
UNLOCKED 256

DOUBLE
64
COMBINED
1
0
0

0.002000
RATIO

1
0
TRUE
51149
0
LEFT NOT FITTED RIGHT NOT FITTED 0
NONE
NONE
15600
12
4.427000
51148
TRUE
1 0 8 72 0 0 0 0

15798

#HDR
-1
-1
#GR
µM
%T
2.38419e-05
0.0
2.000000
0.002000
12515
8
89.9827
56.1754
#DATA
2.000000	 65.0197
2.084000	 64.9628
2.168000	 64.9733
2.252000	 69.8564
2.336000	 64.979
2.420000	 64.809
2.504000	 64.9646
2.588000	 65.0981
2.672000	 65.1071
2.756000	 65.0262
2.840000	 65.1806
2.924000	 64.8861
3.008000	 64.8428
3.092000	 64.925
3.176000	 64.8509
3.260000	 64.9257
3.344000	 64.7643
3.428000	 64.7383
3.512000	 64.8114
3.596000	 64.9342
3.680000	 64.7604
3.764000	 64.6977
3.848000	 64.5875
3.932000	 64.6103
4.016000	 64.6874
4.100000	 64.657
4.184000	 64.5197
4.268000	 64.5243
4.352000	 64.3697
4.436000	 64.5047
4.520000	 64.4487
4.604000	 64.3519
4.688000	 64.3431
4.772000	 64.3103
4.856000	 64.2522
4.940000	 64.189
5.024000	 64.1854
5.108000	 64.1806
5.192000	 64.0986
5.276000	 64.0436
5.359999	 64.1956
5.444000	 64.0111
5.528000	 64.0607
5.612000	 64.0108
5.696000	 63.9696
5.780000	 63.7481
5.864000	 63.8601
5.948000	 63.9754
6.032000	 63.9299
6.116000	 63.865
6.200000	 63.9283
6.284000	 63.7963
6.368000	 63.7218
6.452000	 63.8147
6.536000	 63.7365
6.620000	 63.9322
6.704000	 63.7396
6.788000	 63.7197
6.872000	 63.7998
6.956000	 63.8105
7.040000	 63.7196
7.124000	 63.6447
7.208000	 63.585
7.292000	 63.5903
7.376000	 63.5339
7.460000	 63.6275
7.544000	 63.6242
7.628000	 63.454
7.712000	 63.511
7.796000	 63.2999
7.880000	 63.479
7.964000	 63.4113
8.048000	 63.3469
8.132000	 63.3797
8.216000	 63.4459
8.300000	 63.3386
8.384000	 63.4423
8.468000	 63.2322
8.552000	 63.1082
8.635999	 63.2279
8.719999	 63.246
8.804000	 63.3423
8.888000	 63.0127
8.972000	 63.2002
9.056000	 63.2281
9.140000	 63.217
9.224000	 63.2469
9.308000	 63.3085
9.391999	 63.2449
9.475999	 63.2157
9.560000	 63.2826
9.644000	 63.2455
9.728000	 63.1638
9.812000	 63.0831
9.896000	 63.041
9.980000	 62.9975
10.064	63.0348
10.148	63.2049
10.232	63.4477
10.316	63.2473
10.4	63.3057
10.484	63.199
10.568	63.2424
10.652	63.3013
10.736	63.0678
10.82	63.1574
10.904	63.2853
10.988	63.1333
11.072	63.076
11.156	63.1581
11.24	63.2204
11.324	63.256
11.408	63.1555
11.492	63.3481
11.576	63.1759
11.66	63.1805
11.744	63.1153
11.828	63.1681
11.912	63.1274
11.996	62.965
12.08	62.9423
12.164	63.1935
12.248	63.2309
12.332	62.9017
12.416	63.0017
12.5	63.1325
12.584	62.9668
12.668	62.8314
12.752	62.769
12.836	62.9443
12.92	63.1161
13.004	63.0867
13.088	62.9883
13.172	62.949
13.256	63.0605
13.34	62.9556
13.424	62.7222
13.508	62.6824
13.592	62.7332
13.676	62.6189
13.76	62.4674
13.844	62.5537
13.928	62.7847
14.012	62.8795
14.096	62.7762
14.18	62.5483
14.264	62.4436
14.348	62.4577
14.432	62.4855
14.516	62.6549
14.6	62.9147
14.684	63.1111
14.768	63.1815
14.852	63.0909
14.936	62.8616
15.02	62.6876
15.104	62.8575
15.188	63.1006
15.272	62.9794
15.356	62.6731
15.44	62.4664
15.524	62.3121
15.608	62.0987
15.692	61.8996
15.776	61.9592
15.86	62.2324
15.944	62.3081
16.028	62.089
16.112	61.9221
16.196	62.0164
16.28	62.1857
16.364	62.2211
16.448	62.3201
16.532	62.7155
16.616	63.0061
16.7	62.676
16.784	61.9915
16.868	61.5206
16.952	61.3915
17.036	61.4822
17.12	61.733
17.204	62.0465
17.288	62.2618
17.372	62.3335
17.456	62.3353
17.54	62.3082
17.624	62.2438
17.708	62.2234
17.792	62.366
17.876	62.5722
17.96	62.5998
18.044	62.4234
18.128	62.2816
18.212	62.3431
18.296	62.5648
18.38	62.8643
18.464	63.2228
18.548	63.5538
18.632	63.6505
18.716	63.3436
18.8	62.689
18.884	61.9838
18.968	61.6009
19.052	61.7559
19.136	62.3629
19.22	63.0709
19.304	63.467
19.388	63.3383
19.472	62.7989
19.556	62.2163
19.64	61.9633
19.724	62.1685
19.808	62.6432
19.892	63.0437
19.976	63.114
20.06	62.8452
20.144	62.4441
20.228	62.1702
20.312	62.1737
20.396	62.4277
20.48	62.7947
20.564	63.116
20.648	63.2835
20.732	63.2473
20.816	63.0091
20.9	62.6255
20.984	62.1969
21.068	61.8552
21.152	61.7281
21.236	61.8806
21.32	62.2708
21.404	62.7504
21.488	63.1226
21.572	63.2324
21.656	63.0281
21.74	62.5639
21.824	61.9656
21.908	61.3775
21.992	60.9236
22.076	60.6908
22.16	60.7047
22.244	60.9177
22.328	61.2231
22.412	61.5124
22.496	61.7364
22.58	61.9173
22.664	62.1107
22.748	62.339
22.832	62.5416
22.916	62.6058
23	62.4249
23.084	61.9764
23.168	61.353
23.252	60.7102
23.336	60.192
23.42	59.8413
23.504	59.5912
23.588	59.3262
23.672	58.977
23.756	58.5718
23.84	58.2201
23.924	58.0626
24.008	58.2111
24.092	58.7136
24.176	59.5326
24.26	60.5721
24.344	61.7093
24.428	62.8253
24.512	63.7662
24.596	64.4176
24.68	64.716
24.764	64.6511
24.848	64.2803
24.932	63.6391
25.016	62.7286
25.1	61.5902
25.184	60.3236
25.268	59.1098
25.352	58.1955
25.436	57.7916
25.52	57.9102
25.604	58.3195
25.688	58.6217
25.772	58.4732
25.856	57.8044
25.94	56.8694
26.024	56.2141
26.108	56.4631
26.192	58.0333
26.276	60.9652
26.36	64.8755
26.444	69.0429
26.528	72.7383
26.612	75.4802
26.696	77.3444
26.78	79.0014
26.864	81.38
26.948	85.156
27.028	89.9827