File: Bakgrunnsmateriale/MATLAB/FTIR/ftir_data/subAa/Mapping_121/BZ1503107-1_t59_cm-1.asc
PE IR       SPECTRUM    SPECTRUM    ASCII       PEDS        1.60
  -1
BZ61B3~1.ASC
17/04/07
18:04:21.00
17/04/07
18:04:21.00
tln
$BZ1503107-1_t0059$<tbV0>[5.2,0.0,8.0,0.0,27,1,0]
370
64

2002,4.07
MIRTGS : RIGHTBACK : INTERNAL 2
MIR : ON : INTERNAL 2
OPTKBR

0.200000
8
8.000000
FILLER
RATIO
SPECTRUM
UNLOCKED 256

DOUBLE
64
COMBINED
1
0
0

1.000000
RATIO

1
0
TRUE
51149
0
LEFT NOT FITTED RIGHT NOT FITTED 0
NONE
NONE
15600
12
4.427000
51148
TRUE
1 0 8 72 0 0 0 0

15798

#HDR
-1
-1
#GR
CM-1
%T
2.38419e-05
0.0
5000
-1.000000
4631
8
80.8748
56.5253
#DATA
5000	66.3347
4984	66.0563
4968	65.5489
4952	64.1686
4936	64.7022
4920	64.3903
4904	64.7654
4888	64.6789
4872	64.4849
4856	65.1518
4840	64.9156
4824	64.9237
4808	64.9569
4792	64.6486
4776	64.5297
4760	65.0481
4744	64.782
4728	64.9673
4712	65.4263
4696	64.9742
4680	65.2162
4664	64.7059
4648	65.0444
4632	65.1853
4616	64.6958
4600	65.1541
4584	64.656
4568	64.7158
4552	65.2522
4536	65.2329
4520	65.5185
4504	64.8864
4488	65.1994
4472	65.1985
4456	64.5038
4440	64.8274
4424	58.9093
4408	64.6673
4392	65.3492
4376	64.6575
4360	65.6118
4344	65.3287
4328	65.3123
4312	64.9215
4296	65.1258
4280	64.9792
4264	65.0292
4248	65.4463
4232	65.1384
4216	65.1005
4200	65.048
4184	65.1005
4168	64.9261
4152	64.6657
4136	64.8935
4120	65.1326
4104	64.8925
4088	65.0419
4072	65.1938
4056	64.8827
4040	64.9672
4024	64.9343
4008	65.0764
3992	65.4
3976	64.9569
3960	65.086
3944	64.8665
3928	65.0095
3912	64.9714
3896	65.1579
3880	65.1811
3864	65.2443
3848	65.2264
3832	65.2442
3816	65.014
3800	65.1716
3784	65.1888
3768	65.1997
3752	65.0074
3736	65.0923
3720	65.1705
3704	65.1428
3688	65.0344
3672	65.1021
3656	65.1073
3640	65.3374
3624	65.1404
3608	65.0668
3592	65.1444
3576	65.0248
3560	65.0207
3544	65.1607
3528	65.0391
3512	65.2836
3496	65.1924
3480	65.0316
3464	65.1222
3448	65.0973
3432	65.0516
3416	65.0941
3400	64.9489
3384	65.0989
3368	65.1596
3352	64.998
3336	64.967
3320	65.0243
3304	65.0281
3288	65.0179
3272	64.9014
3256	65.1272
3240	65.1488
3224	65.1576
3208	64.9805
3192	65.1257
3176	65.0493
3160	65.0903
3144	65.0142
3128	64.9689
3112	64.9366
3096	65.057
3080	64.9265
3064	65.0195
3048	64.8621
3032	64.9619
3016	64.9086
3000	65.0669
2984	65.0534
2968	64.7563
2952	64.988
2936	64.93
2920	64.9311
2904	64.887
2888	64.9867
2872	65.0318
2856	64.7996
2840	64.891
2824	64.9453
2808	64.9917
2792	64.9338
2776	64.885
2760	64.8914
2744	64.8926
2728	64.9086
2712	64.8047
2696	64.8645
2680	64.8974
2664	64.8869
2648	64.9287
2632	64.906
2616	64.8455
2600	64.8445
2584	64.8727
2568	64.7347
2552	64.8189
2536	64.8061
2520	64.7742
2504	64.8212
2488	64.9341
2472	64.8076
2456	64.8276
2440	64.8325
2424	64.8134
2408	64.8571
2392	64.8031
2376	64.7006
2360	64.8119
2344	64.8143
2328	64.8248
2312	64.7311
2296	64.8022
2280	64.6169
2264	64.7437
2248	64.7668
2232	64.6904
2216	64.7631
2200	64.7464
2184	64.6235
2168	64.5903
2152	64.571
2136	64.6969
2120	64.7454
2104	64.5966
2088	64.6514
2072	64.5504
2056	64.4775
2040	64.592
2024	64.6118
2008	64.6
1992	64.6263
1976	64.4214
1960	64.4253
1944	64.5678
1928	64.4507
1912	64.5313
1896	64.3982
1880	64.5087
1864	64.5468
1848	64.344
1832	64.4809
1816	64.4442
1800	64.4004
1784	64.4013
1768	64.4208
1752	64.2264
1736	64.071
1720	64.2173
1704	64.1853
1688	64.2331
1672	64.0753
1656	64.2695
1640	64.1973
1624	64.2372
1608	64.2667
1592	64.1181
1576	64.0289
1560	64.145
1544	64.1166
1528	64.064
1512	64.1606
1496	64.0004
1480	64.0785
1464	64.0253
1448	64.0775
1432	64.1491
1416	64.0527
1400	64.0261
1384	63.8656
1368	64.047
1352	63.8029
1336	63.9122
1320	63.932
1304	63.9363
1288	63.7736
1272	63.8505
1256	63.8679
1240	63.9193
1224	63.7827
1208	63.8529
1192	63.7406
1176	63.7014
1160	63.6171
1144	63.4981
1128	63.7084
1112	63.6746
1096	63.7347
1080	63.5504
1064	63.5992
1048	63.7597
1032	63.4855
1016	63.5048
1000	63.7212
984	 63.7515
968	 63.618
952	 63.565
936	 63.4516
920	 63.5251
904	 63.4814
888	 63.7015
872	 63.4657
856	 63.5924
840	 63.6127
824	 63.778
808	 63.6491
792	 63.532
776	 63.496
760	 63.4769
744	 63.2642
728	 63.2745
712	 63.307
696	 63.3305
680	 63.3367
664	 63.4889
648	 63.3025
632	 62.826
616	 63.8449
600	 63.1669
584	 62.5159
568	 63.0712
552	 62.9821
536	 62.8038
520	 62.9325
504	 63.9803
488	 63.4349
472	 64.1485
456	 63.0436
440	 61.6236
424	 65.0673
408	 59.2469
392	 72.0515
376	 80.4846
370	 71.2699