File: Bakgrunnsmateriale/MATLAB/FTIR/ftir_data/subAa/Mapping_121/BZ1503107-1_t111.asc
PE IR       SPECTRUM    SPECTRUM    ASCII       PEDS        1.60
  -1
BZCAB6~1.ASC
17/04/07
22:25:15.00
17/04/07
22:25:41.00
tln
$BZ1503107-1_t0111$<tbV0>[13.0,13.0,8.0,0.0,27,1,0]
27.028
64

2002,4.07
MIRTGS : RIGHTBACK : INTERNAL 2
MIR : ON : INTERNAL 2
OPTKBR

0.200000
8
8.000000
FILLER
RATIO
SPECTRUM
UNLOCKED 256

DOUBLE
64
COMBINED
1
0
0

0.002000
RATIO

1
0
TRUE
51149
0
LEFT NOT FITTED RIGHT NOT FITTED 0
NONE
NONE
15600
12
4.427000
51148
TRUE
1 0 8 72 0 0 0 0

15798

#HDR
-1
-1
#GR
µM
%T
2.38419e-05
0.0
2.000000
0.002000
12515
8
74.582
53.415
#DATA
2.000000	 64.359
2.084000	 63.2106
2.168000	 63.5675
2.252000	 57.0705
2.336000	 63.4462
2.420000	 63.2167
2.504000	 63.3472
2.588000	 63.1081
2.672000	 63.4419
2.756000	 63.5629
2.840000	 63.1655
2.924000	 63.3987
3.008000	 63.3888
3.092000	 63.0543
3.176000	 63.1765
3.260000	 63.219
3.344000	 63.1138
3.428000	 62.9286
3.512000	 63.0942
3.596000	 63.0432
3.680000	 62.9774
3.764000	 63.0255
3.848000	 63.2086
3.932000	 63.0623
4.016000	 62.8357
4.100000	 62.8788
4.184000	 62.8463
4.268000	 62.9443
4.352000	 62.9096
4.436000	 62.6719
4.520000	 62.8081
4.604000	 62.7529
4.688000	 62.8285
4.772000	 62.6978
4.856000	 62.5653
4.940000	 62.5167
5.024000	 62.3964
5.108000	 62.414
5.192000	 62.5469
5.276000	 62.56
5.359999	 62.448
5.444000	 62.4249
5.528000	 62.3855
5.612000	 62.43
5.696000	 62.2314
5.780000	 61.9116
5.864000	 62.0846
5.948000	 62.2729
6.032000	 62.1538
6.116000	 62.239
6.200000	 62.1268
6.284000	 62.0757
6.368000	 62.0237
6.452000	 62.0393
6.536000	 62.0539
6.620000	 61.957
6.704000	 61.9823
6.788000	 61.6612
6.872000	 61.8268
6.956000	 61.8454
7.040000	 61.8469
7.124000	 61.8437
7.208000	 61.6527
7.292000	 61.8675
7.376000	 61.7439
7.460000	 61.9414
7.544000	 61.9062
7.628000	 61.8626
7.712000	 61.7239
7.796000	 61.5698
7.880000	 61.5812
7.964000	 61.37
8.048000	 61.2813
8.132000	 61.1949
8.216000	 61.3327
8.300000	 61.2559
8.384000	 61.3405
8.468000	 61.2328
8.552000	 61.2389
8.635999	 61.1849
8.719999	 61.164
8.804000	 61.0817
8.888000	 61.1395
8.972000	 61.0807
9.056000	 61.1195
9.140000	 61.0191
9.224000	 60.903
9.308000	 60.8131
9.391999	 61.0513
9.475999	 60.962
9.560000	 61.0904
9.644000	 60.9478
9.728000	 60.863
9.812000	 60.8036
9.896000	 60.7108
9.980000	 60.8489
10.064	60.7511
10.148	60.8088
10.232	60.8157
10.316	60.62
10.4	60.5152
10.484	60.6436
10.568	60.5821
10.652	60.5153
10.736	60.6531
10.82	60.7435
10.904	60.8636
10.988	60.8004
11.072	60.8119
11.156	60.9003
11.24	60.7938
11.324	60.5755
11.408	60.7707
11.492	60.9089
11.576	60.9461
11.66	60.8072
11.744	60.7603
11.828	60.6977
11.912	60.6689
11.996	60.6017
12.08	60.8527
12.164	60.9994
12.248	60.9138
12.332	60.747
12.416	60.6763
12.5	60.7616
12.584	60.712
12.668	60.7588
12.752	60.7385
12.836	60.5827
12.92	60.6072
13.004	60.5135
13.088	60.3793
13.172	60.5231
13.256	60.6451
13.34	60.6331
13.424	60.6358
13.508	60.5707
13.592	60.4169
13.676	60.2582
13.76	60.1576
13.844	60.1154
13.928	60.2467
14.012	60.3971
14.096	60.3374
14.18	60.1978
14.264	60.1637
14.348	60.2243
14.432	60.3776
14.516	60.421
14.6	60.3187
14.684	60.2464
14.768	60.1017
14.852	59.9452
14.936	60.0366
15.02	60.3042
15.104	60.3206
15.188	59.959
15.272	59.6352
15.356	59.6448
15.44	59.8881
15.524	60.1251
15.608	60.1654
15.692	60.0163
15.776	59.85
15.86	59.8276
15.944	59.8754
16.028	59.7051
16.112	59.344
16.196	59.3069
16.28	59.8158
16.364	60.2934
16.448	60.1209
16.532	59.624
16.616	59.5513
16.7	59.9056
16.784	60.0898
16.868	59.8364
16.952	59.4536
17.036	59.3123
17.12	59.4331
17.204	59.5321
17.288	59.3306
17.372	58.8729
17.456	58.5974
17.54	58.94
17.624	59.7468
17.708	60.343
17.792	60.3257
17.876	60.0504
17.96	60.1062
18.044	60.5871
18.128	61.12
18.212	61.375
18.296	61.3021
18.38	61.0545
18.464	60.8278
18.548	60.7267
18.632	60.6895
18.716	60.5869
18.8	60.3748
18.884	60.09
18.968	59.7379
19.052	59.3063
19.136	58.8891
19.22	58.6808
19.304	58.8046
19.388	59.1679
19.472	59.5362
19.556	59.7103
19.64	59.6423
19.724	59.4195
19.808	59.1878
19.892	59.0693
19.976	59.1022
20.06	59.227
20.144	59.3508
20.228	59.4286
20.312	59.4816
20.396	59.5343
20.48	59.561
20.564	59.5091
20.648	59.3738
20.732	59.2222
20.816	59.1387
20.9	59.1521
20.984	59.2359
21.068	59.361
21.152	59.537
21.236	59.7799
21.32	60.0586
21.404	60.2753
21.488	60.3166
21.572	60.1406
21.656	59.8082
21.74	59.4544
21.824	59.2157
21.908	59.1619
21.992	59.28
22.076	59.4939
22.16	59.6925
22.244	59.7581
22.328	59.5998
22.412	59.1869
22.496	58.5779
22.58	57.9176
22.664	57.3931
22.748	57.1717
22.832	57.3321
22.916	57.8468
23	58.5942
23.084	59.413
23.168	60.1431
23.252	60.6854
23.336	61.0004
23.42	61.0929
23.504	61.0042
23.588	60.7865
23.672	60.4849
23.756	60.1358
23.84	59.7486
23.924	59.3323
24.008	58.9028
24.092	58.4878
24.176	58.1448
24.26	57.9181
24.344	57.8107
24.428	57.7762
24.512	57.7334
24.596	57.6053
24.68	57.3907
24.764	57.2047
24.848	57.2002
24.932	57.5326
25.016	58.2698
25.1	59.3461
25.184	60.5647
25.268	61.6951
25.352	62.5887
25.436	63.2716
25.52	63.9406
25.604	64.8456
25.688	66.1751
25.772	67.9507
25.856	70.0075
25.94	72.0301
26.024	73.6314
26.108	74.4884
26.192	74.4395
26.276	73.4616
26.36	71.6569
26.444	69.1579
26.528	66.1307
26.612	62.7239
26.696	59.2609
26.78	56.3026
26.864	54.501
26.948	54.3432
27.028	55.7547