File: Bakgrunnsmateriale/MATLAB/FTIR/ftir_data/subAa/Mapping_121/BZ1503107-1_t44.asc
PE IR       SPECTRUM    SPECTRUM    ASCII       PEDS        1.60
  -1
BZ295D~1.ASC
17/04/07
16:47:28.00
17/04/07
16:47:54.00
tln
$BZ1503107-1_t0044$<tbV0>[-13.0,-5.2,8.0,0.0,27,1,0]
27.028
64

2002,4.07
MIRTGS : RIGHTBACK : INTERNAL 2
MIR : ON : INTERNAL 2
OPTKBR

0.200000
8
8.000000
FILLER
RATIO
SPECTRUM
UNLOCKED 256

DOUBLE
64
COMBINED
1
0
0

0.002000
RATIO

1
0
TRUE
51149
0
LEFT NOT FITTED RIGHT NOT FITTED 0
NONE
NONE
15600
12
4.427000
51148
TRUE
1 0 8 72 0 0 0 0

15798

#HDR
-1
-1
#GR
µM
%T
2.38419e-05
0.0
2.000000
0.002000
12515
8
70.8399
40.2895
#DATA
2.000000	 65.1152
2.084000	 64.8606
2.168000	 64.6113
2.252000	 66.05
2.336000	 64.9033
2.420000	 64.8745
2.504000	 64.9037
2.588000	 64.8176
2.672000	 64.8264
2.756000	 65.1189
2.840000	 65.1047
2.924000	 64.8053
3.008000	 65.0229
3.092000	 64.8544
3.176000	 64.8672
3.260000	 64.9126
3.344000	 64.7941
3.428000	 64.7426
3.512000	 64.8734
3.596000	 64.8843
3.680000	 65.0079
3.764000	 64.9223
3.848000	 64.7819
3.932000	 64.7686
4.016000	 64.8356
4.100000	 64.8047
4.184000	 64.9435
4.268000	 64.9047
4.352000	 64.7566
4.436000	 64.7675
4.520000	 64.6789
4.604000	 64.7647
4.688000	 64.6969
4.772000	 64.6997
4.856000	 64.5604
4.940000	 64.7398
5.024000	 64.6359
5.108000	 64.7333
5.192000	 64.6561
5.276000	 64.5063
5.359999	 64.6596
5.444000	 64.5863
5.528000	 64.5238
5.612000	 64.4425
5.696000	 64.2785
5.780000	 64.0389
5.864000	 64.2949
5.948000	 64.3447
6.032000	 64.3586
6.116000	 64.3417
6.200000	 64.2771
6.284000	 64.3441
6.368000	 64.3319
6.452000	 64.1411
6.536000	 64.3279
6.620000	 64.3759
6.704000	 64.4142
6.788000	 64.265
6.872000	 64.2573
6.956000	 64.3385
7.040000	 64.2323
7.124000	 64.092
7.208000	 64.1876
7.292000	 64.1445
7.376000	 64.1125
7.460000	 64.1263
7.544000	 64.1931
7.628000	 64.1145
7.712000	 64.0621
7.796000	 64.0511
7.880000	 63.9828
7.964000	 64.0958
8.048000	 63.9757
8.132000	 63.8993
8.216000	 64.0392
8.300000	 63.9321
8.384000	 63.8454
8.468000	 63.9051
8.552000	 63.8319
8.635999	 63.9127
8.719999	 63.8465
8.804000	 63.6953
8.888000	 63.7242
8.972000	 63.9779
9.056000	 64.0711
9.140000	 63.8773
9.224000	 63.8277
9.308000	 63.8412
9.391999	 64.0067
9.475999	 63.9233
9.560000	 63.8629
9.644000	 63.9131
9.728000	 63.9886
9.812000	 63.943
9.896000	 64.1064
9.980000	 63.8275
10.064	63.9314
10.148	63.9496
10.232	64.0308
10.316	64.0532
10.4	64.0795
10.484	64.1266
10.568	64.0027
10.652	63.8893
10.736	64.0799
10.82	64.0721
10.904	64.0133
10.988	63.9482
11.072	63.928
11.156	64.0555
11.24	64.0417
11.324	63.9496
11.408	64.0092
11.492	63.8712
11.576	63.9784
11.66	63.8943
11.744	64.0044
11.828	64.1302
11.912	64.2631
11.996	64.0593
12.08	63.8736
12.164	63.8911
12.248	63.9021
12.332	64.0792
12.416	64.0663
12.5	63.9764
12.584	63.9907
12.668	63.8745
12.752	63.7624
12.836	63.7255
12.92	63.8615
13.004	63.9177
13.088	63.8508
13.172	63.8077
13.256	63.8319
13.34	63.7969
13.424	63.7603
13.508	63.6419
13.592	63.6142
13.676	63.677
13.76	63.6572
13.844	63.8648
13.928	64.2015
14.012	63.9838
14.096	63.6523
14.18	63.4523
14.264	63.3978
14.348	63.7149
14.432	63.9742
14.516	63.8416
14.6	63.7017
14.684	63.7771
14.768	63.5911
14.852	63.2874
14.936	63.4847
15.02	63.6784
15.104	63.3873
15.188	63.2909
15.272	63.7064
15.356	63.9457
15.44	63.6759
15.524	63.3453
15.608	63.1645
15.692	63.0558
15.776	63.0772
15.86	63.2358
15.944	63.6142
16.028	64.2573
16.112	64.69
16.196	64.5104
16.28	64.1078
16.364	63.9629
16.448	63.9758
16.532	63.9493
16.616	63.9521
16.7	64.0084
16.784	63.9849
16.868	63.8192
16.952	63.5954
17.036	63.4583
17.12	63.5222
17.204	63.7533
17.288	63.969
17.372	64.0876
17.456	64.1842
17.54	64.2489
17.624	64.1728
17.708	64.0142
17.792	63.9796
17.876	64.136
17.96	64.3708
18.044	64.5717
18.128	64.6319
18.212	64.4842
18.296	64.2108
18.38	63.9703
18.464	63.825
18.548	63.7168
18.632	63.5671
18.716	63.3861
18.8	63.2803
18.884	63.3505
18.968	63.5882
19.052	63.8599
19.136	63.9973
19.22	63.9234
19.304	63.7221
19.388	63.5666
19.472	63.5734
19.556	63.7246
19.64	63.9177
19.724	64.0598
19.808	64.1121
19.892	64.0781
19.976	63.9696
20.06	63.8046
20.144	63.632
20.228	63.5294
20.312	63.5565
20.396	63.7105
20.48	63.9538
20.564	64.2591
20.648	64.6017
20.732	64.9176
20.816	65.0804
20.9	64.9717
20.984	64.5789
21.068	64.034
21.152	63.5395
21.236	63.2398
21.32	63.1507
21.404	63.1685
21.488	63.1535
21.572	63.0204
21.656	62.7835
21.74	62.5447
21.824	62.4333
21.908	62.5275
21.992	62.8174
22.076	63.2282
22.16	63.6559
22.244	64.009
22.328	64.2193
22.412	64.2273
22.496	63.9922
22.58	63.5143
22.664	62.8695
22.748	62.2275
22.832	61.7791
22.916	61.6764
23	61.9395
23.084	62.4462
23.168	62.9785
23.252	63.3464
23.336	63.4462
23.42	63.312
23.504	63.0685
23.588	62.8605
23.672	62.7794
23.756	62.8381
23.84	63.0154
23.924	63.288
24.008	63.6622
24.092	64.1744
24.176	64.8447
24.26	65.6691
24.344	66.569
24.428	67.3856
24.512	67.9193
24.596	68.0011
24.68	67.5511
24.764	66.6306
24.848	65.4481
24.932	64.3113
25.016	63.4953
25.1	63.148
25.184	63.1964
25.268	63.3897
25.352	63.4575
25.436	63.1814
25.52	62.5098
25.604	61.5515
25.688	60.5132
25.772	59.4939
25.856	58.3542
25.94	56.8471
26.024	54.7221
26.108	51.8833
26.192	48.5224
26.276	45.1092
26.36	42.2607
26.444	40.5725
26.528	40.4119
26.612	41.7697
26.696	44.2946
26.78	47.3634
26.864	50.397
26.948	53.1282
27.028	55.588