File: Bakgrunnsmateriale/MATLAB/FTIR/ftir_data/subAa/Mapping_121/BZ1503107-1_t107_cm-1.asc
PE IR       SPECTRUM    SPECTRUM    ASCII       PEDS        1.60
  -1
BZCBFC~1.ASC
17/04/07
22:00:32.00
17/04/07
22:00:32.00
tln
$BZ1503107-1_t0107$<tbV0>[-5.2,10.4,8.0,0.0,27,1,0]
370
64

2002,4.07
MIRTGS : RIGHTBACK : INTERNAL 2
MIR : ON : INTERNAL 2
OPTKBR

0.200000
8
8.000000
FILLER
RATIO
SPECTRUM
UNLOCKED 256

DOUBLE
64
COMBINED
1
0
0

1.000000
RATIO

1
0
TRUE
51149
0
LEFT NOT FITTED RIGHT NOT FITTED 0
NONE
NONE
15600
12
4.427000
51148
TRUE
1 0 8 72 0 0 0 0

15798

#HDR
-1
-1
#GR
CM-1
%T
2.38419e-05
0.0
5000
-1.000000
4631
8
87.726
40.4353
#DATA
5000	64.1626
4984	62.1711
4968	62.4245
4952	65.3697
4936	64.6025
4920	63.8179
4904	64.085
4888	63.6271
4872	63.9827
4856	63.9845
4840	63.9374
4824	64.263
4808	64.051
4792	64.3925
4776	64.2496
4760	64.0103
4744	64.3125
4728	64.0215
4712	63.9804
4696	64.2422
4680	64.6083
4664	64.4033
4648	64.3504
4632	64.2707
4616	64.4986
4600	64.1778
4584	64.6795
4568	63.9914
4552	63.9728
4536	64.3467
4520	64.1915
4504	63.9321
4488	63.9041
4472	64.0876
4456	65.4479
4440	80.7584
4424	61.4124
4408	64.7722
4392	63.7789
4376	64.4116
4360	64.0839
4344	64.3988
4328	64.1499
4312	64.1713
4296	64.4941
4280	63.8964
4264	64.3161
4248	64.2043
4232	64.5003
4216	63.9515
4200	64.1587
4184	64.2346
4168	64.4652
4152	64.2933
4136	64.4677
4120	64.2565
4104	64.4505
4088	64.5209
4072	64.4924
4056	64.0978
4040	64.2033
4024	64.5895
4008	64.3124
3992	64.3598
3976	64.1732
3960	64.6253
3944	64.1845
3928	64.5085
3912	64.1033
3896	64.2981
3880	64.3439
3864	64.3938
3848	64.5186
3832	64.3625
3816	64.2401
3800	64.2096
3784	64.6208
3768	64.3711
3752	64.3088
3736	64.2657
3720	64.5386
3704	64.4409
3688	64.5612
3672	64.3637
3656	64.397
3640	64.5564
3624	64.4175
3608	64.4416
3592	64.5666
3576	64.4153
3560	64.3748
3544	64.1163
3528	64.3975
3512	64.3812
3496	64.4234
3480	64.3676
3464	64.5249
3448	64.3282
3432	64.2311
3416	64.321
3400	64.1938
3384	64.4267
3368	64.3112
3352	64.4026
3336	64.2741
3320	64.2997
3304	64.3766
3288	64.3113
3272	64.2676
3256	64.2936
3240	64.2579
3224	64.293
3208	64.2732
3192	64.5621
3176	64.3915
3160	64.3303
3144	64.2386
3128	64.3234
3112	64.307
3096	64.3424
3080	64.2557
3064	64.2069
3048	64.4838
3032	64.3746
3016	64.3604
3000	64.3131
2984	64.2148
2968	63.9547
2952	63.8558
2936	63.9848
2920	64.1572
2904	64.109
2888	64.1624
2872	64.0943
2856	63.9813
2840	64.1413
2824	64.2716
2808	64.1032
2792	64.2525
2776	64.2819
2760	64.18
2744	64.2384
2728	64.2003
2712	64.2257
2696	64.2702
2680	64.2418
2664	64.1028
2648	64.3155
2632	64.1331
2616	64.1765
2600	64.1573
2584	64.1161
2568	64.1077
2552	64.17
2536	64.0585
2520	64.1489
2504	64.0672
2488	64.1718
2472	64.1887
2456	64.1952
2440	64.0839
2424	64.177
2408	64.0384
2392	64.051
2376	63.9572
2360	64.0855
2344	64.0556
2328	64.117
2312	64.1349
2296	64.0087
2280	64.0724
2264	64.0625
2248	63.9986
2232	64.0372
2216	63.9764
2200	63.8122
2184	63.8888
2168	63.8831
2152	63.9477
2136	63.8794
2120	63.8131
2104	63.8475
2088	63.8744
2072	63.8084
2056	63.9043
2040	63.7454
2024	63.7681
2008	63.7154
1992	63.8138
1976	63.8208
1960	63.6866
1944	63.681
1928	63.6598
1912	63.6264
1896	63.7042
1880	63.6427
1864	63.64
1848	63.6733
1832	63.6583
1816	63.6064
1800	63.5451
1784	63.4877
1768	63.4856
1752	63.1064
1736	62.3971
1720	63.0648
1704	63.2475
1688	63.3309
1672	63.3794
1656	63.3725
1640	63.3147
1624	63.3575
1608	63.2784
1592	63.317
1576	63.216
1560	63.252
1544	63.1655
1528	63.2298
1512	63.2223
1496	63.2412
1480	63.0902
1464	63.0074
1448	63.0268
1432	63.1383
1416	63.1083
1400	63.0916
1384	62.9021
1368	62.8311
1352	63.0627
1336	62.8745
1320	63.0376
1304	62.8756
1288	62.7584
1272	62.623
1256	62.6504
1240	62.474
1224	62.6389
1208	62.7067
1192	62.7576
1176	62.3679
1160	62.1817
1144	62.5885
1128	62.5715
1112	62.4861
1096	62.6803
1080	62.3723
1064	62.8177
1048	62.5079
1032	62.463
1016	62.4152
1000	62.4515
984	 62.73
968	 62.5821
952	 62.3748
936	 62.59
920	 62.5963
904	 62.5319
888	 62.4839
872	 62.5115
856	 62.5301
840	 62.4054
824	 62.2483
808	 62.4405
792	 62.499
776	 62.2066
760	 62.377
744	 62.4108
728	 62.2694
712	 62.0382
696	 61.6688
680	 62.0072
664	 62.1741
648	 61.9441
632	 61.9039
616	 61.841
600	 61.8474
584	 60.8709
568	 63.1209
552	 62.6387
536	 61.7235
520	 62.0245
504	 61.3002
488	 62.3215
472	 61.2333
456	 61.4608
440	 61.3379
424	 60.8552
408	 60.2288
392	 61.9071
376	 61.4403
370	 70.7817