File: Bakgrunnsmateriale/MATLAB/FTIR/ftir_data/subAa/Mapping_121/BZ1503107-1_t107.asc
PE IR       SPECTRUM    SPECTRUM    ASCII       PEDS        1.60
  -1
BZE6BE~1.ASC
17/04/07
22:00:32.00
17/04/07
22:00:59.00
tln
$BZ1503107-1_t0107$<tbV0>[-5.2,10.4,8.0,0.0,27,1,0]
27.028
64

2002,4.07
MIRTGS : RIGHTBACK : INTERNAL 2
MIR : ON : INTERNAL 2
OPTKBR

0.200000
8
8.000000
FILLER
RATIO
SPECTRUM
UNLOCKED 256

DOUBLE
64
COMBINED
1
0
0

0.002000
RATIO

1
0
TRUE
51149
0
LEFT NOT FITTED RIGHT NOT FITTED 0
NONE
NONE
15600
12
4.427000
51148
TRUE
1 0 8 72 0 0 0 0

15798

#HDR
-1
-1
#GR
µM
%T
2.38419e-05
0.0
2.000000
0.002000
12515
8
85.3234
40.8908
#DATA
2.000000	 64.1626
2.084000	 64.2407
2.168000	 64.3001
2.252000	 83.0698
2.336000	 63.8686
2.420000	 64.4077
2.504000	 64.362
2.588000	 64.3934
2.672000	 64.3022
2.756000	 64.4417
2.840000	 64.4322
2.924000	 64.2817
3.008000	 64.2845
3.092000	 64.3349
3.176000	 64.1763
3.260000	 64.1998
3.344000	 64.24
3.428000	 64.2312
3.512000	 64.1599
3.596000	 64.2712
3.680000	 64.2445
3.764000	 64.2047
3.848000	 64.1654
3.932000	 64.1081
4.016000	 64.1569
4.100000	 64.0719
4.184000	 64.0271
4.268000	 64.0442
4.352000	 64.0026
4.436000	 64.1031
4.520000	 63.9544
4.604000	 63.8764
4.688000	 63.8616
4.772000	 63.8991
4.856000	 63.8385
4.940000	 63.7732
5.024000	 63.8002
5.108000	 63.6804
5.192000	 63.6617
5.276000	 63.7035
5.359999	 63.6196
5.444000	 63.6578
5.528000	 63.6036
5.612000	 63.4774
5.696000	 63.2335
5.780000	 62.4619
5.864000	 63.2514
5.948000	 63.2596
6.032000	 63.3475
6.116000	 63.2779
6.200000	 63.2776
6.284000	 63.3142
6.368000	 63.299
6.452000	 63.1285
6.536000	 63.1957
6.620000	 63.2115
6.704000	 63.3581
6.788000	 63.1418
6.872000	 62.9295
6.956000	 63.0975
7.040000	 63.0621
7.124000	 63.1669
7.208000	 62.9333
7.292000	 62.7929
7.376000	 63.0484
7.460000	 62.8915
7.544000	 63.0057
7.628000	 62.9614
7.712000	 62.8218
7.796000	 62.7749
7.880000	 62.6067
7.964000	 62.6476
8.048000	 62.5243
8.132000	 62.5438
8.216000	 62.743
8.300000	 62.6506
8.384000	 62.7607
8.468000	 62.4556
8.552000	 62.1946
8.635999	 62.2591
8.719999	 62.5925
8.804000	 62.5173
8.888000	 62.5479
8.972000	 62.5393
9.056000	 62.4589
9.140000	 62.6406
9.224000	 62.4458
9.308000	 62.4032
9.391999	 62.8148
9.475999	 62.4449
9.560000	 62.5197
9.644000	 62.4466
9.728000	 62.5504
9.812000	 62.5092
9.896000	 62.3871
9.980000	 62.4388
10.064	62.612
10.148	62.7
10.232	62.7779
10.316	62.6245
10.4	62.5106
10.484	62.4166
10.568	62.3564
10.652	62.6024
10.736	62.5332
10.82	62.6211
10.904	62.5977
10.988	62.5135
11.072	62.5334
11.156	62.4372
11.24	62.4403
11.324	62.5141
11.408	62.3792
11.492	62.5659
11.576	62.7028
11.66	62.5937
11.744	62.4419
11.828	62.4104
11.912	62.4066
11.996	62.4005
12.08	62.2871
12.164	62.2801
12.248	62.3433
12.332	62.3984
12.416	62.4045
12.5	62.3127
12.584	62.451
12.668	62.4948
12.752	62.3685
12.836	62.2682
12.92	62.1807
13.004	62.3022
13.088	62.3937
13.172	62.379
13.256	62.4024
13.34	62.4395
13.424	62.4281
13.508	62.354
13.592	62.3965
13.676	62.3651
13.76	62.2439
13.844	62.2487
13.928	62.2561
14.012	62.1226
14.096	61.9
14.18	61.721
14.264	61.648
14.348	61.6606
14.432	61.7128
14.516	61.8865
14.6	62.1112
14.684	62.0663
14.768	61.8472
14.852	61.9089
14.936	62.1421
15.02	62.1735
15.104	62.22
15.188	62.2973
15.272	62.0588
15.356	61.8079
15.44	61.9726
15.524	62.225
15.608	62.1856
15.692	62.0521
15.776	61.9727
15.86	61.8343
15.944	61.7322
16.028	61.7819
16.112	61.8346
16.196	61.8294
16.28	61.877
16.364	61.9197
16.448	61.8118
16.532	61.6818
16.616	61.7396
16.7	61.921
16.784	62.0284
16.868	61.9137
16.952	61.5178
17.036	61.03
17.12	60.8667
17.204	61.1927
17.288	61.718
17.372	62.1555
17.456	62.5581
17.54	62.9798
17.624	63.0994
17.708	62.6373
17.792	61.9242
17.876	61.6077
17.96	61.87
18.044	62.3421
18.128	62.6749
18.212	62.86
18.296	62.9728
18.38	62.9357
18.464	62.6476
18.548	62.1945
18.632	61.8009
18.716	61.6236
18.8	61.6377
18.884	61.6939
18.968	61.7026
19.052	61.7423
19.136	61.8885
19.22	62.0205
19.304	61.9336
19.388	61.6147
19.472	61.2852
19.556	61.1853
19.64	61.3349
19.724	61.4999
19.808	61.4194
19.892	61.0508
19.976	60.6166
20.06	60.4191
20.144	60.62
20.228	61.1608
20.312	61.8025
20.396	62.2565
20.48	62.3401
20.564	62.0805
20.648	61.6855
20.732	61.4114
20.816	61.4071
20.9	61.6259
20.984	61.8521
21.068	61.8376
21.152	61.4694
21.236	60.8517
21.32	60.2351
21.404	59.8648
21.488	59.8457
21.572	60.1209
21.656	60.5463
21.74	60.9716
21.824	61.2928
21.908	61.4515
21.992	61.4064
22.076	61.1412
22.16	60.7014
22.244	60.2136
22.328	59.8596
22.412	59.79
22.496	60.0385
22.58	60.5058
22.664	61.0194
22.748	61.4213
22.832	61.649
22.916	61.7187
23	61.6721
23.084	61.526
23.168	61.2747
23.252	60.9338
23.336	60.583
23.42	60.3665
23.504	60.4376
23.588	60.8778
23.672	61.6486
23.756	62.5846
23.84	63.4645
23.924	64.0685
24.008	64.253
24.092	63.9861
24.176	63.336
24.26	62.4502
24.344	61.5244
24.428	60.734
24.512	60.2196
24.596	60.0455
24.68	60.1818
24.764	60.5101
24.848	60.8935
24.932	61.2233
25.016	61.465
25.1	61.6639
25.184	61.8671
25.268	62.07
25.352	62.2177
25.436	62.1864
25.52	61.8489
25.604	61.1455
25.688	60.1287
25.772	58.9254
25.856	57.6674
25.94	56.4945
26.024	55.5521
26.108	54.9749
26.192	54.8633
26.276	55.2867
26.36	56.2524
26.444	57.7336
26.528	59.6584
26.612	61.8852
26.696	64.2102
26.78	66.3767
26.864	68.1787
26.948	69.5839
27.028	70.7817