File: Bakgrunnsmateriale/MATLAB/FTIR/ftir_data/subAa/Mapping_121/BZ1503107-1_t13.asc
PE IR       SPECTRUM    SPECTRUM    ASCII       PEDS        1.60
  -1
BZ255B~1.ASC
17/04/07
14:16:31.00
17/04/07
14:16:57.00
tln
$BZ1503107-1_t0013$<tbV0>[10.4,-10.4,8.0,0.0,27,1,0]
27.028
64

2002,4.07
MIRTGS : RIGHTBACK : INTERNAL 2
MIR : ON : INTERNAL 2
OPTKBR

0.200000
8
8.000000
FILLER
RATIO
SPECTRUM
UNLOCKED 256

DOUBLE
64
COMBINED
1
0
0

0.002000
RATIO

1
0
TRUE
51149
0
LEFT NOT FITTED RIGHT NOT FITTED 0
NONE
NONE
15600
12
4.427000
51148
TRUE
1 0 8 72 0 0 0 0

15798

#HDR
-1
-1
#GR
µM
%T
2.38419e-05
0.0
2.000000
0.002000
12515
8
76.6111
46.3107
#DATA
2.000000	 64.1522
2.084000	 65.8084
2.168000	 64.4273
2.252000	 62.363
2.336000	 64.8128
2.420000	 65.159
2.504000	 64.8954
2.588000	 65.0757
2.672000	 65.3187
2.756000	 65.1838
2.840000	 65.0855
2.924000	 64.9785
3.008000	 65.0383
3.092000	 64.8802
3.176000	 65.1531
3.260000	 65.0095
3.344000	 65.0276
3.428000	 64.8915
3.512000	 64.9328
3.596000	 65.0598
3.680000	 64.9526
3.764000	 65.0731
3.848000	 64.9828
3.932000	 65.0152
4.016000	 64.965
4.100000	 64.8395
4.184000	 64.9658
4.268000	 64.931
4.352000	 64.8718
4.436000	 64.9367
4.520000	 64.8919
4.604000	 64.9127
4.688000	 64.7367
4.772000	 64.7876
4.856000	 64.7799
4.940000	 64.8611
5.024000	 64.8026
5.108000	 64.7543
5.192000	 64.6764
5.276000	 64.8287
5.359999	 64.8666
5.444000	 64.7732
5.528000	 64.7697
5.612000	 64.678
5.696000	 64.6917
5.780000	 64.4417
5.864000	 64.6116
5.948000	 64.7045
6.032000	 64.7468
6.116000	 64.6094
6.200000	 64.5386
6.284000	 64.4846
6.368000	 64.6178
6.452000	 64.6239
6.536000	 64.4811
6.620000	 64.6455
6.704000	 64.5851
6.788000	 64.5512
6.872000	 64.5625
6.956000	 64.659
7.040000	 64.5784
7.124000	 64.4506
7.208000	 64.3807
7.292000	 64.3999
7.376000	 64.484
7.460000	 64.4735
7.544000	 64.3542
7.628000	 64.2662
7.712000	 64.421
7.796000	 64.4272
7.880000	 64.2793
7.964000	 64.3103
8.048000	 64.2166
8.132000	 64.3494
8.216000	 64.3441
8.300000	 64.1625
8.384000	 64.3072
8.468000	 64.1535
8.552000	 64.1848
8.635999	 64.1332
8.719999	 63.9892
8.804000	 64.1467
8.888000	 64.1289
8.972000	 64.2442
9.056000	 64.1205
9.140000	 64.504
9.224000	 64.4252
9.308000	 64.2324
9.391999	 64.094
9.475999	 64.2009
9.560000	 64.1736
9.644000	 64.2735
9.728000	 64.1436
9.812000	 64.2329
9.896000	 64.2647
9.980000	 64.2413
10.064	64.1642
10.148	64.288
10.232	64.3967
10.316	64.2778
10.4	64.1145
10.484	64.1416
10.568	64.4984
10.652	64.335
10.736	64.3323
10.82	64.3481
10.904	64.401
10.988	64.3532
11.072	64.1446
11.156	64.1929
11.24	63.971
11.324	63.9546
11.408	64.2676
11.492	64.3098
11.576	64.1082
11.66	64.0168
11.744	64.1139
11.828	64.266
11.912	64.3264
11.996	64.0915
12.08	63.9952
12.164	64.1233
12.248	64.0624
12.332	64.0751
12.416	64.0686
12.5	64.0533
12.584	64.2798
12.668	64.3834
12.752	64.3629
12.836	64.1198
12.92	64.0209
13.004	63.9691
13.088	63.9322
13.172	64.1392
13.256	64.2118
13.34	63.9574
13.424	63.736
13.508	63.8536
13.592	63.9632
13.676	63.9936
13.76	64.0181
13.844	63.9102
13.928	63.8154
14.012	63.8048
14.096	63.7895
14.18	63.7846
14.264	63.8094
14.348	63.7977
14.432	63.8124
14.516	63.8364
14.6	63.7915
14.684	63.8448
14.768	64.0343
14.852	64.1784
14.936	64.1737
15.02	64.1068
15.104	64.137
15.188	64.1098
15.272	63.8621
15.356	63.7319
15.44	63.9731
15.524	64.2972
15.608	64.4434
15.692	64.4556
15.776	64.386
15.86	64.3028
15.944	64.2433
16.028	64.0817
16.112	63.8612
16.196	63.87
16.28	64.0931
16.364	64.2064
16.448	64.1737
16.532	64.1694
16.616	64.117
16.7	63.9153
16.784	63.7858
16.868	63.9208
16.952	64.1322
17.036	64.1887
17.12	64.1475
17.204	64.1407
17.288	64.1276
17.372	63.9807
17.456	63.6726
17.54	63.3377
17.624	63.2151
17.708	63.3663
17.792	63.5205
17.876	63.3601
17.96	62.8935
18.044	62.4074
18.128	62.2225
18.212	62.54
18.296	63.2782
18.38	63.9523
18.464	64.0334
18.548	63.5291
18.632	62.9703
18.716	62.8158
18.8	63.0662
18.884	63.4418
18.968	63.7074
19.052	63.7627
19.136	63.6543
19.22	63.5997
19.304	63.8471
19.388	64.4042
19.472	64.9679
19.556	65.177
19.64	64.9414
19.724	64.5032
19.808	64.2048
19.892	64.2295
19.976	64.5285
20.06	64.8959
20.144	65.1133
20.228	65.0629
20.312	64.7648
20.396	64.3508
20.48	63.9809
20.564	63.749
20.648	63.6386
20.732	63.57
20.816	63.5152
20.9	63.526
20.984	63.6599
21.068	63.8725
21.152	64.0162
21.236	63.9571
21.32	63.6984
21.404	63.3957
21.488	63.2451
21.572	63.3424
21.656	63.6192
21.74	63.9052
21.824	64.0404
21.908	63.9657
21.992	63.72
22.076	63.3725
22.16	62.9795
22.244	62.5796
22.328	62.2087
22.412	61.9092
22.496	61.716
22.58	61.6436
22.664	61.6927
22.748	61.8584
22.832	62.1314
22.916	62.5039
23	62.9552
23.084	63.4487
23.168	63.9323
23.252	64.3518
23.336	64.6518
23.42	64.791
23.504	64.7326
23.588	64.4716
23.672	64.0434
23.756	63.5178
23.84	62.998
23.924	62.5958
24.008	62.4269
24.092	62.6052
24.176	63.1891
24.26	64.1372
24.344	65.2953
24.428	66.4425
24.512	67.3143
24.596	67.7469
24.68	67.7041
24.764	67.2595
24.848	66.5591
24.932	65.7262
25.016	64.7933
25.1	63.716
25.184	62.4372
25.268	60.9312
25.352	59.1958
25.436	57.2945
25.52	55.3218
25.604	53.3477
25.688	51.4455
25.772	49.6702
25.856	48.0949
25.94	46.8527
26.024	46.3107
26.108	47.0382
26.192	49.4098
26.276	53.2397
26.36	57.1469
26.444	60.1947
26.528	62.3266
26.612	64.8733
26.696	68.7645
26.78	73.4723
26.864	76.4941
26.948	74.9845
27.028	68.8387