File: Bakgrunnsmateriale/MATLAB/FTIR/ftir_data/subAa/Mapping_121/BZ1503107-1_t14.asc
PE IR       SPECTRUM    SPECTRUM    ASCII       PEDS        1.60
  -1
BZ295B~1.ASC
17/04/07
14:21:08.00
17/04/07
14:21:34.00
tln
$BZ1503107-1_t0014$<tbV0>[7.8,-10.4,8.0,0.0,27,1,0]
27.028
64

2002,4.07
MIRTGS : RIGHTBACK : INTERNAL 2
MIR : ON : INTERNAL 2
OPTKBR

0.200000
8
8.000000
FILLER
RATIO
SPECTRUM
UNLOCKED 256

DOUBLE
64
COMBINED
1
0
0

0.002000
RATIO

1
0
TRUE
51149
0
LEFT NOT FITTED RIGHT NOT FITTED 0
NONE
NONE
15600
12
4.427000
51148
TRUE
1 0 8 72 0 0 0 0

15798

#HDR
-1
-1
#GR
µM
%T
2.38419e-05
0.0
2.000000
0.002000
12515
8
98.3437
52.1636
#DATA
2.000000	 64.0523
2.084000	 65.7826
2.168000	 65.0042
2.252000	 68.759
2.336000	 64.9289
2.420000	 65.1195
2.504000	 65.3382
2.588000	 65.2885
2.672000	 65.4171
2.756000	 65.4172
2.840000	 65.2446
2.924000	 65.3158
3.008000	 65.1315
3.092000	 65.1343
3.176000	 65.3179
3.260000	 65.2631
3.344000	 65.1763
3.428000	 65.0103
3.512000	 65.0988
3.596000	 65.1063
3.680000	 65.1635
3.764000	 65.0955
3.848000	 65.0268
3.932000	 65.093
4.016000	 65.1384
4.100000	 64.9482
4.184000	 65.093
4.268000	 65.0385
4.352000	 64.9976
4.436000	 65.0491
4.520000	 64.8216
4.604000	 65.0284
4.688000	 64.8473
4.772000	 64.8622
4.856000	 64.9214
4.940000	 64.9652
5.024000	 64.8378
5.108000	 64.8688
5.192000	 64.7835
5.276000	 64.8317
5.359999	 64.8331
5.444000	 64.9102
5.528000	 64.9025
5.612000	 64.8462
5.696000	 64.7995
5.780000	 64.6867
5.864000	 64.7531
5.948000	 64.6896
6.032000	 64.7845
6.116000	 64.6841
6.200000	 64.6841
6.284000	 64.6866
6.368000	 64.7548
6.452000	 64.7105
6.536000	 64.5836
6.620000	 64.7402
6.704000	 64.7089
6.788000	 64.6907
6.872000	 64.7971
6.956000	 64.6136
7.040000	 64.495
7.124000	 64.5091
7.208000	 64.4696
7.292000	 64.352
7.376000	 64.5567
7.460000	 64.525
7.544000	 64.4922
7.628000	 64.4741
7.712000	 64.4936
7.796000	 64.4492
7.880000	 64.3723
7.964000	 64.3783
8.048000	 64.2987
8.132000	 64.2269
8.216000	 64.4513
8.300000	 64.301
8.384000	 64.3955
8.468000	 64.4147
8.552000	 64.2605
8.635999	 64.1623
8.719999	 64.0989
8.804000	 64.2763
8.888000	 64.3843
8.972000	 64.2315
9.056000	 64.1732
9.140000	 64.4423
9.224000	 64.4586
9.308000	 64.3959
9.391999	 64.1322
9.475999	 64.2864
9.560000	 64.2328
9.644000	 64.004
9.728000	 64.123
9.812000	 64.1976
9.896000	 64.1813
9.980000	 64.2401
10.064	64.2456
10.148	64.2759
10.232	64.3798
10.316	64.3068
10.4	64.394
10.484	64.3644
10.568	64.315
10.652	64.2568
10.736	64.1561
10.82	64.2334
10.904	64.4977
10.988	64.3909
11.072	64.1786
11.156	64.2029
11.24	64.1537
11.324	64.2248
11.408	64.1791
11.492	64.1364
11.576	64.0205
11.66	64.0542
11.744	64.2175
11.828	64.2972
11.912	64.15
11.996	64.1694
12.08	64.0943
12.164	64.1787
12.248	64.1956
12.332	64.1745
12.416	64.0128
12.5	63.9535
12.584	64.1695
12.668	64.271
12.752	64.2555
12.836	64.2083
12.92	64.2385
13.004	64.2004
13.088	64.0996
13.172	64.0597
13.256	64.1645
13.34	64.1784
13.424	64.056
13.508	64.0649
13.592	63.9223
13.676	63.8322
13.76	63.9443
13.844	63.9484
13.928	63.9338
14.012	63.9709
14.096	64.0012
14.18	63.9791
14.264	63.971
14.348	63.9267
14.432	63.8581
14.516	63.9003
14.6	63.8865
14.684	63.7559
14.768	63.6975
14.852	63.7921
14.936	63.9012
15.02	63.898
15.104	63.8525
15.188	63.8415
15.272	63.862
15.356	63.9092
15.44	63.923
15.524	63.8576
15.608	63.7794
15.692	63.764
15.776	63.8005
15.86	63.8177
15.944	63.7561
16.028	63.6406
16.112	63.5849
16.196	63.6296
16.28	63.7101
16.364	63.8102
16.448	63.872
16.532	63.7551
16.616	63.5858
16.7	63.6553
16.784	63.8679
16.868	63.9182
16.952	63.8037
17.036	63.7771
17.12	63.9625
17.204	64.2617
17.288	64.5499
17.372	64.7496
17.456	64.7093
17.54	64.2965
17.624	63.795
17.708	63.7511
17.792	64.2139
17.876	64.564
17.96	64.3069
18.044	63.658
18.128	63.1881
18.212	63.1645
18.296	63.4585
18.38	63.8563
18.464	64.2659
18.548	64.6683
18.632	65.0066
18.716	65.1998
18.8	65.218
18.884	65.1
18.968	64.927
19.052	64.7858
19.136	64.6981
19.22	64.58
19.304	64.3091
19.388	63.9037
19.472	63.588
19.556	63.6058
19.64	63.9784
19.724	64.4862
19.808	64.8752
19.892	65.0308
19.976	64.9738
20.06	64.7722
20.144	64.4868
20.228	64.172
20.312	63.8617
20.396	63.5621
20.48	63.3013
20.564	63.1843
20.648	63.3681
20.732	63.9159
20.816	64.6753
20.9	65.3271
20.984	65.5938
21.068	65.4195
21.152	64.9738
21.236	64.4983
21.32	64.1521
21.404	63.9724
21.488	63.9169
21.572	63.9259
21.656	63.9326
21.74	63.8653
21.824	63.6718
21.908	63.3653
21.992	63.0326
22.076	62.7832
22.16	62.6819
22.244	62.7091
22.328	62.7858
22.412	62.8412
22.496	62.8616
22.58	62.8866
22.664	62.9707
22.748	63.1364
22.832	63.3545
22.916	63.5756
23	63.7656
23.084	63.9132
23.168	64.0404
23.252	64.1747
23.336	64.3068
23.42	64.4048
23.504	64.4174
23.588	64.3072
23.672	64.0813
23.756	63.8057
23.84	63.5694
23.924	63.4572
24.008	63.5356
24.092	63.8492
24.176	64.4068
24.26	65.137
24.344	65.8973
24.428	66.505
24.512	66.6958
24.596	66.2587
24.68	65.0681
24.764	63.1271
24.848	60.5935
24.932	57.7912
25.016	55.1548
25.1	53.1663
25.184	52.2185
25.268	52.4147
25.352	53.5103
25.436	55.0638
25.52	56.5864
25.604	57.6909
25.688	58.0883
25.772	57.773
25.856	57.0684
25.94	56.9776
26.024	58.4081
26.108	61.3288
26.192	65.3651
26.276	70.1308
26.36	75.9396
26.444	82.3609
26.528	88.2199
26.612	90.7799
26.696	88.8652
26.78	84.4394
26.864	82.6365
26.948	88.0646
27.028	98.3437