File: Bakgrunnsmateriale/MATLAB/FTIR/ftir_data/subAa/Mapping_121/BZ1503107-1_t04.asc
PE IR       SPECTRUM    SPECTRUM    ASCII       PEDS        1.60
  -1
BZ1955~1.ASC
17/04/07
13:34:21.00
17/04/07
13:34:47.00
tln
$BZ1503107-1_t0004$<tbV0>[5.2,-13.0,8.0,0.0,27,1,0]
27.028
64

2002,4.07
MIRTGS : RIGHTBACK : INTERNAL 2
MIR : ON : INTERNAL 2
OPTKBR

0.200000
8
8.000000
FILLER
RATIO
SPECTRUM
UNLOCKED 256

DOUBLE
64
COMBINED
1
0
0

0.002000
RATIO

1
0
TRUE
51149
0
LEFT NOT FITTED RIGHT NOT FITTED 0
NONE
NONE
15600
12
4.427000
51148
TRUE
1 0 8 72 0 0 0 0

15798

#HDR
-1
-1
#GR
µM
%T
2.38419e-05
0.0
2.000000
0.002000
12515
8
75.2784
29.9271
#DATA
2.000000	 64.354
2.084000	 66.1075
2.168000	 64.7991
2.252000	 64.38
2.336000	 65.0298
2.420000	 65.0055
2.504000	 64.8645
2.588000	 64.98
2.672000	 65.2823
2.756000	 65.3124
2.840000	 65.0092
2.924000	 65.2223
3.008000	 65.096
3.092000	 65.0367
3.176000	 65.1911
3.260000	 65.0964
3.344000	 65.0389
3.428000	 65.0086
3.512000	 65.0669
3.596000	 65.0303
3.680000	 65.0633
3.764000	 65.1134
3.848000	 65.1641
3.932000	 65.0429
4.016000	 65.1643
4.100000	 65.0563
4.184000	 65.0757
4.268000	 64.8882
4.352000	 64.9116
4.436000	 64.9944
4.520000	 64.8992
4.604000	 64.9329
4.688000	 64.8283
4.772000	 64.8429
4.856000	 64.8427
4.940000	 64.9815
5.024000	 64.7791
5.108000	 64.8418
5.192000	 64.8211
5.276000	 64.8193
5.359999	 64.9195
5.444000	 64.8956
5.528000	 64.879
5.612000	 64.8305
5.696000	 64.8
5.780000	 64.6797
5.864000	 64.7563
5.948000	 64.8242
6.032000	 64.8491
6.116000	 64.8443
6.200000	 64.6619
6.284000	 64.6837
6.368000	 64.5914
6.452000	 64.7471
6.536000	 64.5594
6.620000	 64.5818
6.704000	 64.6543
6.788000	 64.544
6.872000	 64.629
6.956000	 64.6796
7.040000	 64.5953
7.124000	 64.5189
7.208000	 64.3513
7.292000	 64.5359
7.376000	 64.485
7.460000	 64.4904
7.544000	 64.4244
7.628000	 64.4887
7.712000	 64.3941
7.796000	 64.3646
7.880000	 64.2741
7.964000	 64.4699
8.048000	 64.348
8.132000	 64.3666
8.216000	 64.4096
8.300000	 64.4549
8.384000	 64.525
8.468000	 64.2458
8.552000	 64.4102
8.635999	 64.2814
8.719999	 64.1618
8.804000	 64.3202
8.888000	 64.3623
8.972000	 64.3307
9.056000	 64.3005
9.140000	 64.4226
9.224000	 64.3657
9.308000	 64.2079
9.391999	 64.1307
9.475999	 64.2169
9.560000	 64.1411
9.644000	 64.1803
9.728000	 64.354
9.812000	 64.231
9.896000	 64.3397
9.980000	 64.1919
10.064	64.1893
10.148	64.2834
10.232	64.3716
10.316	64.3033
10.4	64.2819
10.484	64.2674
10.568	64.3997
10.652	64.3387
10.736	64.2314
10.82	64.4209
10.904	64.5657
10.988	64.3806
11.072	64.2488
11.156	64.4036
11.24	64.3183
11.324	64.2683
11.408	64.3078
11.492	64.3491
11.576	64.4662
11.66	64.3783
11.744	64.4671
11.828	64.5113
11.912	64.297
11.996	64.191
12.08	64.1645
12.164	64.288
12.248	64.2111
12.332	64.1249
12.416	64.1476
12.5	64.1573
12.584	64.1937
12.668	64.2532
12.752	64.2624
12.836	64.2488
12.92	64.1852
13.004	64.1537
13.088	64.2771
13.172	64.3689
13.256	64.2685
13.34	64.1921
13.424	64.1326
13.508	64.0041
13.592	63.9787
13.676	64.0637
13.76	64.2294
13.844	64.2202
13.928	64.1242
14.012	64.1696
14.096	64.2183
14.18	64.1492
14.264	63.9527
14.348	63.7445
14.432	63.7731
14.516	63.9363
14.6	64.0264
14.684	64.0492
14.768	63.9999
14.852	64.0053
14.936	64.0966
15.02	64.1268
15.104	64.0814
15.188	64.0303
15.272	64.0201
15.356	64.0796
15.44	64.1774
15.524	64.2056
15.608	64.1387
15.692	64.0994
15.776	64.1341
15.86	64.1309
15.944	64.0393
16.028	63.9334
16.112	63.8886
16.196	63.9153
16.28	63.923
16.364	63.8284
16.448	63.7302
16.532	63.7532
16.616	63.8221
16.7	63.8355
16.784	63.8429
16.868	63.8856
16.952	63.9184
17.036	63.9466
17.12	64.009
17.204	64.0654
17.288	64.0717
17.372	64.0152
17.456	63.8569
17.54	63.616
17.624	63.4717
17.708	63.6016
17.792	63.9618
17.876	64.3158
17.96	64.4389
18.044	64.2858
18.128	64.0339
18.212	63.8966
18.296	63.9095
18.38	63.9626
18.464	63.9604
18.548	63.897
18.632	63.8487
18.716	63.9053
18.8	64.1011
18.884	64.3918
18.968	64.6764
19.052	64.8447
19.136	64.8463
19.22	64.729
19.304	64.5857
19.388	64.4666
19.472	64.3503
19.556	64.1944
19.64	64.0189
19.724	63.9295
19.808	64.0283
19.892	64.2884
19.976	64.5552
20.06	64.6807
20.144	64.6388
20.228	64.4965
20.312	64.3091
20.396	64.084
20.48	63.8335
20.564	63.64
20.648	63.6164
20.732	63.8077
20.816	64.1585
20.9	64.5485
20.984	64.8807
21.068	65.1164
21.152	65.2544
21.236	65.296
21.32	65.2357
21.404	65.0991
21.488	64.9813
21.572	65.0285
21.656	65.3355
21.74	65.8701
21.824	66.4222
21.908	66.679
21.992	66.412
22.076	65.6003
22.16	64.4656
22.244	63.3739
22.328	62.6389
22.412	62.4416
22.496	62.7355
22.58	63.318
22.664	63.9362
22.748	64.3987
22.832	64.7054
22.916	65.0424
23	65.7063
23.084	66.9247
23.168	68.6735
23.252	70.6313
23.336	72.3069
23.42	73.2887
23.504	73.4092
23.588	72.7488
23.672	71.4745
23.756	69.7067
23.84	67.4754
23.924	64.7907
24.008	61.7921
24.092	58.8366
24.176	56.4009
24.26	54.9049
24.344	54.5558
24.428	55.2638
24.512	56.7604
24.596	58.7115
24.68	60.8239
24.764	62.9049
24.848	64.8562
24.932	66.6252
25.016	68.1635
25.1	69.4374
25.184	70.3657
25.268	70.7971
25.352	70.5291
25.436	69.312
25.52	67.0053
25.604	63.7008
25.688	59.5638
25.772	55.0752
25.856	50.9854
25.94	48.2528
26.024	46.9276
26.108	45.4539
26.192	42.6388
26.276	38.6104
26.36	36.0712
26.444	36.6932
26.528	40.1041
26.612	41.8155
26.696	38.7676
26.78	32.5054
26.864	30.1333
26.948	38.8234
27.028	55.4017