File: Bakgrunnsmateriale/MATLAB/FTIR/ftir_data/subAa/Mapping_121/BZ1503107-1_t101.asc
PE IR       SPECTRUM    SPECTRUM    ASCII       PEDS        1.60
  -1
BZC6B6~1.ASC
17/04/07
21:32:49.00
17/04/07
21:33:16.00
tln
$BZ1503107-1_t0101$<tbV0>[10.4,10.4,8.0,0.0,27,1,0]
27.028
64

2002,4.07
MIRTGS : RIGHTBACK : INTERNAL 2
MIR : ON : INTERNAL 2
OPTKBR

0.200000
8
8.000000
FILLER
RATIO
SPECTRUM
UNLOCKED 256

DOUBLE
64
COMBINED
1
0
0

0.002000
RATIO

1
0
TRUE
51149
0
LEFT NOT FITTED RIGHT NOT FITTED 0
NONE
NONE
15600
12
4.427000
51148
TRUE
1 0 8 72 0 0 0 0

15798

#HDR
-1
-1
#GR
µM
%T
2.38419e-05
0.0
2.000000
0.002000
12515
8
90.1425
30.9998
#DATA
2.000000	 64.2932
2.084000	 64.4816
2.168000	 64.1804
2.252000	 90.1425
2.336000	 64.0886
2.420000	 64.6992
2.504000	 64.5639
2.588000	 64.4261
2.672000	 64.6264
2.756000	 64.6121
2.840000	 64.6054
2.924000	 64.3908
3.008000	 64.2632
3.092000	 64.4793
3.176000	 64.3699
3.260000	 64.2696
3.344000	 64.3853
3.428000	 64.3786
3.512000	 64.1516
3.596000	 64.3252
3.680000	 64.3121
3.764000	 64.1489
3.848000	 64.1589
3.932000	 64.1421
4.016000	 64.3032
4.100000	 64.1259
4.184000	 64.1379
4.268000	 64.1437
4.352000	 64.0907
4.436000	 64.0913
4.520000	 64.0832
4.604000	 64.044
4.688000	 63.9996
4.772000	 63.9773
4.856000	 63.9577
4.940000	 63.9415
5.024000	 64.0049
5.108000	 64.0302
5.192000	 63.8801
5.276000	 63.9278
5.359999	 63.855
5.444000	 63.9884
5.528000	 63.9389
5.612000	 63.7233
5.696000	 63.6641
5.780000	 63.4354
5.864000	 63.6338
5.948000	 63.6059
6.032000	 63.6029
6.116000	 63.685
6.200000	 63.5578
6.284000	 63.714
6.368000	 63.5263
6.452000	 63.5079
6.536000	 63.4736
6.620000	 63.5671
6.704000	 63.6016
6.788000	 63.5922
6.872000	 63.3595
6.956000	 63.3165
7.040000	 63.4831
7.124000	 63.4579
7.208000	 63.4477
7.292000	 63.2486
7.376000	 63.2533
7.460000	 63.3374
7.544000	 63.38
7.628000	 63.3678
7.712000	 63.2257
7.796000	 63.2107
7.880000	 63.1217
7.964000	 63.1343
8.048000	 63.1803
8.132000	 63.159
8.216000	 63.2732
8.300000	 63.1806
8.384000	 63.1775
8.468000	 63.0919
8.552000	 62.9464
8.635999	 63.0242
8.719999	 63.0927
8.804000	 63.0454
8.888000	 63.0451
8.972000	 62.9913
9.056000	 62.8672
9.140000	 62.9911
9.224000	 62.9659
9.308000	 62.7576
9.391999	 62.9867
9.475999	 62.7567
9.560000	 62.9858
9.644000	 63.135
9.728000	 63.0485
9.812000	 62.9812
9.896000	 62.9293
9.980000	 62.8178
10.064	62.9136
10.148	63.0987
10.232	63.0649
10.316	63.0505
10.4	62.9788
10.484	63.0539
10.568	62.9443
10.652	62.9415
10.736	62.9485
10.82	63.0487
10.904	62.9697
10.988	62.9215
11.072	62.8901
11.156	62.898
11.24	62.9073
11.324	62.8488
11.408	62.9897
11.492	63.0885
11.576	63.1052
11.66	63.0779
11.744	62.9652
11.828	62.8767
11.912	62.8984
11.996	62.989
12.08	62.9112
12.164	62.809
12.248	62.927
12.332	62.9661
12.416	62.8527
12.5	62.5541
12.584	62.7077
12.668	62.9155
12.752	62.947
12.836	62.7
12.92	62.5215
13.004	62.6055
13.088	62.6827
13.172	62.6875
13.256	62.6483
13.34	62.6902
13.424	62.7307
13.508	62.7804
13.592	62.8646
13.676	62.7618
13.76	62.6091
13.844	62.6052
13.928	62.6829
14.012	62.6908
14.096	62.5916
14.18	62.4891
14.264	62.4914
14.348	62.6064
14.432	62.6946
14.516	62.673
14.6	62.5789
14.684	62.484
14.768	62.4099
14.852	62.4048
14.936	62.4981
15.02	62.5281
15.104	62.3694
15.188	62.1841
15.272	62.1944
15.356	62.3669
15.44	62.5138
15.524	62.6109
15.608	62.7104
15.692	62.7027
15.776	62.5204
15.86	62.2768
15.944	62.014
16.028	61.7699
16.112	61.7445
16.196	61.999
16.28	62.3388
16.364	62.5968
16.448	62.6637
16.532	62.495
16.616	62.2515
16.7	62.1601
16.784	62.2393
16.868	62.301
16.952	62.1837
17.036	61.9889
17.12	61.9618
17.204	62.0727
17.288	62.0658
17.372	61.9361
17.456	61.973
17.54	62.2792
17.624	62.5765
17.708	62.5698
17.792	62.2707
17.876	61.9047
17.96	61.6334
18.044	61.4852
18.128	61.5012
18.212	61.8035
18.296	62.3714
18.38	62.8372
18.464	62.7769
18.548	62.2263
18.632	61.6597
18.716	61.4644
18.8	61.5917
18.884	61.7585
18.968	61.8249
19.052	61.8768
19.136	61.971
19.22	62.0128
19.304	61.9164
19.388	61.7816
19.472	61.7829
19.556	61.9309
19.64	61.9975
19.724	61.691
19.808	60.9233
19.892	59.9187
19.976	59.1103
20.06	58.8889
20.144	59.3853
20.228	60.4091
20.312	61.5559
20.396	62.4175
20.48	62.7756
20.564	62.6749
20.648	62.3361
20.732	62.0066
20.816	61.8318
20.9	61.822
20.984	61.8962
21.068	61.9504
21.152	61.9093
21.236	61.7513
21.32	61.5057
21.404	61.2383
21.488	61.0197
21.572	60.9051
21.656	60.9307
21.74	61.0991
21.824	61.366
21.908	61.6343
21.992	61.782
22.076	61.7252
22.16	61.4744
22.244	61.134
22.328	60.8415
22.412	60.6859
22.496	60.6577
22.58	60.6935
22.664	60.7466
22.748	60.8322
22.832	61.0066
22.916	61.3077
23	61.688
23.084	62.0417
23.168	62.2531
23.252	62.2815
23.336	62.1923
23.42	62.1419
23.504	62.28
23.588	62.6596
23.672	63.2041
23.756	63.7183
23.84	64.0011
23.924	63.9164
24.008	63.454
24.092	62.7357
24.176	61.9522
24.26	61.3209
24.344	61.034
24.428	61.1878
24.512	61.8045
24.596	62.8065
24.68	63.9961
24.764	65.0759
24.848	65.7311
24.932	65.7286
25.016	65.0262
25.1	63.7493
25.184	62.1322
25.268	60.4219
25.352	58.8142
25.436	57.3976
25.52	56.1678
25.604	55.0851
25.688	54.0776
25.772	53.0066
25.856	51.6755
25.94	49.9176
26.024	47.6959
26.108	45.1731
26.192	42.6791
26.276	40.6085
26.36	39.3021
26.444	38.8931
26.528	39.2134
26.612	39.8409
26.696	40.1551
26.78	39.4978
26.864	37.4852
26.948	34.296
27.028	30.9998