File: Bakgrunnsmateriale/MATLAB/FTIR/ftir_data/subAa/Mapping_121/BZ1503107-1_t66.asc
PE IR       SPECTRUM    SPECTRUM    ASCII       PEDS        1.60
  -1
BZ2161~1.ASC
17/04/07
18:36:41.00
17/04/07
18:37:07.00
tln
$BZ1503107-1_t0066$<tbV0>[-13.0,0.0,8.0,0.0,27,1,0]
27.028
64

2002,4.07
MIRTGS : RIGHTBACK : INTERNAL 2
MIR : ON : INTERNAL 2
OPTKBR

0.200000
8
8.000000
FILLER
RATIO
SPECTRUM
UNLOCKED 256

DOUBLE
64
COMBINED
1
0
0

0.002000
RATIO

1
0
TRUE
51149
0
LEFT NOT FITTED RIGHT NOT FITTED 0
NONE
NONE
15600
12
4.427000
51148
TRUE
1 0 8 72 0 0 0 0

15798

#HDR
-1
-1
#GR
µM
%T
2.38419e-05
0.0
2.000000
0.002000
12515
8
79.562
54.7749
#DATA
2.000000	 65.6723
2.084000	 65.4569
2.168000	 64.5169
2.252000	 63.8906
2.336000	 65.1935
2.420000	 65.4091
2.504000	 65.4445
2.588000	 65.4148
2.672000	 65.2045
2.756000	 65.2741
2.840000	 65.2236
2.924000	 65.2434
3.008000	 65.3
3.092000	 65.1274
3.176000	 65.1438
3.260000	 65.0915
3.344000	 65.0413
3.428000	 64.992
3.512000	 65.1209
3.596000	 65.0073
3.680000	 65.1522
3.764000	 65.1791
3.848000	 64.9612
3.932000	 64.9733
4.016000	 65.0584
4.100000	 64.9642
4.184000	 64.9041
4.268000	 64.8367
4.352000	 64.9218
4.436000	 64.8527
4.520000	 64.7763
4.604000	 64.7374
4.688000	 64.7069
4.772000	 64.7456
4.856000	 64.7372
4.940000	 64.6794
5.024000	 64.7075
5.108000	 64.4479
5.192000	 64.6655
5.276000	 64.6475
5.359999	 64.6413
5.444000	 64.596
5.528000	 64.4731
5.612000	 64.5163
5.696000	 64.2822
5.780000	 63.5397
5.864000	 64.1307
5.948000	 64.3144
6.032000	 64.2551
6.116000	 64.1812
6.200000	 64.1907
6.284000	 64.2185
6.368000	 64.2454
6.452000	 64.1779
6.536000	 64.1576
6.620000	 64.2604
6.704000	 64.3962
6.788000	 64.2026
6.872000	 64.1168
6.956000	 64.076
7.040000	 64.0843
7.124000	 64.1682
7.208000	 63.9651
7.292000	 64.0311
7.376000	 64.0071
7.460000	 64.0035
7.544000	 63.9509
7.628000	 63.7742
7.712000	 64.0308
7.796000	 63.919
7.880000	 63.8068
7.964000	 63.6723
8.048000	 63.6824
8.132000	 63.6663
8.216000	 63.6051
8.300000	 63.7408
8.384000	 63.6886
8.468000	 63.5384
8.552000	 63.4478
8.635999	 63.2952
8.719999	 63.6596
8.804000	 63.8104
8.888000	 63.7574
8.972000	 63.6358
9.056000	 63.8102
9.140000	 63.7319
9.224000	 63.7318
9.308000	 63.5387
9.391999	 63.8766
9.475999	 63.7149
9.560000	 63.7797
9.644000	 63.5104
9.728000	 63.5429
9.812000	 63.6694
9.896000	 63.7582
9.980000	 63.8793
10.064	63.8898
10.148	63.8533
10.232	63.8589
10.316	63.9044
10.4	63.7819
10.484	63.6806
10.568	63.6766
10.652	63.7702
10.736	63.7807
10.82	63.9717
10.904	63.8375
10.988	63.6552
11.072	63.7781
11.156	63.5882
11.24	63.5489
11.324	63.7964
11.408	63.7493
11.492	63.787
11.576	63.7664
11.66	63.7539
11.744	63.7616
11.828	63.7581
11.912	63.7643
11.996	63.5898
12.08	63.8214
12.164	63.6066
12.248	63.565
12.332	63.668
12.416	63.5772
12.5	63.4923
12.584	63.4223
12.668	63.4946
12.752	63.6361
12.836	63.5907
12.92	63.4322
13.004	63.385
13.088	63.4047
13.172	63.3713
13.256	63.3246
13.34	63.3031
13.424	63.3913
13.508	63.5368
13.592	63.3802
13.676	63.2752
13.76	63.4006
13.844	63.4043
13.928	63.3205
14.012	63.4999
14.096	63.559
14.18	63.387
14.264	63.5509
14.348	63.798
14.432	63.827
14.516	63.9698
14.6	64.1105
14.684	63.9354
14.768	63.7251
14.852	63.5696
14.936	63.2777
15.02	63.2156
15.104	63.6404
15.188	63.9203
15.272	63.794
15.356	63.8676
15.44	64.1505
15.524	63.9107
15.608	63.2932
15.692	63.0768
15.776	63.0362
15.86	62.6561
15.944	62.4161
16.028	62.8921
16.112	63.7105
16.196	64.0319
16.28	63.5341
16.364	62.8108
16.448	62.6707
16.532	63.1492
16.616	63.5927
16.7	63.6709
16.784	63.6772
16.868	63.8001
16.952	63.9128
17.036	63.9906
17.12	64.0868
17.204	64.088
17.288	63.9124
17.372	63.7134
17.456	63.6739
17.54	63.791
17.624	63.9019
17.708	63.8632
17.792	63.7013
17.876	63.5562
17.96	63.5015
18.044	63.5008
18.128	63.5098
18.212	63.5001
18.296	63.3946
18.38	63.1445
18.464	62.8672
18.548	62.7795
18.632	62.9708
18.716	63.3192
18.8	63.66
18.884	63.9481
18.968	64.1948
19.052	64.3386
19.136	64.2859
19.22	64.0537
19.304	63.7823
19.388	63.5919
19.472	63.4837
19.556	63.3943
19.64	63.2985
19.724	63.2256
19.808	63.2006
19.892	63.2146
19.976	63.2485
20.06	63.2961
20.144	63.3503
20.228	63.3943
20.312	63.4207
20.396	63.4546
20.48	63.5324
20.564	63.6523
20.648	63.7593
20.732	63.7964
20.816	63.7665
20.9	63.7348
20.984	63.7591
21.068	63.8203
21.152	63.8365
21.236	63.7406
21.32	63.5486
21.404	63.3498
21.488	63.2307
21.572	63.2
21.656	63.1885
21.74	63.1172
21.824	62.9693
21.908	62.8107
21.992	62.7292
22.076	62.7561
22.16	62.8315
22.244	62.837
22.328	62.693
22.412	62.4146
22.496	62.1088
22.58	61.8817
22.664	61.7669
22.748	61.7095
22.832	61.6388
22.916	61.532
23	61.4635
23.084	61.5406
23.168	61.8356
23.252	62.3258
23.336	62.9024
23.42	63.4341
23.504	63.8245
23.588	64.0525
23.672	64.152
23.756	64.169
23.84	64.1372
23.924	64.0756
24.008	63.992
24.092	63.8872
24.176	63.7576
24.26	63.5471
24.344	63.1672
24.428	62.5563
24.512	61.6919
24.596	60.6615
24.68	59.6635
24.764	58.9387
24.848	58.6327
24.932	58.7437
25.016	59.1023
25.1	59.4359
25.184	59.4513
25.268	58.9798
25.352	58.0376
25.436	56.8448
25.52	55.7259
25.604	54.9665
25.688	54.7949
25.772	55.3317
25.856	56.6047
25.94	58.6083
26.024	61.3334
26.108	64.7327
26.192	68.6431
26.276	72.6969
26.36	76.3051
26.444	78.7793
26.528	79.5514
26.612	78.3607
26.696	75.3927
26.78	71.3062
26.864	67.0746
26.948	63.6842
27.028	61.9095