File: Bakgrunnsmateriale/MATLAB/FTIR/ftir_data/subAa/Mapping_121/BZ1503107-1_t68.asc
PE IR       SPECTRUM    SPECTRUM    ASCII       PEDS        1.60
  -1
BZ2961~1.ASC
17/04/07
18:52:40.00
17/04/07
18:53:06.00
tln
$BZ1503107-1_t0068$<tbV0>[10.4,2.6,8.0,0.0,27,1,0]
27.028
64

2002,4.07
MIRTGS : RIGHTBACK : INTERNAL 2
MIR : ON : INTERNAL 2
OPTKBR

0.200000
8
8.000000
FILLER
RATIO
SPECTRUM
UNLOCKED 256

DOUBLE
64
COMBINED
1
0
0

0.002000
RATIO

1
0
TRUE
51149
0
LEFT NOT FITTED RIGHT NOT FITTED 0
NONE
NONE
15600
12
4.427000
51148
TRUE
1 0 8 72 0 0 0 0

15798

#HDR
-1
-1
#GR
µM
%T
2.38419e-05
0.0
2.000000
0.002000
12515
8
79.9162
51.4777
#DATA
2.000000	 65.2046
2.084000	 64.9096
2.168000	 64.8629
2.252000	 64.5778
2.336000	 64.8494
2.420000	 65.043
2.504000	 64.9869
2.588000	 65.1792
2.672000	 65.1175
2.756000	 65.1712
2.840000	 64.9803
2.924000	 64.9347
3.008000	 65.0476
3.092000	 65.0354
3.176000	 65.0647
3.260000	 65.037
3.344000	 65.0416
3.428000	 64.8677
3.512000	 64.7902
3.596000	 64.9539
3.680000	 64.9882
3.764000	 64.9213
3.848000	 64.7367
3.932000	 64.8376
4.016000	 64.8077
4.100000	 64.7361
4.184000	 64.6829
4.268000	 64.7348
4.352000	 64.6239
4.436000	 64.7197
4.520000	 64.6297
4.604000	 64.5993
4.688000	 64.5775
4.772000	 64.4968
4.856000	 64.5052
4.940000	 64.4548
5.024000	 64.4093
5.108000	 64.536
5.192000	 64.4354
5.276000	 64.3701
5.359999	 64.3099
5.444000	 64.2207
5.528000	 64.4793
5.612000	 64.3236
5.696000	 64.3101
5.780000	 64.1154
5.864000	 64.2265
5.948000	 64.2533
6.032000	 64.1027
6.116000	 64.065
6.200000	 64.1531
6.284000	 64.0205
6.368000	 64.0449
6.452000	 63.8783
6.536000	 63.9955
6.620000	 64.0406
6.704000	 63.9884
6.788000	 63.9184
6.872000	 64.0515
6.956000	 63.949
7.040000	 64.1038
7.124000	 63.8826
7.208000	 63.9168
7.292000	 63.9303
7.376000	 63.7922
7.460000	 63.9662
7.544000	 63.9232
7.628000	 63.8839
7.712000	 63.9091
7.796000	 63.6132
7.880000	 63.6564
7.964000	 63.8365
8.048000	 63.8861
8.132000	 63.7699
8.216000	 63.7151
8.300000	 63.5676
8.384000	 63.6257
8.468000	 63.5902
8.552000	 63.5976
8.635999	 63.5372
8.719999	 63.6694
8.804000	 63.6036
8.888000	 63.65
8.972000	 63.6141
9.056000	 63.6058
9.140000	 63.3771
9.224000	 63.5121
9.308000	 63.7435
9.391999	 63.565
9.475999	 63.4755
9.560000	 63.4458
9.644000	 63.4683
9.728000	 63.4828
9.812000	 63.5344
9.896000	 63.4611
9.980000	 63.616
10.064	63.5382
10.148	63.6239
10.232	63.5826
10.316	63.4613
10.4	63.6266
10.484	63.6785
10.568	63.4898
10.652	63.6398
10.736	63.6173
10.82	63.7642
10.904	63.7816
10.988	63.5926
11.072	63.4245
11.156	63.5183
11.24	63.5636
11.324	63.4968
11.408	63.6082
11.492	63.7076
11.576	63.5675
11.66	63.6025
11.744	63.5385
11.828	63.378
11.912	63.4511
11.996	63.4964
12.08	63.3649
12.164	63.5766
12.248	63.7147
12.332	63.7066
12.416	63.717
12.5	63.724
12.584	63.5585
12.668	63.5374
12.752	63.5478
12.836	63.6476
12.92	63.4769
13.004	63.2505
13.088	63.3407
13.172	63.4711
13.256	63.6457
13.34	63.6728
13.424	63.4974
13.508	63.4571
13.592	63.3661
13.676	63.1448
13.76	63.0497
13.844	63.0369
13.928	63.0655
14.012	63.104
14.096	62.8326
14.18	62.6773
14.264	62.9086
14.348	63.1726
14.432	63.3613
14.516	63.2928
14.6	63.0804
14.684	63.209
14.768	63.4118
14.852	62.9957
14.936	62.2708
15.02	62.3544
15.104	63.3023
15.188	64.069
15.272	64.2036
15.356	63.9878
15.44	63.6542
15.524	63.3164
15.608	62.9814
15.692	62.5758
15.776	62.2136
15.86	62.0195
15.944	61.9026
16.028	61.8864
16.112	62.1367
16.196	62.5782
16.28	62.9388
16.364	63.1183
16.448	63.2775
16.532	63.533
16.616	63.6643
16.7	63.4195
16.784	62.9768
16.868	62.6999
16.952	62.6927
17.036	62.81
17.12	62.8948
17.204	62.9306
17.288	63.0393
17.372	63.2857
17.456	63.5352
17.54	63.6092
17.624	63.4991
17.708	63.3434
17.792	63.2564
17.876	63.2164
17.96	63.1241
18.044	62.9432
18.128	62.7638
18.212	62.7028
18.296	62.7704
18.38	62.8616
18.464	62.8584
18.548	62.7374
18.632	62.6088
18.716	62.5971
18.8	62.7164
18.884	62.8935
18.968	63.052
19.052	63.135
19.136	63.1279
19.22	63.094
19.304	63.1311
19.388	63.249
19.472	63.3297
19.556	63.2648
19.64	63.0945
19.724	62.9522
19.808	62.9087
19.892	62.938
19.976	62.9992
20.06	63.0885
20.144	63.1984
20.228	63.2781
20.312	63.2731
20.396	63.1978
20.48	63.1366
20.564	63.1538
20.648	63.2257
20.732	63.2647
20.816	63.2107
20.9	63.0842
20.984	62.9548
21.068	62.8758
21.152	62.8478
21.236	62.8474
21.32	62.861
21.404	62.8832
21.488	62.8897
21.572	62.8241
21.656	62.6347
21.74	62.3251
21.824	61.9711
21.908	61.6842
21.992	61.5392
22.076	61.5401
22.16	61.643
22.244	61.8027
22.328	62.0144
22.412	62.2911
22.496	62.6223
22.58	62.9381
22.664	63.1298
22.748	63.1046
22.832	62.8446
22.916	62.4196
23	61.9592
23.084	61.5937
23.168	61.4219
23.252	61.4859
23.336	61.7874
23.42	62.3119
23.504	63.021
23.588	63.8463
23.672	64.692
23.756	65.4441
23.84	66.0349
23.924	66.4644
24.008	66.7769
24.092	67.0163
24.176	67.1923
24.26	67.3038
24.344	67.3584
24.428	67.3804
24.512	67.4099
24.596	67.4744
24.68	67.5604
24.764	67.6021
24.848	67.5256
24.932	67.2365
25.016	66.6551
25.1	65.7618
25.184	64.5934
25.268	63.2443
25.352	61.8399
25.436	60.6074
25.52	59.7799
25.604	59.4703
25.688	59.6607
25.772	60.1425
25.856	60.569
25.94	60.6233
26.024	60.1262
26.108	59.1157
26.192	57.819
26.276	56.5814
26.36	55.7651
26.444	55.6156
26.528	56.2199
26.612	57.6115
26.696	59.7301
26.78	62.3968
26.864	65.3889
26.948	68.3625
27.028	70.6604