File: Bakgrunnsmateriale/MATLAB/FTIR/ftir_data/subAa/Mapping_121/BZ1503107-1_t112.asc
PE IR       SPECTRUM    SPECTRUM    ASCII       PEDS        1.60
  -1
BZDABA~1.ASC
17/04/07
22:29:52.00
17/04/07
22:30:18.00
tln
$BZ1503107-1_t0112$<tbV0>[10.4,13.0,8.0,0.0,27,1,0]
27.028
64

2002,4.07
MIRTGS : RIGHTBACK : INTERNAL 2
MIR : ON : INTERNAL 2
OPTKBR

0.200000
8
8.000000
FILLER
RATIO
SPECTRUM
UNLOCKED 256

DOUBLE
64
COMBINED
1
0
0

0.002000
RATIO

1
0
TRUE
51149
0
LEFT NOT FITTED RIGHT NOT FITTED 0
NONE
NONE
15600
12
4.427000
51148
TRUE
1 0 8 72 0 0 0 0

15798

#HDR
-1
-1
#GR
µM
%T
2.38419e-05
0.0
2.000000
0.002000
12515
8
74.9038
51.5284
#DATA
2.000000	 65.0947
2.084000	 64.7744
2.168000	 65.0131
2.252000	 54.5876
2.336000	 64.807
2.420000	 64.7605
2.504000	 65.0364
2.588000	 64.9938
2.672000	 65.165
2.756000	 65.0339
2.840000	 64.9506
2.924000	 65.0207
3.008000	 64.9156
3.092000	 64.9588
3.176000	 64.8862
3.260000	 64.6247
3.344000	 64.8071
3.428000	 64.687
3.512000	 64.8251
3.596000	 64.7217
3.680000	 64.6759
3.764000	 64.5447
3.848000	 64.493
3.932000	 64.6558
4.016000	 64.4853
4.100000	 64.541
4.184000	 64.4661
4.268000	 64.5385
4.352000	 64.3653
4.436000	 64.303
4.520000	 64.3852
4.604000	 64.2776
4.688000	 64.3011
4.772000	 64.1399
4.856000	 64.1557
4.940000	 64.0283
5.024000	 64.0228
5.108000	 64.0219
5.192000	 64.0528
5.276000	 63.9719
5.359999	 63.9386
5.444000	 63.9114
5.528000	 63.8533
5.612000	 63.9631
5.696000	 63.7315
5.780000	 63.556
5.864000	 63.6672
5.948000	 63.6835
6.032000	 63.6549
6.116000	 63.5811
6.200000	 63.4669
6.284000	 63.5648
6.368000	 63.5598
6.452000	 63.4617
6.536000	 63.4174
6.620000	 63.4538
6.704000	 63.5134
6.788000	 63.3646
6.872000	 63.3789
6.956000	 63.3018
7.040000	 63.3285
7.124000	 63.2655
7.208000	 63.1864
7.292000	 63.219
7.376000	 63.2515
7.460000	 63.279
7.544000	 63.3198
7.628000	 63.2619
7.712000	 63.1477
7.796000	 63.2026
7.880000	 63.0198
7.964000	 63.0453
8.048000	 62.9843
8.132000	 63.1194
8.216000	 63.1609
8.300000	 63.0301
8.384000	 62.8551
8.468000	 62.9998
8.552000	 62.7931
8.635999	 62.7561
8.719999	 62.7569
8.804000	 62.8777
8.888000	 62.7792
8.972000	 62.8768
9.056000	 62.9263
9.140000	 62.831
9.224000	 62.8592
9.308000	 62.7089
9.391999	 62.9153
9.475999	 62.6933
9.560000	 62.6674
9.644000	 62.6688
9.728000	 62.8137
9.812000	 62.6085
9.896000	 62.5942
9.980000	 62.6563
10.064	62.7112
10.148	62.8382
10.232	62.93
10.316	62.7289
10.4	62.6971
10.484	62.6438
10.568	62.6491
10.652	62.5271
10.736	62.5822
10.82	62.6585
10.904	62.7203
10.988	62.7163
11.072	62.7328
11.156	62.7947
11.24	62.7957
11.324	62.7553
11.408	62.5333
11.492	62.5183
11.576	62.6988
11.66	62.6652
11.744	62.6954
11.828	62.7092
11.912	62.4209
11.996	62.2025
12.08	62.4871
12.164	62.6354
12.248	62.5697
12.332	62.5502
12.416	62.4271
12.5	62.5642
12.584	62.5501
12.668	62.3403
12.752	62.4154
12.836	62.3797
12.92	62.3542
13.004	62.3583
13.088	62.2628
13.172	62.2832
13.256	62.2741
13.34	62.1789
13.424	62.1634
13.508	62.1609
13.592	62.1899
13.676	62.2122
13.76	62.2049
13.844	62.1604
13.928	62.1386
14.012	62.1028
14.096	62.0706
14.18	62.1441
14.264	62.1108
14.348	61.915
14.432	61.8654
14.516	61.8914
14.6	61.8226
14.684	61.865
14.768	61.9361
14.852	61.8491
14.936	61.6709
15.02	61.5535
15.104	61.6817
15.188	61.901
15.272	61.9155
15.356	61.7688
15.44	61.5845
15.524	61.397
15.608	61.2284
15.692	61.0346
15.776	60.8384
15.86	60.7986
15.944	61.062
16.028	61.6101
16.112	62.1059
16.196	62.1665
16.28	62.0224
16.364	62.2204
16.448	62.5812
16.532	62.4632
16.616	61.9186
16.7	61.6223
16.784	61.9415
16.868	62.6582
16.952	63.2194
17.036	63.1619
17.12	62.5347
17.204	61.7355
17.288	60.9703
17.372	60.2364
17.456	59.748
17.54	59.8933
17.624	60.6298
17.708	61.3607
17.792	61.5961
17.876	61.4621
17.96	61.3749
18.044	61.4993
18.128	61.7206
18.212	61.903
18.296	61.9745
18.38	61.9125
18.464	61.7806
18.548	61.6899
18.632	61.6348
18.716	61.5262
18.8	61.3841
18.884	61.3506
18.968	61.4772
19.052	61.6261
19.136	61.5956
19.22	61.3248
19.304	60.99
19.388	60.8489
19.472	61.0061
19.556	61.3367
19.64	61.6181
19.724	61.7084
19.808	61.6133
19.892	61.4422
19.976	61.3222
20.06	61.3332
20.144	61.4622
20.228	61.6109
20.312	61.6735
20.396	61.618
20.48	61.4967
20.564	61.3793
20.648	61.2885
20.732	61.1984
20.816	61.0724
20.9	60.8953
20.984	60.6694
21.068	60.4098
21.152	60.1707
21.236	60.0396
21.32	60.0831
21.404	60.2859
21.488	60.5408
21.572	60.7161
21.656	60.7214
21.74	60.55
21.824	60.2836
21.908	60.0561
21.992	59.9913
22.076	60.1458
22.16	60.4661
22.244	60.7881
22.328	60.9258
22.412	60.7757
22.496	60.3894
22.58	59.949
22.664	59.6696
22.748	59.701
22.832	60.0722
22.916	60.7025
23	61.4357
23.084	62.0962
23.168	62.5186
23.252	62.6123
23.336	62.3791
23.42	61.9062
23.504	61.3487
23.588	60.8688
23.672	60.5653
23.756	60.4313
23.84	60.354
23.924	60.1768
24.008	59.7883
24.092	59.1835
24.176	58.4777
24.26	57.8245
24.344	57.3321
24.428	57.0135
24.512	56.8331
24.596	56.7476
24.68	56.7756
24.764	57.0199
24.848	57.6046
24.932	58.5958
25.016	59.9182
25.1	61.3718
25.184	62.648
25.268	63.4828
25.352	63.7957
25.436	63.709
25.52	63.52
25.604	63.5752
25.688	64.2022
25.772	65.5298
25.856	67.3885
25.94	69.3393
26.024	70.7574
26.108	71.0596
26.192	69.9485
26.276	67.5262
26.36	64.3106
26.444	61.0222
26.528	58.3593
26.612	56.8018
26.696	56.5944
26.78	57.726
26.864	60.0347
26.948	63.3095
27.028	67.1133