File: Bakgrunnsmateriale/MATLAB/FTIR/ftir_data/subAa/Mapping_121/BZ1503107-1_t108.asc
PE IR       SPECTRUM    SPECTRUM    ASCII       PEDS        1.60
  -1
BZE6B2~1.ASC
17/04/07
22:05:09.00
17/04/07
22:05:36.00
tln
$BZ1503107-1_t0108$<tbV0>[-7.8,10.4,8.0,0.0,27,1,0]
27.028
64

2002,4.07
MIRTGS : RIGHTBACK : INTERNAL 2
MIR : ON : INTERNAL 2
OPTKBR

0.200000
8
8.000000
FILLER
RATIO
SPECTRUM
UNLOCKED 256

DOUBLE
64
COMBINED
1
0
0

0.002000
RATIO

1
0
TRUE
51149
0
LEFT NOT FITTED RIGHT NOT FITTED 0
NONE
NONE
15600
12
4.427000
51148
TRUE
1 0 8 72 0 0 0 0

15798

#HDR
-1
-1
#GR
µM
%T
2.38419e-05
0.0
2.000000
0.002000
12515
8
85.9329
38.2552
#DATA
2.000000	 66.8541
2.084000	 65.1538
2.168000	 65.2094
2.252000	 85.9329
2.336000	 65.0889
2.420000	 65.4275
2.504000	 65.2045
2.588000	 65.1525
2.672000	 65.2693
2.756000	 65.3297
2.840000	 65.1584
2.924000	 65.2069
3.008000	 64.9638
3.092000	 65.1221
3.176000	 64.9571
3.260000	 64.8377
3.344000	 64.8002
3.428000	 64.5296
3.512000	 64.6644
3.596000	 64.881
3.680000	 64.7107
3.764000	 64.6611
3.848000	 64.6223
3.932000	 64.6745
4.016000	 64.614
4.100000	 64.5596
4.184000	 64.5568
4.268000	 64.5763
4.352000	 64.3492
4.436000	 64.4939
4.520000	 64.3456
4.604000	 64.309
4.688000	 64.2786
4.772000	 64.2511
4.856000	 64.2199
4.940000	 64.0273
5.024000	 64.237
5.108000	 64.1311
5.192000	 64.0584
5.276000	 64.0977
5.359999	 63.9874
5.444000	 64.0563
5.528000	 63.9515
5.612000	 63.6906
5.696000	 63.4786
5.780000	 62.4823
5.864000	 63.6128
5.948000	 63.6012
6.032000	 63.7503
6.116000	 63.69
6.200000	 63.7492
6.284000	 63.6273
6.368000	 63.5079
6.452000	 63.4506
6.536000	 63.5309
6.620000	 63.4388
6.704000	 63.7112
6.788000	 63.4052
6.872000	 63.2164
6.956000	 63.3092
7.040000	 63.336
7.124000	 63.2684
7.208000	 63.0717
7.292000	 63.1543
7.376000	 63.1357
7.460000	 63.1178
7.544000	 63.1884
7.628000	 63.099
7.712000	 62.9818
7.796000	 62.8469
7.880000	 62.8628
7.964000	 62.5846
8.048000	 62.5651
8.132000	 62.6356
8.216000	 62.7142
8.300000	 62.6233
8.384000	 62.7742
8.468000	 62.5104
8.552000	 62.2386
8.635999	 62.2834
8.719999	 62.5849
8.804000	 62.8607
8.888000	 62.7293
8.972000	 62.6921
9.056000	 62.6356
9.140000	 62.8106
9.224000	 62.5121
9.308000	 62.4709
9.391999	 62.4768
9.475999	 62.4779
9.560000	 62.5914
9.644000	 62.582
9.728000	 62.4662
9.812000	 62.449
9.896000	 62.6697
9.980000	 62.4221
10.064	62.6444
10.148	62.732
10.232	62.7688
10.316	62.6559
10.4	62.5353
10.484	62.5192
10.568	62.5075
10.652	62.5861
10.736	62.6763
10.82	62.6964
10.904	62.7254
10.988	62.6675
11.072	62.4964
11.156	62.5501
11.24	62.4991
11.324	62.4835
11.408	62.5305
11.492	62.6678
11.576	62.6364
11.66	62.5103
11.744	62.4963
11.828	62.3914
11.912	62.3798
11.996	62.3839
12.08	62.4951
12.164	62.5378
12.248	62.5761
12.332	62.5601
12.416	62.4729
12.5	62.2418
12.584	62.37
12.668	62.607
12.752	62.6254
12.836	62.3689
12.92	62.204
13.004	62.2761
13.088	62.3452
13.172	62.2669
13.256	62.307
13.34	62.4333
13.424	62.447
13.508	62.4837
13.592	62.3948
13.676	62.2502
13.76	62.2078
13.844	62.127
13.928	61.9453
14.012	61.7068
14.096	61.642
14.18	61.7856
14.264	61.999
14.348	62.1316
14.432	62.1756
14.516	62.1948
14.6	62.1524
14.684	62.085
14.768	62.0841
14.852	62.202
14.936	62.339
15.02	62.3376
15.104	62.2029
15.188	62.003
15.272	61.8765
15.356	61.8239
15.44	61.6766
15.524	61.5281
15.608	61.5349
15.692	61.5773
15.776	61.5266
15.86	61.5328
15.944	61.8348
16.028	62.2409
16.112	62.2663
16.196	61.9167
16.28	61.6857
16.364	61.7449
16.448	61.753
16.532	61.4834
16.616	61.2065
16.7	61.3178
16.784	61.86
16.868	62.5312
16.952	62.9119
17.036	62.7678
17.12	62.2863
17.204	61.8769
17.288	61.7525
17.372	61.8296
17.456	61.9684
17.54	62.1587
17.624	62.3925
17.708	62.5334
17.792	62.4361
17.876	62.1502
17.96	61.973
18.044	62.1829
18.128	62.6726
18.212	63.0117
18.296	62.9297
18.38	62.579
18.464	62.2833
18.548	62.1618
18.632	62.0602
18.716	61.7854
18.8	61.3015
18.884	60.7596
18.968	60.3948
19.052	60.4074
19.136	60.8365
19.22	61.5228
19.304	62.2126
19.388	62.748
19.472	63.1289
19.556	63.3759
19.64	63.3972
19.724	63.0434
19.808	62.3097
19.892	61.404
19.976	60.6339
20.06	60.2275
20.144	60.2602
20.228	60.684
20.312	61.3539
20.396	62.0277
20.48	62.4258
20.564	62.3762
20.648	61.956
20.732	61.4652
20.816	61.2261
20.9	61.3533
20.984	61.6834
21.068	61.9153
21.152	61.8351
21.236	61.4518
21.32	60.9509
21.404	60.5548
21.488	60.392
21.572	60.4676
21.656	60.6948
21.74	60.9513
21.824	61.1385
21.908	61.2138
21.992	61.1724
22.076	61.0207
22.16	60.7776
22.244	60.4801
22.328	60.2019
22.412	60.0129
22.496	59.9389
22.58	59.966
22.664	60.0664
22.748	60.2244
22.832	60.454
22.916	60.7726
23	61.1756
23.084	61.6307
23.168	62.0772
23.252	62.465
23.336	62.7934
23.42	63.1414
23.504	63.6261
23.588	64.3289
23.672	65.2329
23.756	66.1912
23.84	66.9592
23.924	67.2943
24.008	67.0565
24.092	66.2568
24.176	65.0657
24.26	63.7308
24.344	62.5068
24.428	61.5828
24.512	61.1418
24.596	61.2633
24.68	61.8998
24.764	62.8746
24.848	63.8848
24.932	64.5921
25.016	64.7827
25.1	64.4486
25.184	63.7998
25.268	63.1962
25.352	63.0288
25.436	63.5709
25.52	64.8839
25.604	66.8556
25.688	69.255
25.772	71.7822
25.856	74.0946
25.94	75.7709
26.024	76.3086
26.108	75.249
26.192	72.3559
26.276	67.7134
26.36	61.8013
26.444	55.3732
26.528	49.2755
26.612	44.1679
26.696	40.5242
26.78	38.5788
26.864	38.3852
26.948	39.9055
27.028	42.8499