File: Bakgrunnsmateriale/MATLAB/FTIR/ftir_data/subAa/Mapping_121/BZ1503107-1_t17_cm-1.asc
PE IR       SPECTRUM    SPECTRUM    ASCII       PEDS        1.60
  -1
BZ6FA1~1.ASC
17/04/07
14:34:59.00
17/04/07
14:34:59.00
tln
$BZ1503107-1_t0017$<tbV0>[0.0,-10.4,8.0,0.0,27,1,0]
370
64

2002,4.07
MIRTGS : RIGHTBACK : INTERNAL 2
MIR : ON : INTERNAL 2
OPTKBR

0.200000
8
8.000000
FILLER
RATIO
SPECTRUM
UNLOCKED 256

DOUBLE
64
COMBINED
1
0
0

1.000000
RATIO

1
0
TRUE
51149
0
LEFT NOT FITTED RIGHT NOT FITTED 0
NONE
NONE
15600
12
4.427000
51148
TRUE
1 0 8 72 0 0 0 0

15798

#HDR
-1
-1
#GR
CM-1
%T
2.38419e-05
0.0
5000
-1.000000
4631
8
75.2573
45.2211
#DATA
5000	66.7837
4984	64.2121
4968	66.154
4952	64.6622
4936	64.7569
4920	64.21
4904	64.8913
4888	64.9409
4872	65.2529
4856	65.3574
4840	65.2614
4824	65.135
4808	65.0732
4792	65.4319
4776	64.8033
4760	65.3308
4744	64.7377
4728	64.853
4712	64.9737
4696	64.8368
4680	65.1343
4664	65.134
4648	65.1867
4632	64.7381
4616	64.7008
4600	64.7158
4584	64.8711
4568	64.6327
4552	64.6081
4536	64.6632
4520	64.3162
4504	65.2954
4488	68.0326
4472	65.5201
4456	63.3796
4440	52.3626
4424	66.4053
4408	65.7962
4392	65.4438
4376	64.8602
4360	64.8838
4344	65.0095
4328	64.8429
4312	64.845
4296	64.8148
4280	65.1992
4264	65.0481
4248	64.9743
4232	64.9604
4216	65.0451
4200	65.3382
4184	65.1214
4168	64.7625
4152	65.025
4136	65.2213
4120	65.0791
4104	65.0765
4088	65.3577
4072	65.2465
4056	65.3198
4040	65.0401
4024	65.0261
4008	65.1307
3992	64.8888
3976	65.269
3960	65.0285
3944	65.0167
3928	64.8213
3912	65.0615
3896	65.0547
3880	65.454
3864	65.0303
3848	65.2706
3832	65.2432
3816	65.0962
3800	65.2132
3784	65.1932
3768	65.175
3752	65.4334
3736	65.2576
3720	65.1531
3704	65.3539
3688	65.2863
3672	65.4303
3656	65.3361
3640	65.3085
3624	65.4815
3608	65.4286
3592	65.2779
3576	65.3026
3560	65.2424
3544	65.1602
3528	65.2944
3512	65.1201
3496	65.1216
3480	65.1064
3464	65.1125
3448	65.129
3432	65.1337
3416	65.2403
3400	65.1284
3384	65.1098
3368	65.0887
3352	65.0386
3336	65.2101
3320	65.2502
3304	65.096
3288	65.0923
3272	65.1449
3256	65.0794
3240	65.0063
3224	65.194
3208	65.2098
3192	65.0849
3176	65.177
3160	65.248
3144	65.0774
3128	65.1711
3112	65.0819
3096	65.1324
3080	65.1448
3064	65.2578
3048	65.2021
3032	65.1578
3016	65.2834
3000	65.1883
2984	65.0262
2968	65.0097
2952	64.9308
2936	64.8752
2920	64.9127
2904	65.0086
2888	65.0829
2872	65.08
2856	64.9998
2840	65.1046
2824	64.9896
2808	64.9469
2792	65.0259
2776	65.1192
2760	65.0216
2744	65.0905
2728	65.1138
2712	65.2013
2696	65.1367
2680	65.0158
2664	64.9843
2648	65.0719
2632	65.0953
2616	65.0857
2600	65.0365
2584	65.1607
2568	65.0376
2552	65.1327
2536	65.044
2520	65.1495
2504	65.0172
2488	65.0441
2472	64.9909
2456	64.924
2440	64.9703
2424	64.8577
2408	65.0552
2392	65.0782
2376	64.9844
2360	65.0023
2344	65.0552
2328	64.93
2312	64.9959
2296	64.9483
2280	64.9581
2264	64.962
2248	64.9934
2232	64.8414
2216	64.9204
2200	64.8981
2184	64.8959
2168	65.0596
2152	64.7663
2136	64.8681
2120	64.9542
2104	64.809
2088	64.8177
2072	64.7992
2056	64.9784
2040	64.8357
2024	64.913
2008	64.868
1992	64.8082
1976	64.8533
1960	64.9464
1944	64.8443
1928	64.7925
1912	64.8743
1896	64.8062
1880	64.7814
1864	64.858
1848	64.8055
1832	64.7563
1816	64.7766
1800	64.7506
1784	64.8612
1768	64.708
1752	64.6408
1736	64.2598
1720	64.525
1704	64.696
1688	64.7723
1672	64.7058
1656	64.7426
1640	64.7381
1624	64.7089
1608	64.7033
1592	64.6891
1576	64.7418
1560	64.8991
1544	64.6768
1528	64.6391
1512	64.6966
1496	64.7848
1480	64.6271
1464	64.5101
1448	64.5337
1432	64.6162
1416	64.4111
1400	64.4149
1384	64.4328
1368	64.4324
1352	64.5648
1336	64.405
1320	64.3767
1304	64.2889
1288	64.3828
1272	64.179
1256	64.2165
1240	64.1566
1224	64.2172
1208	64.2903
1192	64.2528
1176	64.0378
1160	64.1017
1144	64.0199
1128	64.2252
1112	64.2092
1096	64.2101
1080	64.4108
1064	64.0614
1048	64.0635
1032	64.0514
1016	64.0457
1000	64.2437
984	 64.0738
968	 64.1009
952	 64.1655
936	 64.235
920	 64.3322
904	 64.2038
888	 64.3274
872	 64.3315
856	 64.3481
840	 64.2422
824	 63.8808
808	 63.7581
792	 64.2826
776	 64.131
760	 64.0733
744	 63.8611
728	 63.9583
712	 63.9508
696	 63.7348
680	 63.7224
664	 64.0142
648	 64.1371
632	 63.3274
616	 64.2692
600	 63.716
584	 64.6396
568	 64.165
552	 64.1149
536	 63.0494
520	 63.8187
504	 63.1674
488	 64.0135
472	 63.6354
456	 63.4046
440	 62.5355
424	 63.8987
408	 68.2255
392	 73.6613
376	 49.8674
370	 73.5371