File: Bakgrunnsmateriale/MATLAB/FTIR/ftir_data/subAa/Mapping_121/BZ1503107-1_t98.asc
PE IR       SPECTRUM    SPECTRUM    ASCII       PEDS        1.60
  -1
BZ396B~1.ASC
17/04/07
21:18:20.00
17/04/07
21:18:47.00
tln
$BZ1503107-1_t0098$<tbV0>[-10.4,7.8,8.0,0.0,27,1,0]
27.028
64

2002,4.07
MIRTGS : RIGHTBACK : INTERNAL 2
MIR : ON : INTERNAL 2
OPTKBR

0.200000
8
8.000000
FILLER
RATIO
SPECTRUM
UNLOCKED 256

DOUBLE
64
COMBINED
1
0
0

0.002000
RATIO

1
0
TRUE
51149
0
LEFT NOT FITTED RIGHT NOT FITTED 0
NONE
NONE
15600
12
4.427000
51148
TRUE
1 0 8 72 0 0 0 0

15798

#HDR
-1
-1
#GR
µM
%T
2.38419e-05
0.0
2.000000
0.002000
12515
8
73.9503
53.073
#DATA
2.000000	 65.9687
2.084000	 65.6365
2.168000	 64.9311
2.252000	 73.9503
2.336000	 65.1012
2.420000	 65.2661
2.504000	 65.3475
2.588000	 65.1108
2.672000	 65.1437
2.756000	 65.1874
2.840000	 65.0698
2.924000	 65.1076
3.008000	 65.0444
3.092000	 65.0354
3.176000	 64.9842
3.260000	 65.1487
3.344000	 64.8484
3.428000	 64.7011
3.512000	 64.7755
3.596000	 64.9325
3.680000	 64.7689
3.764000	 64.764
3.848000	 64.7001
3.932000	 64.6964
4.016000	 64.7384
4.100000	 64.6061
4.184000	 64.5779
4.268000	 64.5603
4.352000	 64.4654
4.436000	 64.6138
4.520000	 64.5392
4.604000	 64.4187
4.688000	 64.4543
4.772000	 64.363
4.856000	 64.4598
4.940000	 64.2422
5.024000	 64.2466
5.108000	 64.3662
5.192000	 64.2006
5.276000	 64.2127
5.359999	 64.1504
5.444000	 64.1334
5.528000	 64.1832
5.612000	 63.8443
5.696000	 63.6333
5.780000	 62.7451
5.864000	 63.7635
5.948000	 63.7399
6.032000	 63.8645
6.116000	 63.9538
6.200000	 63.8039
6.284000	 63.8006
6.368000	 63.8375
6.452000	 63.5927
6.536000	 63.5919
6.620000	 63.7256
6.704000	 63.7757
6.788000	 63.6208
6.872000	 63.3784
6.956000	 63.3898
7.040000	 63.5701
7.124000	 63.4696
7.208000	 63.364
7.292000	 63.3094
7.376000	 63.43
7.460000	 63.3168
7.544000	 63.3428
7.628000	 63.4009
7.712000	 63.2308
7.796000	 63.1194
7.880000	 62.9538
7.964000	 62.8213
8.048000	 62.8113
8.132000	 62.8011
8.216000	 63.0011
8.300000	 63.0713
8.384000	 62.9045
8.468000	 62.7095
8.552000	 62.5084
8.635999	 62.4611
8.719999	 62.8128
8.804000	 62.9488
8.888000	 62.9634
8.972000	 62.9936
9.056000	 63.0072
9.140000	 62.9805
9.224000	 62.732
9.308000	 62.5974
9.391999	 62.8408
9.475999	 62.7766
9.560000	 62.9565
9.644000	 62.8861
9.728000	 62.9986
9.812000	 62.7957
9.896000	 62.7422
9.980000	 62.7855
10.064	62.9125
10.148	63.0736
10.232	63.0584
10.316	62.8307
10.4	62.9118
10.484	62.9269
10.568	62.8402
10.652	62.9029
10.736	62.9218
10.82	63.0686
10.904	62.9058
10.988	62.9022
11.072	62.7943
11.156	62.8315
11.24	62.9262
11.324	62.7654
11.408	62.7179
11.492	62.8455
11.576	62.9679
11.66	62.8623
11.744	62.7192
11.828	62.7144
11.912	62.6317
11.996	62.7057
12.08	62.716
12.164	62.8002
12.248	62.8865
12.332	62.7985
12.416	62.6852
12.5	62.6018
12.584	62.7141
12.668	62.7885
12.752	62.723
12.836	62.5533
12.92	62.4263
13.004	62.4518
13.088	62.5592
13.172	62.6576
13.256	62.7802
13.34	62.8005
13.424	62.7132
13.508	62.5949
13.592	62.5147
13.676	62.5666
13.76	62.5601
13.844	62.5388
13.928	62.6329
14.012	62.6102
14.096	62.4933
14.18	62.4918
14.264	62.4958
14.348	62.4477
14.432	62.4811
14.516	62.5602
14.6	62.5149
14.684	62.3341
14.768	62.2779
14.852	62.4865
14.936	62.586
15.02	62.3583
15.104	62.1653
15.188	62.1903
15.272	62.2774
15.356	62.4039
15.44	62.5696
15.524	62.6376
15.608	62.5417
15.692	62.4093
15.776	62.412
15.86	62.5675
15.944	62.6879
16.028	62.5797
16.112	62.3287
16.196	62.1462
16.28	62.1111
16.364	62.2758
16.448	62.5526
16.532	62.548
16.616	62.1378
16.7	61.7377
16.784	61.6203
16.868	61.6653
16.952	61.7297
17.036	61.7386
17.12	61.624
17.204	61.4707
17.288	61.5175
17.372	61.9066
17.456	62.5269
17.54	63.0697
17.624	63.2375
17.708	62.9972
17.792	62.5924
17.876	62.2848
17.96	62.1633
18.044	62.2315
18.128	62.4737
18.212	62.741
18.296	62.7855
18.38	62.5423
18.464	62.1844
18.548	61.8835
18.632	61.6763
18.716	61.5727
18.8	61.6196
18.884	61.8124
18.968	62.0741
19.052	62.3321
19.136	62.4717
19.22	62.2976
19.304	61.7603
19.388	61.1714
19.472	61.0126
19.556	61.4725
19.64	62.24
19.724	62.7989
19.808	62.8953
19.892	62.6733
19.976	62.4501
20.06	62.4231
20.144	62.5659
20.228	62.7221
20.312	62.7433
20.396	62.5642
20.48	62.2262
20.564	61.8496
20.648	61.5792
20.732	61.5204
20.816	61.7009
20.9	62.047
20.984	62.3887
21.068	62.5273
21.152	62.3651
21.236	61.986
21.32	61.5934
21.404	61.3671
21.488	61.3274
21.572	61.3382
21.656	61.2133
21.74	60.8442
21.824	60.2695
21.908	59.6463
21.992	59.1501
22.076	58.8972
22.16	58.9106
22.244	59.1273
22.328	59.463
22.412	59.8535
22.496	60.2647
22.58	60.6834
22.664	61.0934
22.748	61.4623
22.832	61.7577
22.916	61.9632
23	62.0644
23.084	62.0493
23.168	61.8971
23.252	61.5973
23.336	61.1916
23.42	60.8058
23.504	60.6199
23.588	60.7924
23.672	61.3699
23.756	62.22
23.84	63.0799
23.924	63.6376
24.008	63.687
24.092	63.2294
24.176	62.4586
24.26	61.6751
24.344	61.1802
24.428	61.1424
24.512	61.5968
24.596	62.4474
24.68	63.4923
24.764	64.4715
24.848	65.1478
24.932	65.334
25.016	64.9604
25.1	64.0958
25.184	62.9153
25.268	61.6332
25.352	60.4377
25.436	59.4281
25.52	58.6005
25.604	57.8969
25.688	57.235
25.772	56.5623
25.856	55.8824
25.94	55.222
26.024	54.6203
26.108	54.115
26.192	53.7131
26.276	53.41
26.36	53.1802
26.444	53.0731
26.528	53.2014
26.612	53.6519
26.696	54.4506
26.78	55.5233
26.864	56.7113
26.948	57.8399
27.028	58.7471