File: Bakgrunnsmateriale/MATLAB/FTIR/ftir_data/subAa/Mapping_121/BZ1503107-1_t41.asc
PE IR       SPECTRUM    SPECTRUM    ASCII       PEDS        1.60
  -1
BZ2D4D~1.ASC
17/04/07
16:33:37.00
17/04/07
16:34:03.00
tln
$BZ1503107-1_t0041$<tbV0>[-5.2,-5.2,8.0,0.0,27,1,0]
27.028
64

2002,4.07
MIRTGS : RIGHTBACK : INTERNAL 2
MIR : ON : INTERNAL 2
OPTKBR

0.200000
8
8.000000
FILLER
RATIO
SPECTRUM
UNLOCKED 256

DOUBLE
64
COMBINED
1
0
0

0.002000
RATIO

1
0
TRUE
51149
0
LEFT NOT FITTED RIGHT NOT FITTED 0
NONE
NONE
15600
12
4.427000
51148
TRUE
1 0 8 72 0 0 0 0

15798

#HDR
-1
-1
#GR
µM
%T
2.38419e-05
0.0
2.000000
0.002000
12515
8
81.2935
37.7527
#DATA
2.000000	 65.3207
2.084000	 65.0164
2.168000	 64.966
2.252000	 65.5666
2.336000	 65.3272
2.420000	 64.9932
2.504000	 65.2474
2.588000	 65.2292
2.672000	 65.3551
2.756000	 65.4185
2.840000	 65.2836
2.924000	 65.6585
3.008000	 65.1122
3.092000	 65.084
3.176000	 65.1694
3.260000	 65.0696
3.344000	 65.0545
3.428000	 65.0576
3.512000	 64.954
3.596000	 65.0493
3.680000	 65.112
3.764000	 65.0785
3.848000	 64.9935
3.932000	 65.0307
4.016000	 64.9422
4.100000	 64.9156
4.184000	 65.0317
4.268000	 65.0308
4.352000	 64.8682
4.436000	 64.7966
4.520000	 64.8397
4.604000	 64.7021
4.688000	 64.8265
4.772000	 64.7924
4.856000	 64.7062
4.940000	 64.8988
5.024000	 64.6938
5.108000	 64.6818
5.192000	 64.7668
5.276000	 64.6073
5.359999	 64.6975
5.444000	 64.6309
5.528000	 64.6324
5.612000	 64.5461
5.696000	 64.4484
5.780000	 64.3605
5.864000	 64.5305
5.948000	 64.3918
6.032000	 64.4751
6.116000	 64.4288
6.200000	 64.3398
6.284000	 64.3517
6.368000	 64.2439
6.452000	 64.3649
6.536000	 64.3242
6.620000	 64.464
6.704000	 64.3773
6.788000	 64.3318
6.872000	 64.4381
6.956000	 64.4506
7.040000	 64.3272
7.124000	 64.333
7.208000	 64.1985
7.292000	 64.2199
7.376000	 64.2109
7.460000	 64.262
7.544000	 64.2694
7.628000	 64.3308
7.712000	 64.0937
7.796000	 64.1279
7.880000	 64.1486
7.964000	 64.0244
8.048000	 64.1066
8.132000	 64.0395
8.216000	 64.1056
8.300000	 63.8943
8.384000	 64.1474
8.468000	 64.1114
8.552000	 63.8606
8.635999	 63.9549
8.719999	 64.0281
8.804000	 63.9698
8.888000	 63.8622
8.972000	 64.2866
9.056000	 64.2424
9.140000	 63.9324
9.224000	 63.9418
9.308000	 63.9344
9.391999	 63.9839
9.475999	 63.9498
9.560000	 63.855
9.644000	 63.9065
9.728000	 63.9935
9.812000	 63.8673
9.896000	 63.9057
9.980000	 63.9883
10.064	64.1951
10.148	64.0108
10.232	64.2711
10.316	64.0105
10.4	63.9939
10.484	64.0895
10.568	63.9555
10.652	63.9951
10.736	64.0252
10.82	63.8894
10.904	63.9095
10.988	63.8664
11.072	63.9504
11.156	63.9912
11.24	64.0972
11.324	64.2832
11.408	64.1772
11.492	63.9284
11.576	63.9882
11.66	63.9514
11.744	64.0703
11.828	63.8769
11.912	64.0254
11.996	64.1101
12.08	64.004
12.164	63.8411
12.248	63.6995
12.332	63.8546
12.416	63.8313
12.5	63.829
12.584	64.053
12.668	64.1487
12.752	64.1263
12.836	64.0105
12.92	63.9604
13.004	63.9464
13.088	63.8184
13.172	63.8312
13.256	63.8527
13.34	63.6413
13.424	63.578
13.508	63.7292
13.592	63.8082
13.676	63.8015
13.76	63.7213
13.844	63.4853
13.928	63.5206
14.012	63.8128
14.096	63.9938
14.18	64.1654
14.264	64.0688
14.348	63.8714
14.432	64.1023
14.516	64.3197
14.6	63.941
14.684	63.327
14.768	63.1115
14.852	63.4134
14.936	63.7563
15.02	63.6516
15.104	63.1819
15.188	63.0242
15.272	63.421
15.356	63.7278
15.44	63.6459
15.524	63.5925
15.608	63.6606
15.692	63.5929
15.776	63.5146
15.86	63.6723
15.944	63.9518
16.028	64.1187
16.112	64.0136
16.196	63.6193
16.28	63.3094
16.364	63.485
16.448	63.8869
16.532	63.9701
16.616	63.7847
16.7	63.7015
16.784	63.6826
16.868	63.5511
16.952	63.3796
17.036	63.2765
17.12	63.2657
17.204	63.4157
17.288	63.7477
17.372	64.0892
17.456	64.2182
17.54	64.0884
17.624	63.8439
17.708	63.6607
17.792	63.6182
17.876	63.6856
17.96	63.787
18.044	63.8649
18.128	63.8915
18.212	63.8583
18.296	63.7552
18.38	63.5637
18.464	63.3153
18.548	63.1223
18.632	63.0854
18.716	63.1981
18.8	63.362
18.884	63.4643
18.968	63.4484
19.052	63.3469
19.136	63.2381
19.22	63.1655
19.304	63.101
19.388	63.0187
19.472	62.9738
19.556	63.0686
19.64	63.3293
19.724	63.6465
19.808	63.8549
19.892	63.8541
19.976	63.6527
20.06	63.3343
20.144	63.0136
20.228	62.8155
20.312	62.8344
20.396	63.0791
20.48	63.4547
20.564	63.8194
20.648	64.0832
20.732	64.2295
20.816	64.2638
20.9	64.1658
20.984	63.9131
21.068	63.5428
21.152	63.1552
21.236	62.8592
21.32	62.7223
21.404	62.7575
21.488	62.9404
21.572	63.2162
21.656	63.4857
21.74	63.6121
21.824	63.4748
21.908	63.0595
21.992	62.4996
22.076	62.0246
22.16	61.8507
22.244	62.0548
22.328	62.5362
22.412	63.0755
22.496	63.4392
22.58	63.5099
22.664	63.3082
22.748	62.9633
22.832	62.6214
22.916	62.3874
23	62.2939
23.084	62.3245
23.168	62.4502
23.252	62.6485
23.336	62.89
23.42	63.1457
23.504	63.3689
23.588	63.5097
23.672	63.5406
23.756	63.4646
23.84	63.28
23.924	62.9913
24.008	62.5958
24.092	62.0832
24.176	61.4787
24.26	60.8647
24.344	60.3651
24.428	60.0806
24.512	60.0604
24.596	60.239
24.68	60.4394
24.764	60.4331
24.848	60.0114
24.932	59.0718
25.016	57.6947
25.1	56.09
25.184	54.6073
25.268	53.6427
25.352	53.544
25.436	54.5253
25.52	56.5953
25.604	59.5812
25.688	63.0703
25.772	66.4701
25.856	69.1644
25.94	70.663
26.024	70.7056
26.108	69.3372
26.192	66.8661
26.276	63.7237
26.36	60.3733
26.444	57.1555
26.528	54.2095
26.612	51.5203
26.696	48.924
26.78	46.1969
26.864	43.2312
26.948	40.2083
27.028	37.7527