File: Bakgrunnsmateriale/MATLAB/FTIR/ftir_data/subAa/Mapping_121/BZ1503107-1_t86_cm-1.asc
PE IR       SPECTRUM    SPECTRUM    ASCII       PEDS        1.60
  -1
BZ6E26~1.ASC
17/04/07
20:16:25.00
17/04/07
20:16:25.00
tln
$BZ1503107-1_t0086$<tbV0>[-7.8,5.2,8.0,0.0,27,1,0]
370
64

2002,4.07
MIRTGS : RIGHTBACK : INTERNAL 2
MIR : ON : INTERNAL 2
OPTKBR

0.200000
8
8.000000
FILLER
RATIO
SPECTRUM
UNLOCKED 256

DOUBLE
64
COMBINED
1
0
0

1.000000
RATIO

1
0
TRUE
51149
0
LEFT NOT FITTED RIGHT NOT FITTED 0
NONE
NONE
15600
12
4.427000
51148
TRUE
1 0 8 72 0 0 0 0

15798

#HDR
-1
-1
#GR
CM-1
%T
2.38419e-05
0.0
5000
-1.000000
4631
8
89.9827
56.1762
#DATA
5000	65.0197
4984	63.5672
4968	63.8408
4952	64.9199
4936	64.3385
4920	65.0496
4904	64.8782
4888	65.3135
4872	65.0952
4856	64.6737
4840	65.2929
4824	64.8496
4808	64.9838
4792	64.9798
4776	64.708
4760	64.7698
4744	64.8763
4728	64.5352
4712	65.0769
4696	64.54
4680	64.4588
4664	64.8531
4648	64.8074
4632	64.945
4616	64.751
4600	64.3254
4584	64.4366
4568	65.0664
4552	64.6343
4536	64.9895
4520	64.8906
4504	64.3657
4488	65.6999
4472	64.1373
4456	64.7925
4440	70.4429
4424	63.3685
4408	66.3928
4392	64.2011
4376	64.2441
4360	65.0647
4344	65.283
4328	64.7012
4312	64.9508
4296	64.9229
4280	65.0098
4264	64.8151
4248	64.814
4232	64.8323
4216	64.9471
4200	65.1939
4184	64.7629
4168	64.8186
4152	64.9689
4136	64.5561
4120	65.0572
4104	65.192
4088	64.8457
4072	64.9131
4056	65.116
4040	64.8375
4024	64.8717
4008	65.1283
3992	64.9852
3976	64.8493
3960	65.0522
3944	64.9146
3928	64.4373
3912	64.8744
3896	64.9053
3880	65.1131
3864	65.0983
3848	65.0153
3832	64.833
3816	64.9655
3800	65.1617
3784	65.0535
3768	64.9282
3752	64.9542
3736	65.1241
3720	64.9786
3704	64.9678
3688	64.9782
3672	65.1179
3656	65.1213
3640	65.0078
3624	64.9765
3608	65.1762
3592	64.9796
3576	64.9589
3560	65.0878
3544	65.0259
3528	65.1749
3512	64.9512
3496	64.931
3480	65.0453
3464	64.9277
3448	65.0998
3432	64.8277
3416	64.9729
3400	64.9952
3384	64.8737
3368	65.0073
3352	65.0322
3336	65.0333
3320	64.7878
3304	64.7828
3288	64.7154
3272	64.9369
3256	64.9251
3240	64.8029
3224	65.0196
3208	64.9483
3192	64.8559
3176	64.922
3160	64.9837
3144	64.8677
3128	64.8192
3112	64.9049
3096	64.9463
3080	64.7947
3064	64.9969
3048	64.9906
3032	64.7903
3016	64.8155
3000	64.796
2984	64.8054
2968	64.747
2952	64.6348
2936	64.6611
2920	64.7547
2904	64.806
2888	64.6442
2872	64.7445
2856	64.6804
2840	64.8288
2824	64.7248
2808	64.9282
2792	64.6699
2776	64.8735
2760	64.7712
2744	64.8262
2728	64.8221
2712	64.8153
2696	64.6917
2680	64.8737
2664	64.7201
2648	64.6998
2632	64.7185
2616	64.8355
2600	64.5893
2584	64.6104
2568	64.6818
2552	64.6451
2536	64.5569
2520	64.728
2504	64.6513
2488	64.6835
2472	64.6658
2456	64.5669
2440	64.6764
2424	64.5579
2408	64.5499
2392	64.53
2376	64.4944
2360	64.5039
2344	64.5086
2328	64.5495
2312	64.5454
2296	64.3483
2280	64.4929
2264	64.526
2248	64.3953
2232	64.4624
2216	64.464
2200	64.3614
2184	64.5046
2168	64.3439
2152	64.3773
2136	64.3882
2120	64.2763
2104	64.4604
2088	64.2947
2072	64.3059
2056	64.242
2040	64.2429
2024	64.1899
2008	64.2265
1992	64.207
1976	64.3317
1960	64.1857
1944	64.1998
1928	64.0937
1912	64.1214
1896	64.0352
1880	64.1418
1864	64.1904
1848	64.1637
1832	64.0141
1816	64.0907
1800	64.0518
1784	64.0058
1768	64.114
1752	63.8414
1736	63.8006
1720	63.8462
1704	63.851
1688	63.9372
1672	63.8268
1656	63.9161
1640	63.889
1624	64.0515
1608	63.8393
1592	63.7947
1576	63.8015
1560	63.6882
1544	63.8702
1528	63.7188
1512	63.9302
1496	63.7116
1480	63.7443
1464	63.6184
1448	63.6786
1432	63.9236
1416	63.6321
1400	63.6775
1384	63.5495
1368	63.5422
1352	63.5139
1336	63.7249
1320	63.5826
1304	63.4437
1288	63.3424
1272	63.4385
1256	63.4045
1240	63.3528
1224	63.4774
1208	63.3693
1192	63.4232
1176	63.166
1160	63.2002
1144	63.2919
1128	63.0675
1112	63.2057
1096	63.2302
1080	63.2359
1064	63.2391
1048	63.2034
1032	63.166
1016	63.0136
1000	62.9693
984	 63.2743
968	 63.2774
952	 63.2151
936	 63.1981
920	 63.2359
904	 63.0616
888	 63.2548
872	 63.3251
856	 63.1856
840	 63.1397
824	 63.1027
808	 62.8821
792	 62.8947
776	 63.0767
760	 62.9392
744	 62.6942
728	 62.495
712	 62.8628
696	 62.4604
680	 63.1441
664	 62.7254
648	 62.4814
632	 62.11
616	 62.1022
600	 62.8826
584	 61.7451
568	 62.259
552	 62.2906
536	 63.6055
520	 63.1462
504	 62.8299
488	 62.8456
472	 61.7565
456	 61.2421
440	 62.2816
424	 59.3374
408	 63.7451
392	 57.8767
376	 75.0309
370	 89.9827