File: Bakgrunnsmateriale/MATLAB/FTIR/ftir_data/subAa/Mapping_121/BZ1503107-1_t104.asc
PE IR       SPECTRUM    SPECTRUM    ASCII       PEDS        1.60
  -1
BZD6B2~1.ASC
17/04/07
21:46:41.00
17/04/07
21:47:07.00
tln
$BZ1503107-1_t0104$<tbV0>[2.6,10.4,8.0,0.0,27,1,0]
27.028
64

2002,4.07
MIRTGS : RIGHTBACK : INTERNAL 2
MIR : ON : INTERNAL 2
OPTKBR

0.200000
8
8.000000
FILLER
RATIO
SPECTRUM
UNLOCKED 256

DOUBLE
64
COMBINED
1
0
0

0.002000
RATIO

1
0
TRUE
51149
0
LEFT NOT FITTED RIGHT NOT FITTED 0
NONE
NONE
15600
12
4.427000
51148
TRUE
1 0 8 72 0 0 0 0

15798

#HDR
-1
-1
#GR
µM
%T
2.38419e-05
0.0
2.000000
0.002000
12515
8
83.6483
39.257
#DATA
2.000000	 62.9284
2.084000	 64.883
2.168000	 64.9866
2.252000	 74.9087
2.336000	 65.1116
2.420000	 65.2203
2.504000	 65.1328
2.588000	 64.7704
2.672000	 65.0811
2.756000	 65.01
2.840000	 64.8969
2.924000	 64.9321
3.008000	 64.7624
3.092000	 64.9392
3.176000	 64.8326
3.260000	 64.7237
3.344000	 64.8347
3.428000	 64.7068
3.512000	 64.6291
3.596000	 64.8126
3.680000	 64.7171
3.764000	 64.5818
3.848000	 64.6601
3.932000	 64.6251
4.016000	 64.5938
4.100000	 64.4344
4.184000	 64.3815
4.268000	 64.4344
4.352000	 64.3555
4.436000	 64.3509
4.520000	 64.3242
4.604000	 64.2047
4.688000	 64.2316
4.772000	 64.2438
4.856000	 64.3579
4.940000	 64.1486
5.024000	 64.0945
5.108000	 64.133
5.192000	 64.0378
5.276000	 64.1279
5.359999	 64.0318
5.444000	 64.0943
5.528000	 64.0359
5.612000	 63.9346
5.696000	 63.6738
5.780000	 63.432
5.864000	 63.7022
5.948000	 63.6459
6.032000	 63.6477
6.116000	 63.6636
6.200000	 63.6781
6.284000	 63.6596
6.368000	 63.6838
6.452000	 63.5746
6.536000	 63.5015
6.620000	 63.4654
6.704000	 63.4848
6.788000	 63.5228
6.872000	 63.5059
6.956000	 63.3492
7.040000	 63.3193
7.124000	 63.4825
7.208000	 63.3039
7.292000	 63.3188
7.376000	 63.3339
7.460000	 63.2836
7.544000	 63.3033
7.628000	 63.2981
7.712000	 63.2442
7.796000	 63.0986
7.880000	 63.0416
7.964000	 63.0962
8.048000	 63.0287
8.132000	 63.0217
8.216000	 63.0273
8.300000	 63.0539
8.384000	 63.0202
8.468000	 62.8983
8.552000	 62.7703
8.635999	 62.8407
8.719999	 62.9696
8.804000	 63.1131
8.888000	 62.9713
8.972000	 62.7273
9.056000	 62.9101
9.140000	 62.7352
9.224000	 62.8122
9.308000	 62.9164
9.391999	 62.7956
9.475999	 62.6489
9.560000	 62.5923
9.644000	 62.7111
9.728000	 62.7045
9.812000	 62.7573
9.896000	 62.7063
9.980000	 62.7366
10.064	62.6421
10.148	62.8126
10.232	62.9377
10.316	62.8606
10.4	62.8012
10.484	62.7278
10.568	62.5643
10.652	62.6806
10.736	62.7342
10.82	62.7928
10.904	62.7081
10.988	62.7368
11.072	62.5291
11.156	62.4468
11.24	62.638
11.324	62.6028
11.408	62.5265
11.492	62.6528
11.576	62.7451
11.66	62.6081
11.744	62.6277
11.828	62.7861
11.912	62.5372
11.996	62.5109
12.08	62.4665
12.164	62.6098
12.248	62.6838
12.332	62.6516
12.416	62.6872
12.5	62.4958
12.584	62.478
12.668	62.6022
12.752	62.6044
12.836	62.4636
12.92	62.3954
13.004	62.3109
13.088	62.2909
13.172	62.4137
13.256	62.4327
13.34	62.5227
13.424	62.5908
13.508	62.4126
13.592	62.3623
13.676	62.3791
13.76	62.2761
13.844	62.1505
13.928	62.0955
14.012	62.1086
14.096	62.2537
14.18	62.3037
14.264	62.1643
14.348	62.0377
14.432	61.9608
14.516	62.1079
14.6	62.294
14.684	62.1642
14.768	62.0714
14.852	62.2044
14.936	62.2469
15.02	62.1641
15.104	62.1094
15.188	62.0096
15.272	61.9026
15.356	61.9674
15.44	62.0969
15.524	62.153
15.608	62.1864
15.692	62.2659
15.776	62.4451
15.86	62.58
15.944	62.4052
16.028	62.0145
16.112	61.8137
16.196	61.7951
16.28	61.5805
16.364	61.2899
16.448	61.3293
16.532	61.5153
16.616	61.4698
16.7	61.2625
16.784	61.1053
16.868	61.1431
16.952	61.3752
17.036	61.4864
17.12	61.2668
17.204	61.1138
17.288	61.4756
17.372	62.1561
17.456	62.6721
17.54	62.8436
17.624	62.7381
17.708	62.4228
17.792	61.9875
17.876	61.5142
17.96	60.984
18.044	60.4193
18.128	60.0468
18.212	60.0463
18.296	60.2838
18.38	60.5214
18.464	60.7586
18.548	61.1427
18.632	61.6298
18.716	61.9439
18.8	61.8734
18.884	61.4909
18.968	61.0822
19.052	60.9165
19.136	61.0251
19.22	61.1966
19.304	61.2036
19.388	61.0553
19.472	60.9501
19.556	61.0122
19.64	61.1235
19.724	61.0608
19.808	60.7484
19.892	60.3182
19.976	59.968
20.06	59.8289
20.144	59.9607
20.228	60.3976
20.312	61.0931
20.396	61.8441
20.48	62.3419
20.564	62.3699
20.648	61.9749
20.732	61.4471
20.816	61.1226
20.9	61.1609
20.984	61.4622
21.068	61.7654
21.152	61.8358
21.236	61.6145
21.32	61.2412
21.404	60.9574
21.488	60.9462
21.572	61.2304
21.656	61.6775
21.74	62.0833
21.824	62.2827
21.908	62.2197
21.992	61.9379
22.076	61.5379
22.16	61.1378
22.244	60.8305
22.328	60.6791
22.412	60.7067
22.496	60.8778
22.58	61.1336
22.664	61.419
22.748	61.6987
22.832	61.9674
22.916	62.2238
23	62.4345
23.084	62.5447
23.168	62.5075
23.252	62.3365
23.336	62.1336
23.42	62.0784
23.504	62.3335
23.588	62.9386
23.672	63.7644
23.756	64.5108
23.84	64.8321
23.924	64.4801
24.008	63.4244
24.092	61.8833
24.176	60.2492
24.26	58.9311
24.344	58.2419
24.428	58.2779
24.512	58.9489
24.596	60.0287
24.68	61.217
24.764	62.2092
24.848	62.7514
24.932	62.6651
25.016	61.9031
25.1	60.5355
25.184	58.7729
25.268	56.9281
25.352	55.3453
25.436	54.3278
25.52	54.0446
25.604	54.5049
25.688	55.5488
25.772	56.868
25.856	58.0978
25.94	58.9153
26.024	59.1263
26.108	58.7291
26.192	57.8489
26.276	56.6677
26.36	55.3723
26.444	54.1071
26.528	52.9239
26.612	51.7878
26.696	50.5552
26.78	49.0315
26.864	47.0612
26.948	44.693
27.028	42.4306