File: Bakgrunnsmateriale/MATLAB/FTIR/ftir_data/subAa/Mapping_121/BZ1503107-1_t65_cm-1.asc
PE IR       SPECTRUM    SPECTRUM    ASCII       PEDS        1.60
  -1
BZ6D21~1.ASC
17/04/07
18:32:04.00
17/04/07
18:32:04.00
tln
$BZ1503107-1_t0065$<tbV0>[-10.4,0.0,8.0,0.0,27,1,0]
370
64

2002,4.07
MIRTGS : RIGHTBACK : INTERNAL 2
MIR : ON : INTERNAL 2
OPTKBR

0.200000
8
8.000000
FILLER
RATIO
SPECTRUM
UNLOCKED 256

DOUBLE
64
COMBINED
1
0
0

1.000000
RATIO

1
0
TRUE
51149
0
LEFT NOT FITTED RIGHT NOT FITTED 0
NONE
NONE
15600
12
4.427000
51148
TRUE
1 0 8 72 0 0 0 0

15798

#HDR
-1
-1
#GR
CM-1
%T
2.38419e-05
0.0
5000
-1.000000
4631
8
69.3231
37.853
#DATA
5000	64.3493
4984	65.7962
4968	65.04
4952	64.6917
4936	64.8105
4920	64.68
4904	64.8207
4888	64.5618
4872	64.6006
4856	64.2043
4840	64.4673
4824	64.2688
4808	64.5303
4792	64.7251
4776	64.9239
4760	64.9535
4744	64.766
4728	65.1318
4712	64.807
4696	65.0912
4680	64.9168
4664	65.0745
4648	64.9313
4632	65.235
4616	64.846
4600	65.1355
4584	65.1329
4568	64.7728
4552	64.9737
4536	65.0742
4520	65.554
4504	65.0681
4488	65.3547
4472	64.9217
4456	65.7377
4440	64.066
4424	54.1733
4408	69.0069
4392	65.6243
4376	64.7146
4360	65.7194
4344	64.9383
4328	65.4635
4312	64.991
4296	64.9779
4280	64.9087
4264	65.2062
4248	64.8656
4232	65.0372
4216	65.0699
4200	65.136
4184	65.0624
4168	64.7225
4152	64.814
4136	64.9141
4120	65.0713
4104	65.0339
4088	64.8513
4072	64.9373
4056	64.8306
4040	64.8223
4024	64.8431
4008	64.8036
3992	65.1206
3976	65.0686
3960	65.0017
3944	64.9495
3928	65.3835
3912	65.1944
3896	65.0455
3880	65.2522
3864	65.3615
3848	65.2534
3832	65.1105
3816	65.1896
3800	64.9223
3784	65.3014
3768	65.0092
3752	65.2679
3736	64.9247
3720	65.081
3704	65.2124
3688	65.0114
3672	65.0484
3656	65.1231
3640	65.1461
3624	64.9791
3608	65.1219
3592	65.0403
3576	65.02
3560	65.1135
3544	64.9876
3528	64.9767
3512	65.057
3496	65.2046
3480	65.1531
3464	65.0603
3448	65.1405
3432	64.887
3416	65.0111
3400	64.8501
3384	64.9819
3368	65.1574
3352	64.957
3336	65.1267
3320	65.171
3304	65.0766
3288	65.0052
3272	64.9519
3256	65.091
3240	65.0499
3224	65.0396
3208	65.0837
3192	65.0264
3176	64.9799
3160	64.9092
3144	65.1072
3128	64.9441
3112	65.1132
3096	65.1344
3080	64.9925
3064	65.0402
3048	64.9226
3032	65.1678
3016	64.884
3000	65.0418
2984	64.9633
2968	64.6868
2952	64.8979
2936	65.0384
2920	64.9556
2904	64.8867
2888	64.9287
2872	64.8219
2856	65.004
2840	64.9281
2824	64.8399
2808	64.964
2792	64.8972
2776	64.9248
2760	64.8489
2744	64.8454
2728	64.9119
2712	64.9451
2696	64.9672
2680	64.9257
2664	65.0239
2648	64.8748
2632	64.9293
2616	64.771
2600	64.8204
2584	64.8933
2568	64.8614
2552	64.848
2536	64.736
2520	64.9948
2504	64.8582
2488	64.8586
2472	64.728
2456	64.8461
2440	64.8244
2424	64.7458
2408	64.8234
2392	64.8141
2376	64.7572
2360	64.7916
2344	64.6879
2328	64.774
2312	64.6911
2296	64.7031
2280	64.6666
2264	64.6692
2248	64.7139
2232	64.6791
2216	64.6867
2200	64.7051
2184	64.6939
2168	64.4438
2152	64.6215
2136	64.7053
2120	64.6788
2104	64.5847
2088	64.5525
2072	64.508
2056	64.3486
2040	64.6155
2024	64.5323
2008	64.5986
1992	64.5526
1976	64.5084
1960	64.4611
1944	64.4945
1928	64.5091
1912	64.5733
1896	64.4101
1880	64.4365
1864	64.4526
1848	64.4583
1832	64.5
1816	64.4102
1800	64.382
1784	64.3956
1768	64.4722
1752	64.3142
1736	64.1515
1720	64.2063
1704	64.2424
1688	64.2146
1672	64.1112
1656	64.1471
1640	64.2535
1624	64.1587
1608	64.1784
1592	64.2166
1576	63.9752
1560	64.1346
1544	64.0303
1528	64.1237
1512	64.1225
1496	64.156
1480	64.1832
1464	63.9688
1448	63.9463
1432	63.941
1416	64.1586
1400	64.0163
1384	64.0099
1368	63.9068
1352	63.9946
1336	63.9179
1320	63.925
1304	63.8999
1288	63.9341
1272	63.8153
1256	63.8013
1240	63.8142
1224	63.7782
1208	63.8647
1192	63.6956
1176	63.6157
1160	63.5317
1144	63.5947
1128	63.6012
1112	63.5624
1096	63.7218
1080	63.6892
1064	63.7083
1048	63.488
1032	63.506
1016	63.6194
1000	63.71
984	 63.8105
968	 63.7257
952	 63.4569
936	 63.4443
920	 63.6355
904	 63.6494
888	 63.6366
872	 63.6711
856	 63.7278
840	 63.6083
824	 63.6347
808	 63.5094
792	 63.4713
776	 63.5695
760	 63.4802
744	 63.4288
728	 63.3269
712	 63.3772
696	 62.8836
680	 63.629
664	 63.3892
648	 63.9651
632	 63.1925
616	 65.036
600	 63.8021
584	 63.022
568	 62.9768
552	 63.1918
536	 62.906
520	 63.1423
504	 62.9542
488	 62.8784
472	 63.0895
456	 61.941
440	 63.0649
424	 64.1866
408	 61.0854
392	 60.051
376	 60.4258
370	 37.853