File: Bakgrunnsmateriale/MATLAB/FTIR/ftir_data/subAa/Mapping_121/BZ1503107-1_t41_cm-1.asc
PE IR       SPECTRUM    SPECTRUM    ASCII       PEDS        1.60
  -1
BZ6924~1.ASC
17/04/07
16:33:37.00
17/04/07
16:33:37.00
tln
$BZ1503107-1_t0041$<tbV0>[-5.2,-5.2,8.0,0.0,27,1,0]
370
64

2002,4.07
MIRTGS : RIGHTBACK : INTERNAL 2
MIR : ON : INTERNAL 2
OPTKBR

0.200000
8
8.000000
FILLER
RATIO
SPECTRUM
UNLOCKED 256

DOUBLE
64
COMBINED
1
0
0

1.000000
RATIO

1
0
TRUE
51149
0
LEFT NOT FITTED RIGHT NOT FITTED 0
NONE
NONE
15600
12
4.427000
51148
TRUE
1 0 8 72 0 0 0 0

15798

#HDR
-1
-1
#GR
CM-1
%T
2.38419e-05
0.0
5000
-1.000000
4631
8
81.2141
37.7527
#DATA
5000	65.3207
4984	64.997
4968	64.1978
4952	64.3157
4936	64.2094
4920	65.0492
4904	65.1902
4888	64.7058
4872	65.2056
4856	64.884
4840	64.9911
4824	64.8137
4808	65.1589
4792	64.7664
4776	65.0182
4760	65.4873
4744	64.7284
4728	65.2776
4712	65.6068
4696	65.0321
4680	65.0063
4664	64.8159
4648	65.0697
4632	64.9042
4616	64.9592
4600	64.5094
4584	64.6686
4568	64.9637
4552	64.756
4536	64.6057
4520	64.9441
4504	64.6114
4488	64.934
4472	64.3037
4456	64.7126
4440	65.6731
4424	70.2747
4408	79.9884
4392	65.7502
4376	64.763
4360	64.6148
4344	65.0531
4328	64.9611
4312	65.0413
4296	64.8184
4280	65.3104
4264	64.9418
4248	64.7284
4232	64.9042
4216	65.0333
4200	65.3631
4184	65.1345
4168	65.1486
4152	65.099
4136	65.0699
4120	65.2389
4104	65.2291
4088	65.1515
4072	65.2487
4056	65.0061
4040	65.0778
4024	65.1234
4008	65.2462
3992	65.2771
3976	65.1572
3960	65.3727
3944	65.285
3928	64.9383
3912	65.105
3896	65.2682
3880	64.9997
3864	65.2296
3848	65.2256
3832	65.0969
3816	65.1422
3800	65.3702
3784	65.1984
3768	65.1229
3752	65.0889
3736	65.1896
3720	65.2409
3704	65.1882
3688	65.2525
3672	65.2892
3656	65.2396
3640	65.1636
3624	65.3847
3608	65.2387
3592	65.3702
3576	64.9616
3560	65.0579
3544	65.0301
3528	65.208
3512	65.3481
3496	65.0989
3480	65.1407
3464	65.1013
3448	65.1125
3432	65.1804
3416	65.4639
3400	65.2854
3384	65.3943
3368	65.0864
3352	65.2839
3336	65.3242
3320	65.0377
3304	65.0892
3288	65.0805
3272	65.1397
3256	65.1521
3240	65.2388
3224	65.1592
3208	65.003
3192	65.2033
3176	65.1433
3160	65.1287
3144	65.116
3128	65.089
3112	65.1066
3096	65.2716
3080	65.1012
3064	65.1633
3048	65.0606
3032	64.9108
3016	65.0855
3000	64.9863
2984	65.1018
2968	64.9072
2952	65.0685
2936	64.9656
2920	65.154
2904	65.0365
2888	65.0729
2872	65.134
2856	64.9877
2840	65.0309
2824	64.9776
2808	65.0075
2792	65.1545
2776	65.1547
2760	65.1575
2744	65.0721
2728	65.0885
2712	64.9965
2696	65.1431
2680	65.0298
2664	64.9758
2648	65.0942
2632	64.9074
2616	65.0065
2600	64.9836
2584	65.0622
2568	65.0388
2552	65.0263
2536	65.046
2520	64.9647
2504	65.0113
2488	64.9516
2472	64.9457
2456	64.8979
2440	64.9155
2424	64.9693
2408	65.0025
2392	65.0271
2376	64.8448
2360	64.9768
2344	65.0281
2328	65.0067
2312	64.9356
2296	64.8638
2280	64.8713
2264	64.6954
2248	64.7703
2232	64.9093
2216	64.8444
2200	64.9751
2184	64.9031
2168	64.7444
2152	64.7494
2136	64.817
2120	64.8561
2104	64.8264
2088	64.7861
2072	64.7755
2056	64.7639
2040	64.7177
2024	64.9003
2008	64.8702
1992	64.6832
1976	64.7632
1960	64.7064
1944	64.7507
1928	64.7353
1912	64.6279
1896	64.6058
1880	64.7405
1864	64.693
1848	64.6908
1832	64.6652
1816	64.6298
1800	64.695
1784	64.5439
1768	64.6456
1752	64.4015
1736	64.3128
1720	64.4893
1704	64.5425
1688	64.5039
1672	64.4811
1656	64.4698
1640	64.4058
1624	64.3393
1608	64.4003
1592	64.362
1576	64.2044
1560	64.4149
1544	64.2435
1528	64.2845
1512	64.4611
1496	64.396
1480	64.4014
1464	64.3285
1448	64.3085
1432	64.3701
1416	64.3463
1400	64.3739
1384	64.174
1368	64.2179
1352	64.1853
1336	64.2854
1320	64.2158
1304	64.2902
1288	64.1836
1272	64.1639
1256	64.0249
1240	64.0856
1224	64.0624
1208	63.9551
1192	64.1304
1176	64.0045
1160	63.9558
1144	64.0313
1128	63.871
1112	64.2699
1096	63.9779
1080	63.9851
1064	63.985
1048	63.9114
1032	63.9415
1016	63.8926
1000	64.0635
984	 64.0432
968	 63.9734
952	 64.0536
936	 64.0213
920	 63.8685
904	 63.9399
888	 64.1377
872	 63.9522
856	 63.9959
840	 64.0032
824	 63.9222
808	 63.8717
792	 64.1266
776	 63.9597
760	 63.817
744	 63.6019
728	 63.7622
712	 63.8925
696	 63.8841
680	 63.2146
664	 63.437
648	 63.6594
632	 63.5728
616	 63.4362
600	 63.7143
584	 63.268
568	 63.8972
552	 63.8913
536	 63.1063
520	 63.1577
504	 63.8815
488	 63.5094
472	 63.0175
456	 62.9199
440	 63.0532
424	 63.5064
408	 60.058
392	 56.3025
376	 52.0274
370	 37.7527