File: Bakgrunnsmateriale/MATLAB/FTIR/ftir_data/subAa/Mapping_121/BZ1503107-1_t35_cm-1.asc
PE IR       SPECTRUM    SPECTRUM    ASCII       PEDS        1.60
  -1
BZ6DA0~1.ASC
17/04/07
16:05:54.00
17/04/07
16:05:54.00
tln
$BZ1503107-1_t0035$<tbV0>[10.4,-5.2,8.0,0.0,27,1,0]
370
64

2002,4.07
MIRTGS : RIGHTBACK : INTERNAL 2
MIR : ON : INTERNAL 2
OPTKBR

0.200000
8
8.000000
FILLER
RATIO
SPECTRUM
UNLOCKED 256

DOUBLE
64
COMBINED
1
0
0

1.000000
RATIO

1
0
TRUE
51149
0
LEFT NOT FITTED RIGHT NOT FITTED 0
NONE
NONE
15600
12
4.427000
51148
TRUE
1 0 8 72 0 0 0 0

15798

#HDR
-1
-1
#GR
CM-1
%T
2.38419e-05
0.0
5000
-1.000000
4631
8
86.3307
53.5444
#DATA
5000	65.2747
4984	65.0769
4968	63.9213
4952	64.1701
4936	64.7518
4920	64.7761
4904	65.0579
4888	65.0378
4872	64.6471
4856	65.219
4840	64.906
4824	65.1897
4808	65.1146
4792	65.2071
4776	65.3878
4760	65.4317
4744	65.3827
4728	65.4835
4712	65.6689
4696	65.4257
4680	65.2321
4664	65.0716
4648	64.7959
4632	64.867
4616	64.7337
4600	64.5769
4584	64.4516
4568	64.6333
4552	64.288
4536	64.4695
4520	64.0408
4504	64.5745
4488	64.213
4472	63.6335
4456	64.3703
4440	65.7011
4424	86.0138
4408	67.3077
4392	64.5815
4376	64.1807
4360	63.8546
4344	63.8259
4328	64.0942
4312	64.2112
4296	64.3818
4280	64.5087
4264	65.0316
4248	64.8539
4232	64.9359
4216	65.0881
4200	64.8576
4184	65.5331
4168	65.7105
4152	65.154
4136	65.2448
4120	65.484
4104	65.3819
4088	65.1217
4072	65.3624
4056	65.2486
4040	65.3381
4024	65.2608
4008	65.3118
3992	65.4024
3976	65.2412
3960	65.2777
3944	65.1776
3928	65.0718
3912	65.2336
3896	65.0865
3880	65.1457
3864	65.1042
3848	65.1706
3832	65.3307
3816	65.0523
3800	65.4757
3784	65.1804
3768	65.1697
3752	65.0316
3736	65.0289
3720	65.2663
3704	65.4383
3688	65.3018
3672	65.3661
3656	65.3494
3640	65.1598
3624	65.3456
3608	65.2444
3592	65.5394
3576	65.1826
3560	65.0541
3544	65.2179
3528	65.128
3512	65.1492
3496	65.301
3480	65.0468
3464	65.1513
3448	65.046
3432	65.1438
3416	65.3072
3400	65.2977
3384	65.2914
3368	65.2076
3352	65.3467
3336	65.4141
3320	65.0697
3304	65.1718
3288	65.0538
3272	65.2357
3256	65.0902
3240	65.2451
3224	65.126
3208	65.0658
3192	65.1538
3176	65.1832
3160	65.1369
3144	64.9691
3128	65.2655
3112	65.0967
3096	65.2205
3080	65.1031
3064	65.0406
3048	65.0447
3032	65.0174
3016	65.0314
3000	65.1195
2984	65.038
2968	65.0716
2952	65.0843
2936	65.0418
2920	65.2315
2904	65.0306
2888	65.11
2872	65.0601
2856	65.0411
2840	64.9999
2824	65.0799
2808	65.073
2792	65.2028
2776	65.1474
2760	65.1615
2744	65.1893
2728	65.078
2712	65.0372
2696	65.1145
2680	64.9718
2664	65.0814
2648	65.1243
2632	64.981
2616	65.0385
2600	65.0342
2584	65.0276
2568	65.0482
2552	65.1288
2536	65.065
2520	65.081
2504	65.0811
2488	64.8887
2472	65.0726
2456	64.8934
2440	64.9425
2424	65.1143
2408	64.9336
2392	65.0669
2376	64.8342
2360	65.0039
2344	64.9894
2328	64.9577
2312	65.0198
2296	64.8432
2280	64.8932
2264	64.8537
2248	64.9316
2232	65.0324
2216	64.8877
2200	64.8811
2184	64.8309
2168	64.7653
2152	64.7839
2136	64.7059
2120	64.7087
2104	64.8434
2088	64.7453
2072	64.6988
2056	64.7766
2040	64.7222
2024	64.8844
2008	64.8578
1992	64.7333
1976	64.7385
1960	64.8472
1944	64.7054
1928	64.6559
1912	64.6799
1896	64.6335
1880	64.6854
1864	64.6829
1848	64.7442
1832	64.752
1816	64.7234
1800	64.6895
1784	64.6468
1768	64.5625
1752	64.4315
1736	64.2723
1720	64.3314
1704	64.3948
1688	64.6493
1672	64.5611
1656	64.3758
1640	64.4041
1624	64.3952
1608	64.4128
1592	64.4926
1576	64.3743
1560	64.5533
1544	64.3423
1528	64.4428
1512	64.5416
1496	64.4701
1480	64.3968
1464	64.3163
1448	64.4254
1432	64.2998
1416	64.3226
1400	64.323
1384	64.3078
1368	64.4534
1352	64.2284
1336	64.3888
1320	64.3024
1304	64.2742
1288	64.1832
1272	64.2908
1256	64.2252
1240	64.1157
1224	64.1023
1208	64.0332
1192	64.1926
1176	64.1277
1160	64.1697
1144	64.0847
1128	63.9199
1112	64.0241
1096	64.0074
1080	63.9361
1064	64.0201
1048	64.0477
1032	64.0232
1016	63.9425
1000	64.1522
984	 64.015
968	 63.9915
952	 64.0174
936	 64.003
920	 64.0821
904	 63.9804
888	 64.2193
872	 64.0343
856	 64.1402
840	 63.9027
824	 64.0477
808	 64.1656
792	 64.1957
776	 64.151
760	 63.9503
744	 63.826
728	 62.8469
712	 63.6383
696	 64.2638
680	 62.5751
664	 63.4822
648	 63.6302
632	 64.6242
616	 63.5155
600	 64.3479
584	 63.8331
568	 63.2575
552	 64.1013
536	 63.6113
520	 63.6586
504	 64.19
488	 63.7882
472	 64.2059
456	 63.7171
440	 62.6151
424	 61.9394
408	 65.1155
392	 74.6485
376	 53.5444
370	 64.9133