File: Bakgrunnsmateriale/MATLAB/FTIR/ftir_data/subAa/Mapping_121/BZ1503107-1_t43_cm-1.asc
PE IR       SPECTRUM    SPECTRUM    ASCII       PEDS        1.60
  -1
BZ6B24~1.ASC
17/04/07
16:42:51.00
17/04/07
16:42:51.00
tln
$BZ1503107-1_t0043$<tbV0>[-10.4,-5.2,8.0,0.0,27,1,0]
370
64

2002,4.07
MIRTGS : RIGHTBACK : INTERNAL 2
MIR : ON : INTERNAL 2
OPTKBR

0.200000
8
8.000000
FILLER
RATIO
SPECTRUM
UNLOCKED 256

DOUBLE
64
COMBINED
1
0
0

1.000000
RATIO

1
0
TRUE
51149
0
LEFT NOT FITTED RIGHT NOT FITTED 0
NONE
NONE
15600
12
4.427000
51148
TRUE
1 0 8 72 0 0 0 0

15798

#HDR
-1
-1
#GR
CM-1
%T
2.38419e-05
0.0
5000
-1.000000
4631
8
85.6494
59.5953
#DATA
5000	65.2682
4984	64.8313
4968	64.2604
4952	64.6798
4936	64.485
4920	65.0029
4904	64.886
4888	64.8364
4872	64.7106
4856	64.8331
4840	64.9534
4824	65.3576
4808	65.2013
4792	65.1331
4776	65.1095
4760	65.4118
4744	65.2172
4728	65.3048
4712	65.9904
4696	65.3815
4680	65.1825
4664	65.0394
4648	65.2596
4632	64.7724
4616	65.1476
4600	64.3282
4584	64.3345
4568	64.4886
4552	64.1144
4536	64.3283
4520	63.9057
4504	64.1128
4488	64.2304
4472	63.6489
4456	63.9076
4440	64.5825
4424	85.4221
4408	64.9426
4392	63.2465
4376	64.5558
4360	63.9393
4344	63.7471
4328	63.9353
4312	63.8714
4296	64.364
4280	64.3498
4264	64.5818
4248	64.3137
4232	64.8422
4216	65.0992
4200	65.2445
4184	65.1334
4168	65.2802
4152	65.3831
4136	65.3791
4120	65.1651
4104	65.5053
4088	65.3313
4072	65.3351
4056	65.2034
4040	65.1742
4024	65.3549
4008	65.2248
3992	65.1917
3976	65.1485
3960	64.9463
3944	65.0522
3928	65.0076
3912	65.142
3896	65.0864
3880	64.8371
3864	65.0379
3848	64.9878
3832	65.1783
3816	65.0037
3800	65.432
3784	65.3294
3768	65.1212
3752	65.2966
3736	65.1133
3720	65.2067
3704	65.3696
3688	65.2621
3672	65.3226
3656	65.3229
3640	65.218
3624	65.4246
3608	65.3361
3592	65.3884
3576	65.0969
3560	65.1745
3544	65.2377
3528	64.9724
3512	65.142
3496	65.1649
3480	65.0792
3464	65.1017
3448	65.0265
3432	64.9287
3416	65.0167
3400	65.0565
3384	65.325
3368	65.1983
3352	65.2436
3336	65.1715
3320	65.1873
3304	65.1258
3288	65.0049
3272	65.1805
3256	65.0369
3240	65.3064
3224	65.2924
3208	65.0654
3192	65.1598
3176	65.1746
3160	65.1119
3144	65.0016
3128	65.1647
3112	65.0537
3096	65.2835
3080	65.161
3064	65.0769
3048	65.139
3032	65.092
3016	65.0928
3000	65.2059
2984	65.0431
2968	64.9218
2952	65.0181
2936	64.9306
2920	64.9972
2904	65.1378
2888	65.1502
2872	65.0032
2856	65.052
2840	65.0633
2824	65.1008
2808	65.102
2792	65.3231
2776	65.0809
2760	65.0703
2744	65.1215
2728	65.1309
2712	65.0564
2696	65.1405
2680	65.0056
2664	65.0009
2648	65.0511
2632	64.9601
2616	64.8673
2600	65.0167
2584	65.0222
2568	64.9516
2552	64.9695
2536	65.016
2520	64.9914
2504	64.9911
2488	64.9322
2472	64.9765
2456	64.9646
2440	65.0507
2424	65.0643
2408	65.0406
2392	65.0233
2376	64.9926
2360	65.0127
2344	65.0034
2328	65.0537
2312	65.0035
2296	64.924
2280	64.9635
2264	64.8957
2248	64.8939
2232	64.9683
2216	64.8494
2200	64.966
2184	64.8727
2168	64.9013
2152	64.8267
2136	64.7611
2120	64.7638
2104	64.829
2088	64.7783
2072	64.7948
2056	64.7734
2040	64.8007
2024	64.7575
2008	64.8276
1992	64.7708
1976	64.7832
1960	64.7917
1944	64.7233
1928	64.7383
1912	64.5989
1896	64.6513
1880	64.62
1864	64.6417
1848	64.6882
1832	64.5939
1816	64.6689
1800	64.7153
1784	64.6436
1768	64.5057
1752	64.3862
1736	64.2604
1720	64.3021
1704	64.5821
1688	64.5651
1672	64.5271
1656	64.446
1640	64.4329
1624	64.4043
1608	64.371
1592	64.4124
1576	64.3026
1560	64.537
1544	64.3766
1528	64.3096
1512	64.4226
1496	64.3565
1480	64.3018
1464	64.2382
1448	64.3413
1432	64.3792
1416	64.3373
1400	64.287
1384	64.1514
1368	64.2252
1352	64.1634
1336	64.3178
1320	64.2931
1304	64.2085
1288	64.2633
1272	64.1761
1256	64.2363
1240	64.127
1224	64.1412
1208	64.1586
1192	64.1067
1176	63.9806
1160	64.0365
1144	64.0227
1128	63.9002
1112	64.1158
1096	63.8636
1080	63.9424
1064	63.9216
1048	64.1254
1032	64.0534
1016	64.1114
1000	64.1025
984	 64.037
968	 63.9349
952	 63.9736
936	 63.9193
920	 64.3126
904	 64.1218
888	 64.1681
872	 64.0708
856	 64.1838
840	 64.2055
824	 63.9121
808	 63.8451
792	 64.0677
776	 63.9626
760	 63.9979
744	 64.1469
728	 63.6984
712	 63.3068
696	 64.3079
680	 63.7409
664	 64.0664
648	 63.851
632	 63.6661
616	 63.1316
600	 64.3804
584	 64.0972
568	 63.8508
552	 63.917
536	 63.0268
520	 63.5789
504	 63.4358
488	 62.82
472	 63.2565
456	 63.0743
440	 62.3353
424	 62.0037
408	 60.7772
392	 64.9712
376	 63.3597
370	 67.4391