File: Bakgrunnsmateriale/MATLAB/FTIR/ftir_data/subAa/Mapping_121/BZ1503107-1_t46_cm-1.asc
PE IR       SPECTRUM    SPECTRUM    ASCII       PEDS        1.60
  -1
BZ6E24~1.ASC
17/04/07
17:03:40.00
17/04/07
17:03:40.00
tln
$BZ1503107-1_t0046$<tbV0>[10.4,-2.6,8.0,0.0,27,1,0]
370
64

2002,4.07
MIRTGS : RIGHTBACK : INTERNAL 2
MIR : ON : INTERNAL 2
OPTKBR

0.200000
8
8.000000
FILLER
RATIO
SPECTRUM
UNLOCKED 256

DOUBLE
64
COMBINED
1
0
0

1.000000
RATIO

1
0
TRUE
51149
0
LEFT NOT FITTED RIGHT NOT FITTED 0
NONE
NONE
15600
12
4.427000
51148
TRUE
1 0 8 72 0 0 0 0

15798

#HDR
-1
-1
#GR
CM-1
%T
2.38419e-05
0.0
5000
-1.000000
4631
8
66.8786
44.0223
#DATA
5000	65.7518
4984	65.4634
4968	64.5895
4952	64.7222
4936	65.2258
4920	65.4421
4904	64.9641
4888	64.6809
4872	64.7665
4856	64.8742
4840	64.6723
4824	64.3541
4808	64.8023
4792	64.5784
4776	64.8668
4760	64.6223
4744	64.6864
4728	65.057
4712	64.9156
4696	64.315
4680	65.2488
4664	64.5914
4648	64.9523
4632	65.2965
4616	65.3986
4600	64.7886
4584	65.071
4568	64.7621
4552	65.4512
4536	65.1532
4520	65.6202
4504	65.7914
4488	65.1709
4472	65.2839
4456	66.4292
4440	66.5682
4424	48.5221
4408	65.3993
4392	65.8548
4376	65.282
4360	65.3351
4344	65.5259
4328	65.5146
4312	65.5507
4296	65.3654
4280	65.2262
4264	65.3144
4248	65.2581
4232	65.0883
4216	64.9819
4200	64.8557
4184	64.6348
4168	64.6921
4152	64.7922
4136	64.7163
4120	64.9615
4104	64.8983
4088	65.1437
4072	64.7531
4056	64.812
4040	65.0738
4024	64.8203
4008	64.8287
3992	65.0833
3976	65.2447
3960	64.9129
3944	64.9572
3928	64.8029
3912	65.0862
3896	65.1671
3880	65.0836
3864	65.0939
3848	65.0697
3832	65.1405
3816	65.2027
3800	65.0844
3784	64.856
3768	65.0443
3752	64.8382
3736	64.986
3720	65.0264
3704	65.0644
3688	64.9755
3672	64.8797
3656	65.0694
3640	64.9834
3624	64.8014
3608	64.9739
3592	64.8455
3576	64.9203
3560	65.0659
3544	65.0851
3528	64.9896
3512	65.1677
3496	65.1593
3480	64.8757
3464	64.9663
3448	65.1118
3432	64.9361
3416	64.9896
3400	64.7689
3384	64.8798
3368	65.1013
3352	64.7902
3336	64.9644
3320	64.8902
3304	64.9056
3288	65.021
3272	64.8312
3256	64.9106
3240	64.8462
3224	65.0568
3208	64.7306
3192	64.854
3176	65.1037
3160	64.9349
3144	64.9271
3128	64.861
3112	64.8627
3096	65.0659
3080	64.8226
3064	64.8604
3048	64.8471
3032	64.9517
3016	64.9599
3000	65.1396
2984	64.9362
2968	64.7974
2952	64.8285
2936	64.8196
2920	64.9018
2904	64.8189
2888	64.8116
2872	64.8614
2856	64.8458
2840	64.8494
2824	64.859
2808	64.8685
2792	64.8684
2776	64.8496
2760	64.7969
2744	64.8579
2728	64.7465
2712	64.8499
2696	64.8409
2680	64.854
2664	64.862
2648	64.8181
2632	64.9421
2616	64.8613
2600	64.905
2584	64.8273
2568	64.7884
2552	64.8243
2536	64.7783
2520	64.8515
2504	64.8042
2488	64.7735
2472	64.6607
2456	64.7574
2440	64.8252
2424	64.5967
2408	64.7668
2392	64.732
2376	64.6097
2360	64.5822
2344	64.616
2328	64.6797
2312	64.6983
2296	64.6484
2280	64.6959
2264	64.8299
2248	64.6759
2232	64.6038
2216	64.595
2200	64.5609
2184	64.5296
2168	64.5058
2152	64.5327
2136	64.5461
2120	64.5059
2104	64.4861
2088	64.6436
2072	64.5466
2056	64.5645
2040	64.468
2024	64.6395
2008	64.4577
1992	64.4984
1976	64.4469
1960	64.3766
1944	64.4851
1928	64.4064
1912	64.4117
1896	64.3614
1880	64.3996
1864	64.4124
1848	64.5257
1832	64.5082
1816	64.3685
1800	64.2893
1784	64.387
1768	64.3538
1752	64.2589
1736	64.0184
1720	64.1865
1704	64.2591
1688	64.3679
1672	64.2422
1656	64.1555
1640	64.2929
1624	64.1388
1608	64.2121
1592	64.1569
1576	64.1285
1560	64.2568
1544	64.1866
1528	64.0799
1512	64.141
1496	64.1885
1480	64.1999
1464	64.1433
1448	63.9176
1432	64.0046
1416	64.1456
1400	64.0958
1384	64.0227
1368	63.9599
1352	63.9927
1336	63.9472
1320	63.9354
1304	63.9603
1288	63.9861
1272	63.9782
1256	63.8909
1240	63.8442
1224	63.9036
1208	63.8352
1192	63.8498
1176	63.9009
1160	63.706
1144	63.7595
1128	63.6906
1112	63.7836
1096	63.7202
1080	63.6648
1064	63.9332
1048	63.7166
1032	63.6071
1016	63.6831
1000	63.6996
984	 63.673
968	 63.7375
952	 63.5544
936	 63.6095
920	 63.8171
904	 63.9021
888	 63.8093
872	 63.4967
856	 63.9422
840	 63.8241
824	 63.8442
808	 63.6173
792	 63.6954
776	 63.5441
760	 63.8093
744	 63.525
728	 63.4159
712	 63.5971
696	 63.3268
680	 63.9815
664	 63.367
648	 64.0305
632	 62.7284
616	 64.2984
600	 62.8717
584	 63.3606
568	 62.9521
552	 64.0867
536	 63.0093
520	 64.0905
504	 63.4669
488	 63.6153
472	 63.1457
456	 64.321
440	 62.3956
424	 65.1485
408	 56.2584
392	 59.8752
376	 54.4694
370	 51.2612