File: Bakgrunnsmateriale/MATLAB/FTIR/ftir_data/subAa/Mapping_121/BZ1503107-1_t32.asc
PE IR       SPECTRUM    SPECTRUM    ASCII       PEDS        1.60
  -1
BZ2157~1.ASC
17/04/07
15:51:25.00
17/04/07
15:51:52.00
tln
$BZ1503107-1_t0032$<tbV0>[-10.4,-7.8,8.0,0.0,27,1,0]
27.028
64

2002,4.07
MIRTGS : RIGHTBACK : INTERNAL 2
MIR : ON : INTERNAL 2
OPTKBR

0.200000
8
8.000000
FILLER
RATIO
SPECTRUM
UNLOCKED 256

DOUBLE
64
COMBINED
1
0
0

0.002000
RATIO

1
0
TRUE
51149
0
LEFT NOT FITTED RIGHT NOT FITTED 0
NONE
NONE
15600
12
4.427000
51148
TRUE
1 0 8 72 0 0 0 0

15798

#HDR
-1
-1
#GR
µM
%T
2.38419e-05
0.0
2.000000
0.002000
12515
8
73.3845
44.7724
#DATA
2.000000	 64.1541
2.084000	 63.1855
2.168000	 63.6624
2.252000	 65.1837
2.336000	 63.7711
2.420000	 63.6592
2.504000	 64.0148
2.588000	 64.0652
2.672000	 64.1484
2.756000	 64.0991
2.840000	 64.1304
2.924000	 64.3376
3.008000	 64.0916
3.092000	 63.9921
3.176000	 64.0092
3.260000	 64.2197
3.344000	 64.1456
3.428000	 64.0888
3.512000	 64.0954
3.596000	 64.1716
3.680000	 64.2387
3.764000	 64.1
3.848000	 64.2376
3.932000	 64.1155
4.016000	 64.3269
4.100000	 64.1475
4.184000	 64.2688
4.268000	 64.2587
4.352000	 64.1716
4.436000	 64.1639
4.520000	 64.1928
4.604000	 64.1602
4.688000	 64.2617
4.772000	 64.2191
4.856000	 64.219
4.940000	 64.2421
5.024000	 64.128
5.108000	 64.188
5.192000	 64.1046
5.276000	 64.0018
5.359999	 64.2327
5.444000	 64.1912
5.528000	 64.1184
5.612000	 64.0808
5.696000	 64.0085
5.780000	 63.6278
5.864000	 64.0318
5.948000	 64.1391
6.032000	 63.9456
6.116000	 63.9989
6.200000	 63.96
6.284000	 63.9282
6.368000	 63.932
6.452000	 63.9219
6.536000	 63.979
6.620000	 64.0202
6.704000	 63.9849
6.788000	 63.9016
6.872000	 63.7565
6.956000	 64.0239
7.040000	 63.8778
7.124000	 63.8314
7.208000	 63.9169
7.292000	 63.9362
7.376000	 63.9381
7.460000	 63.9685
7.544000	 63.9163
7.628000	 63.8724
7.712000	 63.8104
7.796000	 63.783
7.880000	 63.7892
7.964000	 63.7211
8.048000	 63.7751
8.132000	 63.7592
8.216000	 63.7628
8.300000	 63.7487
8.384000	 63.7826
8.468000	 63.7678
8.552000	 63.6713
8.635999	 63.7208
8.719999	 63.7041
8.804000	 63.7817
8.888000	 63.7031
8.972000	 63.8079
9.056000	 63.7647
9.140000	 63.7078
9.224000	 63.7148
9.308000	 63.8594
9.391999	 63.7493
9.475999	 63.7913
9.560000	 63.7787
9.644000	 63.8278
9.728000	 64.0011
9.812000	 63.7527
9.896000	 63.7266
9.980000	 64.0072
10.064	63.9001
10.148	63.8219
10.232	63.8741
10.316	63.6858
10.4	63.6789
10.484	63.7558
10.568	63.7556
10.652	63.7281
10.736	63.7401
10.82	63.851
10.904	63.953
10.988	63.8279
11.072	63.8579
11.156	63.8705
11.24	63.9639
11.324	63.9803
11.408	64.1856
11.492	63.8717
11.576	64.0064
11.66	64.0694
11.744	63.8325
11.828	63.7975
11.912	63.959
11.996	63.9733
12.08	63.9783
12.164	63.8853
12.248	63.6551
12.332	63.7478
12.416	64.0009
12.5	63.9954
12.584	64.0805
12.668	63.9734
12.752	63.7917
12.836	63.8111
12.92	63.8803
13.004	64.0252
13.088	63.8412
13.172	63.6686
13.256	63.5922
13.34	63.5058
13.424	63.5075
13.508	63.3061
13.592	63.6206
13.676	64.3747
13.76	64.408
13.844	64.0658
13.928	63.9428
14.012	63.7215
14.096	63.4573
14.18	63.4127
14.264	63.5171
14.348	63.6278
14.432	63.9128
14.516	64.1691
14.6	63.8108
14.684	63.1466
14.768	62.9233
14.852	63.0995
14.936	63.2738
15.02	63.5608
15.104	63.8886
15.188	64.0268
15.272	64.0712
15.356	63.8821
15.44	63.5357
15.524	63.477
15.608	63.5954
15.692	63.5116
15.776	63.3513
15.86	63.3797
15.944	63.5483
16.028	63.7359
16.112	63.8231
16.196	63.7131
16.28	63.5555
16.364	63.5369
16.448	63.6246
16.532	63.7909
16.616	64.0765
16.7	64.3539
16.784	64.4065
16.868	64.2183
16.952	63.9979
17.036	63.9362
17.12	64.0336
17.204	64.1716
17.288	64.2631
17.372	64.2817
17.456	64.2021
17.54	64.0331
17.624	63.8944
17.708	63.9176
17.792	64.0887
17.876	64.2965
17.96	64.484
18.044	64.6093
18.128	64.5302
18.212	64.1688
18.296	63.7059
18.38	63.4085
18.464	63.3431
18.548	63.3729
18.632	63.3701
18.716	63.3521
18.8	63.4096
18.884	63.5576
18.968	63.6993
19.052	63.7248
19.136	63.6304
19.22	63.5171
19.304	63.4722
19.388	63.4945
19.472	63.5373
19.556	63.5612
19.64	63.5534
19.724	63.5325
19.808	63.5354
19.892	63.5802
19.976	63.6365
20.06	63.6549
20.144	63.6288
20.228	63.6097
20.312	63.6392
20.396	63.7006
20.48	63.7654
20.564	63.8615
20.648	64.049
20.732	64.3261
20.816	64.5817
20.9	64.6671
20.984	64.5122
21.068	64.1731
21.152	63.7728
21.236	63.4089
21.32	63.1316
21.404	62.9635
21.488	62.912
21.572	62.9612
21.656	63.0669
21.74	63.1801
21.824	63.272
21.908	63.3422
21.992	63.4092
22.076	63.4887
22.16	63.5702
22.244	63.6127
22.328	63.5565
22.412	63.3437
22.496	62.9555
22.58	62.4435
22.664	61.9247
22.748	61.5607
22.832	61.4875
22.916	61.7649
23	62.3424
23.084	63.0841
23.168	63.7985
23.252	64.3151
23.336	64.5107
23.42	64.353
23.504	63.8836
23.588	63.2341
23.672	62.5919
23.756	62.1401
23.84	61.9766
23.924	62.0835
24.008	62.3305
24.092	62.5132
24.176	62.4406
24.26	62.0361
24.344	61.3517
24.428	60.5344
24.512	59.7868
24.596	59.275
24.68	59.0845
24.764	59.1887
24.848	59.4599
24.932	59.6385
25.016	59.4243
25.1	58.6175
25.184	57.1883
25.268	55.3634
25.352	53.5915
25.436	52.4667
25.52	52.445
25.604	53.6221
25.688	55.6927
25.772	57.9797
25.856	59.6824
25.94	60.1857
26.024	59.2728
26.108	57.2222
26.192	54.6001
26.276	52.0258
26.36	49.9497
26.444	48.5993
26.528	48.0424
26.612	48.2884
26.696	49.4171
26.78	51.5939
26.864	54.9682
26.948	59.5348
27.028	64.721