File: Bakgrunnsmateriale/MATLAB/FTIR/ftir_data/subAa/Mapping_121/BZ1503107-1_e122_cm-1.asc
PE IR       SPECTRUM    SPECTRUM    ASCII       PEDS        1.60
  -1
BZ1503~1.ASC
17/04/07
13:14:34.00
17/04/07
13:14:34.00
tln
$BZ1503107-1_e0122$<ebV0>[-23.3,12.1,10.0,0.0,27,1,0]
370
64

2002,4.07
MIRTGS : RIGHTBACK : INTERNAL 2
MIR : ON : INTERNAL 2
OPTKBR

0.200000
8
8.000000
FILLER
SINGLE
SPECTRUM
UNLOCKED 256

DOUBLE

COMBINED
1
0
0

1.000000
BACKG

1
0
TRUE
51149
0
LEFT NOT FITTED RIGHT NOT FITTED 0
NONE
NONE
15600
12
4.427000
51148
TRUE
1 0 8 72 0 0 0 0

15798

#HDR
-1
-1
#GR
CM-1
EGY
2.38419e-05
0.0
5000
-1.000000
4631
8
2.461695
0.006914
#DATA
5000	0.774073
4984	0.783085
4968	0.790739
4952	0.796055
4936	0.798535
4920	0.808048
4904	0.813031
4888	0.817847
4872	0.831985
4856	0.834417
4840	0.841307
4824	0.856757
4808	0.867962
4792	0.871491
4776	0.889205
4760	0.891232
4744	0.904679
4728	0.910305
4712	0.915074
4696	0.917124
4680	0.914883
4664	0.918340
4648	0.921702
4632	0.930452
4616	0.939559
4600	0.944590
4584	0.954675
4568	0.970435
4552	0.985169
4536	0.990390
4520	1.004838
4504	0.999021
4488	0.959920
4472	1.003623
4456	1.034283
4440	1.027274
4424	1.028585
4408	1.031708
4392	1.037502
4376	1.047825
4360	1.057267
4344	1.070761
4328	1.090764
4312	1.107907
4296	1.129364
4280	1.146197
4264	1.162791
4248	1.174402
4232	1.183056
4216	1.193761
4200	1.199817
4184	1.209139
4168	1.216816
4152	1.226663
4136	1.236486
4120	1.250362
4104	1.262807
4088	1.283621
4072	1.308441
4056	1.328229
4040	1.353025
4024	1.372075
4008	1.390647
3992	1.404595
3976	1.412296
3960	1.420521
3944	1.421141
3928	1.431179
3912	1.435112
3896	1.436996
3880	1.446580
3864	1.456212
3848	1.466202
3832	1.484727
3816	1.500725
3800	1.519870
3784	1.548600
3768	1.558136
3752	1.547026
3736	1.562833
3720	1.579999
3704	1.580071
3688	1.572489
3672	1.565027
3656	1.579523
3640	1.584315
3624	1.582121
3608	1.590347
3592	1.602649
3576	1.613354
3560	1.625657
3544	1.629567
3528	1.633834
3512	1.636767
3496	1.630544
3480	1.620984
3464	1.617503
3448	1.603221
3432	1.591229
3416	1.594138
3400	1.605033
3384	1.614832
3368	1.629495
3352	1.655626
3336	1.675367
3320	1.699090
3304	1.725077
3288	1.745057
3272	1.764392
3256	1.777648
3240	1.791906
3224	1.795125
3208	1.795220
3192	1.799702
3176	1.804232
3160	1.809763
3144	1.825356
3128	1.841688
3112	1.865029
3096	1.890778
3080	1.923990
3064	1.944732
3048	1.973605
3032	1.985907
3016	1.969289
3000	2.030920
2984	2.033543
2968	1.964950
2952	1.927232
2936	1.820206
2920	1.809668
2904	1.952886
2888	2.004384
2872	1.989221
2856	1.932978
2840	2.076840
2824	2.137327
2808	2.176642
2792	2.204608
2776	2.233886
2760	2.252864
2744	2.262878
2728	2.263021
2712	2.260112
2696	2.249169
2680	2.242588
2664	2.232146
2648	2.225923
2632	2.224922
2616	2.228975
2600	2.233529
2584	2.244067
2568	2.270722
2552	2.290821
2536	2.310109
2520	2.324199
2504	2.332115
2488	2.330255
2472	2.324128
2456	2.312016
2440	2.295303
2424	2.277898
2408	2.264785
2392	2.255558
2376	2.245187
2360	2.238368
2344	2.267479
2328	2.289366
2312	2.322745
2296	2.350640
2280	2.369594
2264	2.380466
2248	2.385187
2232	2.386736
2216	2.376317
2200	2.363991
2184	2.352452
2168	2.339529
2152	2.344274
2136	2.341127
2120	2.338719
2104	2.344322
2088	2.343773
2072	2.363705
2056	2.396368
2040	2.427220
2024	2.446317
2008	2.456712
1992	2.461147
1976	2.449703
1960	2.433300
1944	2.421116
1928	2.409076
1912	2.388668
1896	2.374672
1880	2.379751
1864	2.385044
1848	2.395367
1832	2.411103
1816	2.426719
1800	2.432036
1784	2.431488
1768	2.412462
1752	2.385687
1736	2.324461
1720	2.306914
1704	2.270913
1688	2.248144
1672	2.223300
1656	2.173829
1640	2.153611
1624	2.103829
1608	1.973032
1592	2.015757
1576	1.980042
1560	1.923727
1544	1.953983
1528	2.106046
1512	2.086448
1496	1.698637
1480	1.958394
1464	1.933646
1448	1.783108
1432	1.867032
1416	1.841783
1400	1.732087
1384	1.786398
1368	1.816773
1352	1.813673
1336	1.826143
1320	1.854491
1304	1.857209
1288	1.853823
1272	1.806950
1256	1.756930
1240	1.837325
1224	1.814079
1208	1.747798
1192	1.739478
1176	1.700687
1160	1.630187
1144	1.599073
1128	1.537704
1112	1.456594
1096	1.423430
1080	1.423215
1064	1.438641
1048	1.306438
1032	1.378560
1016	1.366138
1000	1.400470
984	 1.383686
968	 1.343345
952	 1.285934
936	 1.251411
920	 1.214623
904	 1.162362
888	 1.121330
872	 1.036906
856	 1.093220
840	 1.059317
824	 0.847935
808	 0.949549
792	 0.960135
776	 0.977540
760	 0.964832
744	 0.943374
728	 0.901627
712	 0.856876
696	 0.791549
680	 0.735211
664	 0.706529
648	 0.665283
632	 0.622844
616	 0.576210
600	 0.524640
584	 0.507712
568	 0.494337
552	 0.465250
536	 0.436592
520	 0.397777
504	 0.359535
488	 0.304508
472	 0.249099
456	 0.195837
440	 0.150823
424	 0.099849
408	 0.054860
392	 0.025224
376	 0.009989
370	 0.006914