File: Bakgrunnsmateriale/MATLAB/FTIR/ftir_data/subAa/Mapping_121/BZ1503107-1_t55.asc
PE IR       SPECTRUM    SPECTRUM    ASCII       PEDS        1.60
  -1
BZ2D53~1.ASC
17/04/07
17:45:15.00
17/04/07
17:45:41.00
tln
$BZ1503107-1_t0055$<tbV0>[-13.0,-2.6,8.0,0.0,27,1,0]
27.028
64

2002,4.07
MIRTGS : RIGHTBACK : INTERNAL 2
MIR : ON : INTERNAL 2
OPTKBR

0.200000
8
8.000000
FILLER
RATIO
SPECTRUM
UNLOCKED 256

DOUBLE
64
COMBINED
1
0
0

0.002000
RATIO

1
0
TRUE
51149
0
LEFT NOT FITTED RIGHT NOT FITTED 0
NONE
NONE
15600
12
4.427000
51148
TRUE
1 0 8 72 0 0 0 0

15798

#HDR
-1
-1
#GR
µM
%T
2.38419e-05
0.0
2.000000
0.002000
12515
8
77.0812
51.7392
#DATA
2.000000	 66.8718
2.084000	 64.9116
2.168000	 64.7151
2.252000	 53.9318
2.336000	 65.2095
2.420000	 64.9479
2.504000	 65.0614
2.588000	 65.2485
2.672000	 65.0673
2.756000	 65.1432
2.840000	 65.1657
2.924000	 65.2787
3.008000	 65.1521
3.092000	 65.0781
3.176000	 65.0404
3.260000	 64.996
3.344000	 64.9286
3.428000	 64.802
3.512000	 64.9526
3.596000	 65.0878
3.680000	 64.9237
3.764000	 64.872
3.848000	 65.0319
3.932000	 64.9382
4.016000	 64.9743
4.100000	 65.0026
4.184000	 64.8777
4.268000	 64.7549
4.352000	 64.8034
4.436000	 64.8314
4.520000	 64.8194
4.604000	 64.7344
4.688000	 64.6837
4.772000	 64.6682
4.856000	 64.7554
4.940000	 64.6489
5.024000	 64.6672
5.108000	 64.4564
5.192000	 64.6014
5.276000	 64.569
5.359999	 64.5789
5.444000	 64.4831
5.528000	 64.5401
5.612000	 64.5125
5.696000	 64.3246
5.780000	 63.7499
5.864000	 64.308
5.948000	 64.3026
6.032000	 64.3434
6.116000	 64.2972
6.200000	 64.3386
6.284000	 64.3426
6.368000	 64.321
6.452000	 64.3393
6.536000	 64.1774
6.620000	 64.3508
6.704000	 64.2568
6.788000	 64.1668
6.872000	 64.1749
6.956000	 64.1781
7.040000	 64.2497
7.124000	 64.2369
7.208000	 64.143
7.292000	 64.0367
7.376000	 64.0527
7.460000	 64.0853
7.544000	 64.1844
7.628000	 64.0362
7.712000	 64.114
7.796000	 64.0713
7.880000	 63.9398
7.964000	 63.9097
8.048000	 63.8369
8.132000	 63.7714
8.216000	 63.9432
8.300000	 63.8649
8.384000	 63.763
8.468000	 63.84
8.552000	 63.6641
8.635999	 63.5941
8.719999	 63.8117
8.804000	 63.823
8.888000	 63.7868
8.972000	 63.9513
9.056000	 63.932
9.140000	 63.9658
9.224000	 63.8236
9.308000	 63.8382
9.391999	 63.8604
9.475999	 63.8372
9.560000	 63.7023
9.644000	 63.7913
9.728000	 63.8286
9.812000	 63.8277
9.896000	 63.6874
9.980000	 63.9085
10.064	64.0777
10.148	64.0529
10.232	64.1892
10.316	63.8574
10.4	63.8279
10.484	63.8889
10.568	63.7858
10.652	63.7442
10.736	63.8621
10.82	63.7985
10.904	63.8525
10.988	63.9119
11.072	64.1005
11.156	63.9155
11.24	63.7558
11.324	63.9233
11.408	63.89
11.492	63.9384
11.576	63.9511
11.66	64.0479
11.744	64.1042
11.828	63.9105
11.912	63.7768
11.996	63.9324
12.08	64.0688
12.164	64.066
12.248	64.0742
12.332	63.9502
12.416	63.7798
12.5	63.7944
12.584	63.7945
12.668	63.8149
12.752	63.8126
12.836	63.8195
12.92	63.7727
13.004	63.7286
13.088	63.6308
13.172	63.4704
13.256	63.3915
13.34	63.4582
13.424	63.7063
13.508	63.6719
13.592	63.5434
13.676	63.6222
13.76	63.6615
13.844	63.6616
13.928	63.5587
14.012	63.5655
14.096	63.5484
14.18	63.3486
14.264	63.2966
14.348	63.304
14.432	63.3396
14.516	63.4776
14.6	63.3679
14.684	63.2491
14.768	63.3683
14.852	63.3589
14.936	63.2254
15.02	63.1531
15.104	63.2842
15.188	63.6
15.272	63.7129
15.356	63.5588
15.44	63.4282
15.524	63.3535
15.608	63.314
15.692	63.3882
15.776	63.352
15.86	63.0369
15.944	62.8737
16.028	63.3003
16.112	63.8989
16.196	63.8292
16.28	63.0028
16.364	62.2376
16.448	62.2282
16.532	62.7756
16.616	63.2577
16.7	63.5007
16.784	63.6611
16.868	63.6202
16.952	63.3044
17.036	63.1764
17.12	63.6419
17.204	64.3706
17.288	64.7171
17.372	64.4464
17.456	63.8215
17.54	63.305
17.624	63.1669
17.708	63.2386
17.792	63.1706
17.876	62.932
17.96	62.8451
18.044	63.1217
18.128	63.6079
18.212	64.0274
18.296	64.2483
18.38	64.3036
18.464	64.2473
18.548	64.0904
18.632	63.8211
18.716	63.4698
18.8	63.1723
18.884	63.1421
18.968	63.4491
19.052	63.8458
19.136	63.9746
19.22	63.7369
19.304	63.3689
19.388	63.122
19.472	63.014
19.556	62.9335
19.64	62.8535
19.724	62.8152
19.808	62.7885
19.892	62.694
19.976	62.5333
20.06	62.4101
20.144	62.4074
20.228	62.4971
20.312	62.6166
20.396	62.7702
20.48	63.0051
20.564	63.3048
20.648	63.5557
20.732	63.6339
20.816	63.4915
20.9	63.1824
20.984	62.8326
21.068	62.5961
21.152	62.6008
21.236	62.8857
21.32	63.36
21.404	63.8244
21.488	64.0898
21.572	64.0942
21.656	63.9206
21.74	63.7188
21.824	63.5887
21.908	63.5245
21.992	63.4701
22.076	63.3993
22.16	63.3526
22.244	63.4016
22.328	63.5646
22.412	63.7748
22.496	63.9005
22.58	63.8313
22.664	63.5374
22.748	63.1032
22.832	62.6835
22.916	62.446
23	62.5166
23.084	62.9236
23.168	63.5756
23.252	64.3024
23.336	64.9067
23.42	65.232
23.504	65.2215
23.588	64.941
23.672	64.5194
23.756	64.081
23.84	63.7128
23.924	63.4423
24.008	63.2717
24.092	63.2141
24.176	63.2832
24.26	63.4477
24.344	63.5877
24.428	63.5376
24.512	63.1526
24.596	62.4361
24.68	61.6024
24.764	61.0302
24.848	61.0916
24.932	62.0025
25.016	63.6445
25.1	65.5609
25.184	67.0611
25.268	67.5179
25.352	66.5977
25.436	64.3543
25.52	61.2402
25.604	57.9046
25.688	55.0576
25.772	53.219
25.856	52.5704
25.94	52.9296
26.024	53.8664
26.108	54.9185
26.192	55.7941
26.276	56.4491
26.36	57.066
26.444	57.8383
26.528	58.7794
26.612	59.6485
26.696	60.0154
26.78	59.428
26.864	57.6602
26.948	54.8574
27.028	51.7392