File: Bakgrunnsmateriale/MATLAB/FTIR/ftir_data/subAa/Mapping_121/BZ1503107-1_t96.asc
PE IR       SPECTRUM    SPECTRUM    ASCII       PEDS        1.60
  -1
BZ316B~1.ASC
17/04/07
21:09:06.00
17/04/07
21:09:32.00
tln
$BZ1503107-1_t0096$<tbV0>[-5.2,7.8,8.0,0.0,27,1,0]
27.028
64

2002,4.07
MIRTGS : RIGHTBACK : INTERNAL 2
MIR : ON : INTERNAL 2
OPTKBR

0.200000
8
8.000000
FILLER
RATIO
SPECTRUM
UNLOCKED 256

DOUBLE
64
COMBINED
1
0
0

0.002000
RATIO

1
0
TRUE
51149
0
LEFT NOT FITTED RIGHT NOT FITTED 0
NONE
NONE
15600
12
4.427000
51148
TRUE
1 0 8 72 0 0 0 0

15798

#HDR
-1
-1
#GR
µM
%T
2.38419e-05
0.0
2.000000
0.002000
12515
8
80.316
42.7022
#DATA
2.000000	 64.4557
2.084000	 65.3183
2.168000	 64.7594
2.252000	 74.3864
2.336000	 64.7948
2.420000	 65.0158
2.504000	 65.0319
2.588000	 64.9513
2.672000	 64.9309
2.756000	 65.0426
2.840000	 64.9313
2.924000	 64.9027
3.008000	 64.7444
3.092000	 64.7917
3.176000	 64.8381
3.260000	 64.7534
3.344000	 64.7082
3.428000	 64.705
3.512000	 64.6505
3.596000	 64.7696
3.680000	 64.6551
3.764000	 64.7507
3.848000	 64.5953
3.932000	 64.6589
4.016000	 64.6378
4.100000	 64.4516
4.184000	 64.4966
4.268000	 64.4495
4.352000	 64.4632
4.436000	 64.3575
4.520000	 64.3594
4.604000	 64.1946
4.688000	 64.2832
4.772000	 64.3128
4.856000	 64.2596
4.940000	 64.1703
5.024000	 64.2754
5.108000	 64.1755
5.192000	 64.017
5.276000	 64.1331
5.359999	 64.1044
5.444000	 64.1021
5.528000	 63.9965
5.612000	 63.8945
5.696000	 63.8155
5.780000	 63.509
5.864000	 63.7566
5.948000	 63.6917
6.032000	 63.8925
6.116000	 63.6055
6.200000	 63.7271
6.284000	 63.8487
6.368000	 63.7045
6.452000	 63.6919
6.536000	 63.6463
6.620000	 63.6607
6.704000	 63.6164
6.788000	 63.6406
6.872000	 63.4611
6.956000	 63.4168
7.040000	 63.5441
7.124000	 63.6045
7.208000	 63.33
7.292000	 63.3366
7.376000	 63.3953
7.460000	 63.2973
7.544000	 63.3143
7.628000	 63.4423
7.712000	 63.2929
7.796000	 63.1096
7.880000	 63.1261
7.964000	 63.1798
8.048000	 63.1015
8.132000	 63.1613
8.216000	 63.1314
8.300000	 63.121
8.384000	 63.1582
8.468000	 63.0026
8.552000	 63.0195
8.635999	 63.0922
8.719999	 63.0097
8.804000	 63.0436
8.888000	 62.9272
8.972000	 62.9616
9.056000	 63.0577
9.140000	 63.0332
9.224000	 62.8435
9.308000	 63.0523
9.391999	 62.8683
9.475999	 62.9006
9.560000	 62.9993
9.644000	 63.0049
9.728000	 62.8947
9.812000	 62.735
9.896000	 62.8022
9.980000	 62.8595
10.064	62.7859
10.148	63.0182
10.232	62.9224
10.316	62.9726
10.4	63.0136
10.484	62.9977
10.568	62.8466
10.652	62.9419
10.736	63.0181
10.82	63.1364
10.904	62.897
10.988	62.858
11.072	62.9463
11.156	62.6799
11.24	62.6812
11.324	62.8153
11.408	62.8139
11.492	62.7329
11.576	62.9034
11.66	62.7932
11.744	62.6365
11.828	62.8309
11.912	62.8904
11.996	62.8501
12.08	62.8849
12.164	63.0849
12.248	63.1963
12.332	63.0687
12.416	62.856
12.5	62.5886
12.584	62.7249
12.668	62.8842
12.752	62.8605
12.836	62.6263
12.92	62.5886
13.004	62.6318
13.088	62.6037
13.172	62.6745
13.256	62.576
13.34	62.4762
13.424	62.5373
13.508	62.6093
13.592	62.6859
13.676	62.747
13.76	62.7039
13.844	62.6155
13.928	62.6053
14.012	62.5433
14.096	62.4481
14.18	62.3746
14.264	62.3925
14.348	62.5731
14.432	62.6198
14.516	62.5183
14.6	62.3875
14.684	62.17
14.768	62.0743
14.852	62.2364
14.936	62.4439
15.02	62.501
15.104	62.4159
15.188	62.2467
15.272	62.1458
15.356	62.1963
15.44	62.258
15.524	62.281
15.608	62.2983
15.692	62.2464
15.776	62.1436
15.86	62.1248
15.944	62.2062
16.028	62.2983
16.112	62.3349
16.196	62.2693
16.28	62.1617
16.364	62.1575
16.448	62.1824
16.532	62.0154
16.616	61.7713
16.7	61.7643
16.784	61.9451
16.868	62.0538
16.952	62.0796
17.036	62.2051
17.12	62.4767
17.204	62.7298
17.288	62.8462
17.372	62.9023
17.456	62.9757
17.54	62.9496
17.624	62.6514
17.708	62.1839
17.792	61.8888
17.876	61.915
17.96	62.0446
18.044	62.0036
18.128	61.7443
18.212	61.3965
18.296	61.0856
18.38	60.8623
18.464	60.7907
18.548	61.0078
18.632	61.6232
18.716	62.5125
18.8	63.2616
18.884	63.4073
18.968	62.8225
19.052	61.8755
19.136	61.1353
19.22	60.9455
19.304	61.2444
19.388	61.7123
19.472	61.9958
19.556	61.8905
19.64	61.429
19.724	60.8331
19.808	60.3686
19.892	60.1899
19.976	60.2793
20.06	60.5089
20.144	60.7618
20.228	61.0047
20.312	61.2324
20.396	61.3882
20.48	61.3412
20.564	60.9886
20.648	60.3998
20.732	59.8259
20.816	59.5614
20.9	59.7424
20.984	60.2656
21.068	60.8707
21.152	61.2976
21.236	61.4326
21.32	61.3486
21.404	61.2352
21.488	61.2605
21.572	61.4624
21.656	61.7325
21.74	61.8891
21.824	61.7887
21.908	61.4119
21.992	60.8557
22.076	60.2733
22.16	59.8155
22.244	59.5744
22.328	59.586
22.412	59.8246
22.496	60.2027
22.58	60.6124
22.664	60.9545
22.748	61.1662
22.832	61.2398
22.916	61.1926
23	61.0494
23.084	60.8257
23.168	60.536
23.252	60.2252
23.336	60.0003
23.42	60.0031
23.504	60.3686
23.588	61.146
23.672	62.2506
23.756	63.4528
23.84	64.4743
23.924	65.0513
24.008	65.0502
24.092	64.516
24.176	63.6022
24.26	62.4936
24.344	61.3554
24.428	60.295
24.512	59.3984
24.596	58.7683
24.68	58.5444
24.764	58.8584
24.848	59.769
24.932	61.1849
25.016	62.8462
25.1	64.4305
25.184	65.5788
25.268	66.0056
25.352	65.5587
25.436	64.1739
25.52	61.8748
25.604	58.7617
25.688	55.0366
25.772	51.0629
25.856	47.3523
25.94	44.4636
26.024	42.8941
26.108	42.9115
26.192	44.4411
26.276	47.1186
26.36	50.3572
26.444	53.5612
26.528	56.3323
26.612	58.5301
26.696	60.338
26.78	62.1675
26.864	64.4174
26.948	67.2387
27.028	70.243