File: Bakgrunnsmateriale/MATLAB/FTIR/ftir_data/subAa/Mapping_121/BZ1503107-1_t18_cm-1.asc
PE IR       SPECTRUM    SPECTRUM    ASCII       PEDS        1.60
  -1
BZ60B1~1.ASC
17/04/07
14:39:36.00
17/04/07
14:39:36.00
tln
$BZ1503107-1_t0018$<tbV0>[-2.6,-10.4,8.0,0.0,27,1,0]
370
64

2002,4.07
MIRTGS : RIGHTBACK : INTERNAL 2
MIR : ON : INTERNAL 2
OPTKBR

0.200000
8
8.000000
FILLER
RATIO
SPECTRUM
UNLOCKED 256

DOUBLE
64
COMBINED
1
0
0

1.000000
RATIO

1
0
TRUE
51149
0
LEFT NOT FITTED RIGHT NOT FITTED 0
NONE
NONE
15600
12
4.427000
51148
TRUE
1 0 8 72 0 0 0 0

15798

#HDR
-1
-1
#GR
CM-1
%T
2.38419e-05
0.0
5000
-1.000000
4631
8
70.4983
47.9527
#DATA
5000	66.1167
4984	61.7428
4968	65.4749
4952	64.8317
4936	65.8178
4920	64.3135
4904	64.8087
4888	65.524
4872	64.9729
4856	65.3087
4840	65.0463
4824	64.9463
4808	64.8224
4792	65.2091
4776	64.7518
4760	65.2737
4744	64.6054
4728	64.5541
4712	64.8454
4696	64.4021
4680	65.1235
4664	64.9112
4648	65.151
4632	64.6921
4616	64.4959
4600	65.0473
4584	65.1815
4568	64.7631
4552	64.2773
4536	64.9522
4520	65.1493
4504	65.4659
4488	68.6191
4472	65.5649
4456	63.9869
4440	56.9327
4424	61.0077
4408	66.1098
4392	64.8744
4376	65.3881
4360	65.5176
4344	65.6814
4328	65.1433
4312	65.6292
4296	65.1676
4280	65.0818
4264	64.9347
4248	65.0559
4232	65.0956
4216	65.0908
4200	65.2881
4184	64.7572
4168	65.1914
4152	65.0195
4136	64.9627
4120	64.9692
4104	65.2456
4088	65.029
4072	64.9381
4056	65.2905
4040	65.0824
4024	64.949
4008	64.662
3992	64.8854
3976	65.1489
3960	65.2957
3944	65.0869
3928	64.8491
3912	65.2315
3896	65.1158
3880	65.1791
3864	65.1343
3848	65.1971
3832	65.243
3816	64.9357
3800	65.2704
3784	65.0267
3768	64.9602
3752	65.396
3736	65.2071
3720	65.1736
3704	65.187
3688	65.2313
3672	65.4404
3656	65.1538
3640	65.1552
3624	65.2905
3608	65.3311
3592	65.1714
3576	65.2588
3560	64.9553
3544	65.1498
3528	64.9487
3512	65.141
3496	65.0773
3480	65.2259
3464	64.8993
3448	65.1695
3432	65.1827
3416	65.213
3400	65.0787
3384	65.1747
3368	65.1205
3352	65.0803
3336	65.1385
3320	65.2893
3304	65.0903
3288	65.0925
3272	65.016
3256	64.9729
3240	64.8805
3224	65.0548
3208	65.0704
3192	65.0239
3176	65.1263
3160	65.3292
3144	65.1235
3128	65.1213
3112	64.9915
3096	65.0702
3080	65.0742
3064	65.0746
3048	65.0697
3032	65.0688
3016	65.2148
3000	65.2465
2984	64.9624
2968	64.9738
2952	64.9542
2936	64.929
2920	64.9346
2904	64.8265
2888	64.9864
2872	64.9131
2856	64.8808
2840	65.0638
2824	64.9615
2808	64.9792
2792	64.9385
2776	64.9503
2760	65.0134
2744	65.0102
2728	65.0535
2712	65.0084
2696	65.0699
2680	64.9695
2664	64.9293
2648	64.8136
2632	64.9544
2616	64.9543
2600	64.9406
2584	65.0041
2568	65.0467
2552	65.0639
2536	64.9998
2520	65.0356
2504	65.1052
2488	65.0434
2472	65.0551
2456	65.0044
2440	65.0027
2424	65.1123
2408	65.0113
2392	64.9981
2376	64.9356
2360	64.942
2344	64.9162
2328	64.8605
2312	65.0463
2296	64.8776
2280	64.9076
2264	64.8855
2248	64.9545
2232	64.826
2216	64.8563
2200	64.8345
2184	64.829
2168	64.936
2152	64.7181
2136	64.8381
2120	64.8188
2104	64.7742
2088	64.7317
2072	64.8038
2056	64.7725
2040	64.8372
2024	64.82
2008	64.8611
1992	64.6586
1976	64.7984
1960	64.7294
1944	64.8617
1928	64.7285
1912	64.7519
1896	64.8531
1880	64.677
1864	64.7296
1848	64.8307
1832	64.75
1816	64.7891
1800	64.801
1784	64.7224
1768	64.745
1752	64.6902
1736	64.1569
1720	64.4057
1704	64.7386
1688	64.7059
1672	64.6817
1656	64.7207
1640	64.7203
1624	64.6389
1608	64.5188
1592	64.6386
1576	64.7889
1560	64.8635
1544	64.6627
1528	64.7032
1512	64.7138
1496	64.6572
1480	64.6339
1464	64.577
1448	64.3081
1432	64.3549
1416	64.4085
1400	64.293
1384	64.3332
1368	64.1368
1352	64.3578
1336	64.3308
1320	64.2378
1304	64.2771
1288	64.2995
1272	64.1383
1256	64.1978
1240	64.0948
1224	64.177
1208	64.206
1192	64.1722
1176	63.8894
1160	63.8846
1144	64.1349
1128	64.1777
1112	64.1363
1096	64.4108
1080	64.4316
1064	63.9429
1048	64.1281
1032	64.0369
1016	64.0516
1000	64.0602
984	 64.1186
968	 64.266
952	 64.1793
936	 64.0983
920	 64.1282
904	 64.1962
888	 64.0571
872	 64.0987
856	 64.1774
840	 64.1406
824	 63.8726
808	 63.8807
792	 64.138
776	 64.0095
760	 63.9348
744	 64.1253
728	 64.1288
712	 63.9508
696	 63.1659
680	 63.5575
664	 64.0705
648	 63.59
632	 63.7654
616	 63.4972
600	 63.4011
584	 63.6441
568	 64.189
552	 63.6743
536	 64.1456
520	 64.2034
504	 63.9186
488	 64.0276
472	 64.0633
456	 62.8176
440	 62.989
424	 62.1031
408	 63.4826
392	 57.4529
376	 69.9927
370	 61.4735