File: Bakgrunnsmateriale/MATLAB/FTIR/ftir_data/subAa/Mapping_121/BZ1503107-1_t53.asc
PE IR       SPECTRUM    SPECTRUM    ASCII       PEDS        1.60
  -1
BZ2553~1.ASC
17/04/07
17:36:00.00
17/04/07
17:36:26.00
tln
$BZ1503107-1_t0053$<tbV0>[-7.8,-2.6,8.0,0.0,27,1,0]
27.028
64

2002,4.07
MIRTGS : RIGHTBACK : INTERNAL 2
MIR : ON : INTERNAL 2
OPTKBR

0.200000
8
8.000000
FILLER
RATIO
SPECTRUM
UNLOCKED 256

DOUBLE
64
COMBINED
1
0
0

0.002000
RATIO

1
0
TRUE
51149
0
LEFT NOT FITTED RIGHT NOT FITTED 0
NONE
NONE
15600
12
4.427000
51148
TRUE
1 0 8 72 0 0 0 0

15798

#HDR
-1
-1
#GR
µM
%T
2.38419e-05
0.0
2.000000
0.002000
12515
8
81.6241
48.9519
#DATA
2.000000	 65.5801
2.084000	 64.6227
2.168000	 65.1544
2.252000	 53.0349
2.336000	 65.1349
2.420000	 64.6823
2.504000	 65.2233
2.588000	 65.0462
2.672000	 64.9419
2.756000	 65.1832
2.840000	 65.0475
2.924000	 65.0853
3.008000	 65.0083
3.092000	 64.8953
3.176000	 64.9777
3.260000	 65.0667
3.344000	 64.9856
3.428000	 65.0269
3.512000	 64.8846
3.596000	 64.8144
3.680000	 64.9881
3.764000	 64.9448
3.848000	 64.9109
3.932000	 65.023
4.016000	 64.9111
4.100000	 64.8694
4.184000	 64.8203
4.268000	 64.7508
4.352000	 64.7876
4.436000	 64.7702
4.520000	 64.7369
4.604000	 64.6268
4.688000	 64.748
4.772000	 64.8002
4.856000	 64.7748
4.940000	 64.5351
5.024000	 64.7664
5.108000	 64.5079
5.192000	 64.5894
5.276000	 64.5185
5.359999	 64.4416
5.444000	 64.5423
5.528000	 64.5117
5.612000	 64.5004
5.696000	 64.3866
5.780000	 64.1384
5.864000	 64.3279
5.948000	 64.3268
6.032000	 64.2413
6.116000	 64.3316
6.200000	 64.2866
6.284000	 64.2176
6.368000	 64.1139
6.452000	 64.2634
6.536000	 64.2451
6.620000	 64.1496
6.704000	 64.1987
6.788000	 64.1308
6.872000	 64.0557
6.956000	 64.0789
7.040000	 64.2434
7.124000	 64.1706
7.208000	 64.1075
7.292000	 64.1157
7.376000	 64.0727
7.460000	 64.0065
7.544000	 64.0623
7.628000	 63.903
7.712000	 63.9886
7.796000	 64.039
7.880000	 63.987
7.964000	 64.0031
8.048000	 63.9225
8.132000	 63.8577
8.216000	 63.9326
8.300000	 63.9497
8.384000	 63.8064
8.468000	 63.8079
8.552000	 63.737
8.635999	 63.6689
8.719999	 63.657
8.804000	 63.8262
8.888000	 63.8162
8.972000	 63.9118
9.056000	 63.9018
9.140000	 63.9279
9.224000	 63.6745
9.308000	 63.9459
9.391999	 63.7152
9.475999	 63.6963
9.560000	 63.9555
9.644000	 63.8281
9.728000	 63.6634
9.812000	 63.5472
9.896000	 63.6976
9.980000	 63.878
10.064	63.8412
10.148	63.8544
10.232	63.8877
10.316	63.8621
10.4	63.783
10.484	63.7067
10.568	63.7502
10.652	63.525
10.736	63.6739
10.82	63.8389
10.904	63.6885
10.988	63.7713
11.072	63.8068
11.156	63.6677
11.24	63.7371
11.324	63.9437
11.408	63.8352
11.492	63.7966
11.576	63.8252
11.66	63.92
11.744	63.9644
11.828	63.9517
11.912	63.934
11.996	63.9744
12.08	63.9107
12.164	63.8643
12.248	63.6912
12.332	63.5741
12.416	63.4906
12.5	63.4059
12.584	63.5954
12.668	63.7641
12.752	63.7078
12.836	63.6469
12.92	63.6257
13.004	63.6236
13.088	63.3476
13.172	63.2439
13.256	63.4715
13.34	63.666
13.424	63.8485
13.508	63.8015
13.592	63.5167
13.676	63.3908
13.76	63.4432
13.844	63.6162
13.928	63.6457
14.012	63.4508
14.096	63.2801
14.18	63.2688
14.264	63.2959
14.348	63.2461
14.432	63.3187
14.516	63.459
14.6	63.4766
14.684	63.6606
14.768	63.9201
14.852	63.7894
14.936	63.4126
15.02	63.1986
15.104	63.3442
15.188	63.7207
15.272	63.9607
15.356	63.9971
15.44	63.8365
15.524	63.4126
15.608	63.0472
15.692	62.9057
15.776	62.7988
15.86	62.8248
15.944	63.1369
16.028	63.6115
16.112	63.9008
16.196	63.5648
16.28	62.7995
16.364	62.4688
16.448	62.7756
16.532	62.9885
16.616	62.7848
16.7	62.6812
16.784	63.0569
16.868	63.6502
16.952	63.9854
17.036	63.8388
17.12	63.3871
17.204	63.0701
17.288	63.174
17.372	63.5179
17.456	63.7263
17.54	63.76
17.624	63.8927
17.708	64.2303
17.792	64.5451
17.876	64.5541
17.96	64.2387
18.044	63.8306
18.128	63.5434
18.212	63.3744
18.296	63.1829
18.38	62.9016
18.464	62.6301
18.548	62.5108
18.632	62.5756
18.716	62.7545
18.8	62.9972
18.884	63.328
18.968	63.7404
19.052	64.1112
19.136	64.2716
19.22	64.1388
19.304	63.7464
19.388	63.2311
19.472	62.801
19.556	62.6224
19.64	62.6775
19.724	62.7757
19.808	62.739
19.892	62.5733
19.976	62.4309
20.06	62.4338
20.144	62.5656
20.228	62.7241
20.312	62.8244
20.396	62.8438
20.48	62.8195
20.564	62.8176
20.648	62.8702
20.732	62.9444
20.816	62.9573
20.9	62.8512
20.984	62.665
21.068	62.5293
21.152	62.5715
21.236	62.82
21.32	63.187
21.404	63.5266
21.488	63.7197
21.572	63.7302
21.656	63.6246
21.74	63.5289
21.824	63.5333
21.908	63.6167
21.992	63.6719
22.076	63.6011
22.16	63.4117
22.244	63.2277
22.328	63.1926
22.412	63.3634
22.496	63.6523
22.58	63.8887
22.664	63.9267
22.748	63.7318
22.832	63.3812
22.916	62.9967
23	62.7046
23.084	62.5744
23.168	62.6178
23.252	62.8109
23.336	63.1161
23.42	63.492
23.504	63.9058
23.588	64.3113
23.672	64.6444
23.756	64.8455
23.84	64.8891
23.924	64.8139
24.008	64.7073
24.092	64.6549
24.176	64.6794
24.26	64.6761
24.344	64.4295
24.428	63.7374
24.512	62.5009
24.596	60.842
24.68	59.0963
24.764	57.7034
24.848	57.0317
24.932	57.2999
25.016	58.4744
25.1	60.2945
25.184	62.3636
25.268	64.2861
25.352	65.7511
25.436	66.6094
25.52	66.8917
25.604	66.7366
25.688	66.3621
25.772	66.0189
25.856	65.9392
25.94	66.2073
26.024	66.8207
26.108	67.7848
26.192	69.0685
26.276	70.6509
26.36	72.5736
26.444	74.8085
26.528	77.1864
26.612	79.3694
26.696	80.9508
26.78	81.6158
26.864	81.1921
26.948	79.6679
27.028	77.3476