File: Bakgrunnsmateriale/MATLAB/FTIR/ftir_data/subAa/Mapping_121/BZ1503107-1_t10_cm-1.asc
PE IR       SPECTRUM    SPECTRUM    ASCII       PEDS        1.60
  -1
BZ68A1~1.ASC
17/04/07
14:02:02.00
17/04/07
14:02:02.00
tln
$BZ1503107-1_t0010$<tbV0>[-10.4,-13.0,8.0,0.0,27,1,0]
370
64

2002,4.07
MIRTGS : RIGHTBACK : INTERNAL 2
MIR : ON : INTERNAL 2
OPTKBR

0.200000
8
8.000000
FILLER
RATIO
SPECTRUM
UNLOCKED 256

DOUBLE
64
COMBINED
1
0
0

1.000000
RATIO

1
0
TRUE
51149
0
LEFT NOT FITTED RIGHT NOT FITTED 0
NONE
NONE
15600
12
4.427000
51148
TRUE
1 0 8 72 0 0 0 0

15798

#HDR
-1
-1
#GR
CM-1
%T
2.38419e-05
0.0
5000
-1.000000
4631
8
78.6213
50.9288
#DATA
5000	65.6181
4984	63.9537
4968	64.9447
4952	64.1806
4936	64.1444
4920	64.5442
4904	64.8258
4888	64.9443
4872	64.9127
4856	65.3017
4840	65.0474
4824	64.7544
4808	64.6954
4792	65.1007
4776	64.9195
4760	65.4218
4744	64.8869
4728	64.518
4712	64.968
4696	64.6519
4680	65.2456
4664	64.8239
4648	64.9826
4632	64.7676
4616	64.7921
4600	64.7182
4584	65.1082
4568	64.7593
4552	64.5513
4536	64.6106
4520	64.3378
4504	64.7816
4488	68.4481
4472	65.3306
4456	59.6233
4440	71.3888
4424	65.1405
4408	65.2689
4392	65.0132
4376	65.2025
4360	65.3793
4344	64.8999
4328	65.2935
4312	64.9625
4296	64.8472
4280	65.028
4264	64.7205
4248	65.0071
4232	64.9917
4216	64.8727
4200	65.123
4184	64.6634
4168	64.9467
4152	64.9142
4136	65.2477
4120	65.0448
4104	65.4808
4088	65.1874
4072	65.229
4056	65.3337
4040	65.081
4024	65.0299
4008	64.8975
3992	64.8385
3976	65.0041
3960	65.1768
3944	65.2797
3928	64.9911
3912	65.2298
3896	65.0102
3880	65.1441
3864	64.9765
3848	65.3471
3832	65.4352
3816	65.3549
3800	65.2406
3784	64.9528
3768	65.0704
3752	65.4216
3736	65.2553
3720	65.1913
3704	65.1214
3688	65.3728
3672	65.4068
3656	65.3732
3640	65.2095
3624	65.313
3608	65.3275
3592	65.0882
3576	65.1894
3560	65.1552
3544	65.3512
3528	64.9122
3512	65.0789
3496	65.1851
3480	65.1153
3464	65.0479
3448	65.119
3432	65.1947
3416	65.1586
3400	65.0292
3384	65.1048
3368	65.1988
3352	64.9695
3336	65.254
3320	65.1683
3304	65.1106
3288	65.2261
3272	65.0732
3256	65.1277
3240	64.9644
3224	65.0936
3208	65.2508
3192	65.1352
3176	65.102
3160	65.1269
3144	65.1302
3128	65.0335
3112	64.9352
3096	65.1801
3080	64.9979
3064	65.1055
3048	65.1417
3032	65.1751
3016	65.2859
3000	65.1266
2984	65.0162
2968	65.0682
2952	65.0377
2936	65.0059
2920	65.1621
2904	65.1099
2888	65.1128
2872	65.1387
2856	65.2146
2840	65.1314
2824	65.0897
2808	65.0533
2792	65.135
2776	65.1421
2760	65.106
2744	65.0341
2728	65.2588
2712	65.1008
2696	65.2177
2680	65.1349
2664	65.0673
2648	65.0231
2632	65.1132
2616	64.9844
2600	64.9569
2584	65.0546
2568	65.0141
2552	65.0062
2536	65.0838
2520	65.1217
2504	65.0659
2488	65.062
2472	65.0767
2456	65.0068
2440	64.9626
2424	64.9597
2408	65.1435
2392	64.9577
2376	65.0962
2360	65.1507
2344	65.0961
2328	64.9866
2312	65.0218
2296	64.9167
2280	65.0169
2264	65.032
2248	65.0931
2232	64.882
2216	64.9448
2200	64.9465
2184	64.8797
2168	65.0224
2152	64.7559
2136	64.8404
2120	64.9287
2104	64.8606
2088	64.9203
2072	64.856
2056	64.8323
2040	64.847
2024	64.9765
2008	64.9172
1992	64.8186
1976	64.8155
1960	64.9231
1944	64.8803
1928	64.8873
1912	64.9731
1896	64.8761
1880	64.8149
1864	64.8012
1848	64.8946
1832	64.7938
1816	64.806
1800	64.7994
1784	64.7813
1768	64.8022
1752	64.7174
1736	64.6109
1720	64.6805
1704	64.8664
1688	64.7295
1672	64.7835
1656	64.8195
1640	64.7444
1624	64.6954
1608	64.6664
1592	64.6891
1576	64.6282
1560	64.7765
1544	64.6959
1528	64.6083
1512	64.6786
1496	64.7181
1480	64.6662
1464	64.4607
1448	64.6621
1432	64.6558
1416	64.744
1400	64.5403
1384	64.4378
1368	64.5741
1352	64.4891
1336	64.5204
1320	64.4754
1304	64.4686
1288	64.4503
1272	64.3556
1256	64.404
1240	64.3767
1224	64.33
1208	64.4651
1192	64.3691
1176	64.1286
1160	64.3548
1144	64.2795
1128	64.4975
1112	64.2759
1096	64.4488
1080	64.5864
1064	64.1579
1048	64.2286
1032	64.1691
1016	64.3507
1000	64.2465
984	 64.1526
968	 64.3282
952	 64.4425
936	 64.358
920	 64.2308
904	 64.3042
888	 64.3771
872	 64.2515
856	 64.2015
840	 64.3817
824	 64.108
808	 64.0965
792	 64.0657
776	 64.3213
760	 64.0464
744	 63.8171
728	 64.1034
712	 64.1164
696	 63.9447
680	 63.8517
664	 64.2932
648	 64.2443
632	 64.0117
616	 64.0426
600	 64.9191
584	 64.2333
568	 64.1793
552	 63.3976
536	 63.8455
520	 64.4172
504	 62.3272
488	 62.3103
472	 63.6493
456	 63.9448
440	 64.9402
424	 63.2988
408	 61.9361
392	 65.0584
376	 78.6213
370	 61.6596