File: Bakgrunnsmateriale/MATLAB/FTIR/ftir_data/subAa/Mapping_121/BZ1503107-1_t51_cm-1.asc
PE IR       SPECTRUM    SPECTRUM    ASCII       PEDS        1.60
  -1
BZ69A3~1.ASC
17/04/07
17:26:46.00
17/04/07
17:26:46.00
tln
$BZ1503107-1_t0051$<tbV0>[-2.6,-2.6,8.0,0.0,27,1,0]
370
64

2002,4.07
MIRTGS : RIGHTBACK : INTERNAL 2
MIR : ON : INTERNAL 2
OPTKBR

0.200000
8
8.000000
FILLER
RATIO
SPECTRUM
UNLOCKED 256

DOUBLE
64
COMBINED
1
0
0

1.000000
RATIO

1
0
TRUE
51149
0
LEFT NOT FITTED RIGHT NOT FITTED 0
NONE
NONE
15600
12
4.427000
51148
TRUE
1 0 8 72 0 0 0 0

15798

#HDR
-1
-1
#GR
CM-1
%T
2.38419e-05
0.0
5000
-1.000000
4631
8
70.283
39.9332
#DATA
5000	64.8716
4984	66.1298
4968	65.2268
4952	65.1172
4936	64.6767
4920	64.8389
4904	64.6233
4888	64.6012
4872	64.8373
4856	64.6657
4840	64.6205
4824	64.5539
4808	64.2619
4792	64.6256
4776	65.0171
4760	64.9742
4744	64.7073
4728	64.6534
4712	64.2098
4696	64.452
4680	65.0717
4664	64.298
4648	65.0946
4632	65.0894
4616	64.7247
4600	65.1591
4584	65.1625
4568	65.1843
4552	65.429
4536	65.518
4520	65.3689
4504	65.4503
4488	65.8574
4472	65.1865
4456	65.7407
4440	69.8941
4424	51.394
4408	66.2077
4392	66.1859
4376	65.5217
4360	66.0071
4344	65.1964
4328	65.7305
4312	64.932
4296	65.4719
4280	65.3835
4264	65.1779
4248	65.0877
4232	65.0702
4216	64.9189
4200	64.9903
4184	65.1133
4168	64.9169
4152	64.5997
4136	64.6016
4120	65.0748
4104	64.7668
4088	64.6999
4072	64.8614
4056	64.9355
4040	64.9539
4024	64.995
4008	64.8299
3992	65.0645
3976	65.2691
3960	65.2083
3944	65.0888
3928	64.9969
3912	65.1452
3896	65.0168
3880	65.1821
3864	65.059
3848	64.9624
3832	65.0866
3816	65.0972
3800	64.8732
3784	65.1744
3768	64.7502
3752	65.1309
3736	65.0245
3720	65.0218
3704	65.1458
3688	65.1491
3672	64.8542
3656	65.1456
3640	65.208
3624	65.0265
3608	65.1407
3592	65.0571
3576	64.967
3560	65.1977
3544	65.2091
3528	65.0342
3512	65.1192
3496	65.2226
3480	65.2339
3464	65.0324
3448	65.1215
3432	65.0063
3416	65.102
3400	65.0601
3384	64.9285
3368	65.1607
3352	64.8801
3336	65.0059
3320	65.0009
3304	65.1052
3288	64.9399
3272	64.9828
3256	65.1184
3240	64.8276
3224	65.0104
3208	64.8808
3192	65.0795
3176	65.0087
3160	65.1336
3144	65.0526
3128	65.0845
3112	65.0803
3096	64.9669
3080	65.0476
3064	65.0088
3048	64.9502
3032	65.1182
3016	65.0486
3000	64.9604
2984	64.9538
2968	64.7886
2952	65.0522
2936	64.7499
2920	64.9153
2904	64.9164
2888	64.8691
2872	64.818
2856	64.8747
2840	64.8574
2824	64.8682
2808	64.9921
2792	64.933
2776	64.9732
2760	64.8696
2744	64.8977
2728	64.8771
2712	64.9935
2696	64.9285
2680	64.9539
2664	64.9111
2648	64.9678
2632	64.8758
2616	65.0014
2600	64.9272
2584	64.955
2568	64.794
2552	64.8426
2536	64.8107
2520	64.9803
2504	64.8994
2488	64.8479
2472	64.8401
2456	64.865
2440	64.8336
2424	64.8103
2408	64.8765
2392	64.827
2376	64.7776
2360	64.7681
2344	64.7784
2328	64.7003
2312	64.7951
2296	64.7899
2280	64.7218
2264	64.8972
2248	64.7194
2232	64.8425
2216	64.7175
2200	64.7784
2184	64.6471
2168	64.5923
2152	64.5454
2136	64.6338
2120	64.7677
2104	64.7475
2088	64.6408
2072	64.6118
2056	64.7269
2040	64.6719
2024	64.649
2008	64.6117
1992	64.6683
1976	64.6971
1960	64.536
1944	64.5951
1928	64.4632
1912	64.531
1896	64.458
1880	64.5641
1864	64.5319
1848	64.5913
1832	64.5147
1816	64.5066
1800	64.4901
1784	64.4649
1768	64.4114
1752	64.3904
1736	64.132
1720	64.2562
1704	64.2451
1688	64.3406
1672	64.4024
1656	64.263
1640	64.2087
1624	64.2604
1608	64.2206
1592	64.1668
1576	64.1421
1560	64.2709
1544	64.1188
1528	64.2087
1512	64.1136
1496	64.0558
1480	64.1504
1464	64.1496
1448	63.9445
1432	64.0871
1416	64.1205
1400	64.1005
1384	64.0362
1368	64.1121
1352	63.9907
1336	63.9218
1320	64.0651
1304	64.0568
1288	64.0698
1272	64.0766
1256	63.9394
1240	63.8983
1224	63.9475
1208	63.9449
1192	63.8014
1176	63.8703
1160	63.6394
1144	63.6745
1128	63.7571
1112	63.7495
1096	64.0211
1080	63.6682
1064	63.8457
1048	63.6023
1032	63.6106
1016	63.5937
1000	64.0114
984	 63.9204
968	 63.7678
952	 63.5081
936	 63.6471
920	 63.656
904	 63.8431
888	 63.8425
872	 63.7389
856	 63.7919
840	 63.7566
824	 63.7338
808	 63.5911
792	 63.5519
776	 63.8801
760	 63.5611
744	 63.6674
728	 63.5837
712	 63.182
696	 63.0269
680	 63.4564
664	 63.1396
648	 64.2915
632	 63.7577
616	 63.2803
600	 63.6294
584	 63.3512
568	 61.9456
552	 63.3731
536	 61.933
520	 64.1519
504	 63.1785
488	 63.1761
472	 63.643
456	 62.3207
440	 63.0774
424	 65.1047
408	 61.9721
392	 59.0388
376	 39.9332
370	 52.6925