File: Bakgrunnsmateriale/MATLAB/FTIR/ftir_data/subAa/Mapping_121/BZ1503107-1_t21_cm-1.asc
PE IR       SPECTRUM    SPECTRUM    ASCII       PEDS        1.60
  -1
BZ6923~1.ASC
17/04/07
14:53:27.00
17/04/07
14:53:27.00
tln
$BZ1503107-1_t0021$<tbV0>[-10.4,-10.4,8.0,0.0,27,1,0]
370
64

2002,4.07
MIRTGS : RIGHTBACK : INTERNAL 2
MIR : ON : INTERNAL 2
OPTKBR

0.200000
8
8.000000
FILLER
RATIO
SPECTRUM
UNLOCKED 256

DOUBLE
64
COMBINED
1
0
0

1.000000
RATIO

1
0
TRUE
51149
0
LEFT NOT FITTED RIGHT NOT FITTED 0
NONE
NONE
15600
12
4.427000
51148
TRUE
1 0 8 72 0 0 0 0

15798

#HDR
-1
-1
#GR
CM-1
%T
2.38419e-05
0.0
5000
-1.000000
4631
8
73.0158
23.7562
#DATA
5000	64.9513
4984	64.8345
4968	64.7629
4952	65.1458
4936	64.914
4920	64.8328
4904	65.1526
4888	64.8252
4872	64.5571
4856	65.1146
4840	65.1263
4824	65.3788
4808	65.1137
4792	65.5842
4776	64.8963
4760	65.207
4744	64.9536
4728	64.7956
4712	64.5481
4696	64.699
4680	65.0866
4664	64.7443
4648	64.9899
4632	64.6441
4616	64.6172
4600	64.9165
4584	64.8306
4568	64.643
4552	64.6663
4536	64.8402
4520	64.2824
4504	65.2905
4488	68.0113
4472	64.8232
4456	62.6917
4440	59.1649
4424	73.0158
4408	65.5327
4392	64.3569
4376	64.6397
4360	64.9013
4344	64.6427
4328	64.7249
4312	64.8954
4296	64.4083
4280	64.9922
4264	64.821
4248	64.8817
4232	64.958
4216	65.0653
4200	65.1253
4184	65.3087
4168	64.9529
4152	64.8089
4136	65.0736
4120	65.1861
4104	65.3763
4088	65.3553
4072	65.1238
4056	65.0979
4040	64.9364
4024	64.9912
4008	65.1125
3992	64.9988
3976	65.3793
3960	65.0974
3944	65.2607
3928	65.3447
3912	64.951
3896	65.0415
3880	65.1267
3864	64.847
3848	65.1443
3832	64.9868
3816	65.265
3800	65.1386
3784	64.8623
3768	65.0954
3752	65.6055
3736	65.2577
3720	65.1608
3704	65.1463
3688	65.2143
3672	65.3836
3656	65.1157
3640	65.4673
3624	65.315
3608	65.2252
3592	65.1115
3576	65.2947
3560	64.9271
3544	65.2719
3528	65.0683
3512	65.1607
3496	65.2613
3480	65.2259
3464	65.0858
3448	65.0258
3432	65.2463
3416	65.3342
3400	65.0925
3384	65.0082
3368	65.232
3352	65.0583
3336	65.1659
3320	65.2397
3304	65.0941
3288	65.1702
3272	65.0503
3256	65.012
3240	64.9617
3224	65.1434
3208	65.1845
3192	65.1503
3176	65.1972
3160	65.4258
3144	65.2609
3128	65.1856
3112	65.1729
3096	65.3739
3080	65.1489
3064	65.1593
3048	65.0953
3032	65.1718
3016	65.2559
3000	65.2797
2984	65.1059
2968	65.1056
2952	64.9135
2936	64.9702
2920	64.9707
2904	64.9441
2888	65.0743
2872	65.12
2856	65.066
2840	65.0508
2824	64.9964
2808	65.0543
2792	65.0712
2776	65.0672
2760	65.0572
2744	65.0681
2728	65.0118
2712	65.0133
2696	65.1583
2680	64.9995
2664	64.9708
2648	64.9951
2632	65.0666
2616	65.0476
2600	65.0012
2584	65.1453
2568	65.0856
2552	65.0331
2536	65.2764
2520	65.1746
2504	65.1327
2488	64.9542
2472	65.0503
2456	65.0088
2440	64.9544
2424	64.9943
2408	64.9422
2392	65.0891
2376	65.0305
2360	65.1097
2344	64.9746
2328	64.9708
2312	65.0057
2296	64.9333
2280	64.9662
2264	64.9191
2248	65.0002
2232	64.842
2216	64.9507
2200	64.9682
2184	64.8419
2168	64.97
2152	64.8598
2136	64.8002
2120	64.8772
2104	64.7938
2088	64.8722
2072	64.8957
2056	64.8145
2040	64.9031
2024	64.8611
2008	64.8909
1992	64.8883
1976	64.898
1960	64.8133
1944	64.8029
1928	64.7576
1912	64.9484
1896	64.8185
1880	64.7946
1864	64.8115
1848	64.8148
1832	64.7708
1816	64.8197
1800	64.7654
1784	64.7795
1768	64.8397
1752	64.6751
1736	64.551
1720	64.6576
1704	64.7524
1688	64.6966
1672	64.7418
1656	64.8194
1640	64.6381
1624	64.7345
1608	64.5251
1592	64.6917
1576	64.9157
1560	64.8289
1544	64.7839
1528	64.657
1512	64.7956
1496	64.5759
1480	64.5557
1464	64.5897
1448	64.6478
1432	64.6524
1416	64.5465
1400	64.4639
1384	64.3993
1368	64.3629
1352	64.5104
1336	64.4146
1320	64.414
1304	64.2137
1288	64.447
1272	64.2378
1256	64.3067
1240	64.1801
1224	64.3443
1208	64.1726
1192	64.3474
1176	64.0255
1160	64.2023
1144	64.1504
1128	64.3208
1112	64.1825
1096	64.1459
1080	64.3708
1064	64.1583
1048	64.0152
1032	64.0923
1016	64.0898
1000	64.2589
984	 64.3213
968	 64.0676
952	 64.2993
936	 64.3494
920	 64.2005
904	 64.162
888	 64.136
872	 64.3487
856	 64.2094
840	 64.2734
824	 64.1502
808	 64.0366
792	 64.0247
776	 63.9165
760	 64.082
744	 63.7314
728	 63.9914
712	 64.0042
696	 64.0606
680	 64.112
664	 63.7666
648	 63.6133
632	 64.1751
616	 64.2072
600	 63.9937
584	 63.7707
568	 63.3977
552	 64.1641
536	 63.3984
520	 64.1078
504	 63.819
488	 64.7137
472	 64.9575
456	 64.5063
440	 62.495
424	 62.2712
408	 66.1686
392	 65.8593
376	 61.5308
370	 32.7042