File: Bakgrunnsmateriale/MATLAB/FTIR/ftir_data/subAa/Mapping_121/BZ1503107-1_e127_cm-1.asc
PE IR       SPECTRUM    SPECTRUM    ASCII       PEDS        1.60
  -1
BZ09FC~1.ASC
17/04/07
22:19:52.00
17/04/07
22:19:52.00
tln
$BZ1503107-1_e0127$<ebV0>[-23.3,12.1,10.0,0.0,27,1,0]
370
64

2002,4.07
MIRTGS : RIGHTBACK : INTERNAL 2
MIR : ON : INTERNAL 2
OPTKBR

0.200000
8
8.000000
FILLER
SINGLE
SPECTRUM
UNLOCKED 256

DOUBLE

COMBINED
1
0
0

1.000000
BACKG

1
0
TRUE
51149
0
LEFT NOT FITTED RIGHT NOT FITTED 0
NONE
NONE
15600
12
4.427000
51148
TRUE
1 0 8 72 0 0 0 0

15798

#HDR
-1
-1
#GR
CM-1
EGY
2.38419e-05
0.0
5000
-1.000000
4631
8
2.465510
0.008058
#DATA
5000	0.772833
4984	0.776124
4968	0.793600
4952	0.792026
4936	0.801372
4920	0.808143
4904	0.810933
4888	0.821590
4872	0.830769
4856	0.836944
4840	0.848484
4824	0.862097
4808	0.873947
4792	0.884032
4776	0.894927
4760	0.900101
4744	0.907182
4728	0.910067
4712	0.915932
4696	0.919318
4680	0.921964
4664	0.920391
4648	0.922989
4632	0.929093
4616	0.934696
4600	0.944924
4584	0.955510
4568	0.965118
4552	0.978255
4536	0.988698
4520	0.995588
4504	1.004981
4488	1.012396
4472	1.006674
4456	0.988650
4440	1.033306
4424	1.076865
4408	1.023602
4392	1.035881
4376	1.039004
4360	1.053643
4344	1.073670
4328	1.088428
4312	1.110124
4296	1.130652
4280	1.146650
4264	1.163911
4248	1.177620
4232	1.187968
4216	1.196312
4200	1.203083
4184	1.213288
4168	1.219964
4152	1.230144
4136	1.242494
4120	1.256346
4104	1.271533
4088	1.291990
4072	1.311564
4056	1.334333
4040	1.360321
4024	1.378154
4008	1.392674
3992	1.407241
3976	1.418852
3960	1.424026
3944	1.426100
3928	1.434183
3912	1.438975
3896	1.442480
3880	1.448059
3864	1.459097
3848	1.472878
3832	1.489305
3816	1.508259
3800	1.523184
3784	1.552557
3768	1.561379
3752	1.559472
3736	1.570510
3720	1.583528
3704	1.587080
3688	1.579189
3672	1.574611
3656	1.583409
3640	1.590108
3624	1.587796
3608	1.595664
3592	1.607561
3576	1.619505
3560	1.626515
3544	1.634311
3528	1.638436
3512	1.639628
3496	1.633882
3480	1.625537
3464	1.617383
3448	1.605391
3432	1.593613
3416	1.595759
3400	1.606774
3384	1.618790
3368	1.629519
3352	1.655793
3336	1.681280
3320	1.704072
3304	1.729202
3288	1.748967
3272	1.767373
3256	1.780366
3240	1.791715
3224	1.799631
3208	1.799559
3192	1.802587
3176	1.806759
3160	1.813435
3144	1.828479
3128	1.846194
3112	1.865959
3096	1.896214
3080	1.926279
3064	1.948952
3048	1.977372
3032	1.986122
3016	1.976537
3000	2.033972
2984	2.037072
2968	1.969408
2952	1.928567
2936	1.823234
2920	1.811623
2904	1.958537
2888	2.003836
2872	1.995062
2856	1.935982
2840	2.079343
2824	2.141833
2808	2.178120
2792	2.207398
2776	2.236294
2760	2.255582
2744	2.266049
2728	2.265882
2712	2.260565
2696	2.254271
2680	2.245473
2664	2.233481
2648	2.227926
2632	2.228283
2616	2.230310
2600	2.235031
2584	2.249670
2568	2.273488
2552	2.294921
2536	2.312922
2520	2.326083
2504	2.334666
2488	2.335357
2472	2.326226
2456	2.312040
2440	2.295684
2424	2.282691
2408	2.268838
2392	2.256822
2376	2.250361
2360	2.245688
2344	2.271032
2328	2.291870
2312	2.328133
2296	2.351784
2280	2.369880
2264	2.382946
2248	2.388858
2232	2.388596
2216	2.376151
2200	2.364277
2184	2.352523
2168	2.343702
2152	2.340269
2136	2.338957
2120	2.342081
2104	2.346348
2088	2.345442
2072	2.364730
2056	2.398896
2040	2.431416
2024	2.451658
2008	2.462005
1992	2.465438
1976	2.453303
1960	2.440023
1944	2.425861
1928	2.409505
1912	2.393531
1896	2.379155
1880	2.380537
1864	2.389287
1848	2.399897
1832	2.413821
1816	2.431011
1800	2.434968
1784	2.433753
1768	2.419400
1752	2.391839
1736	2.331852
1720	2.313280
1704	2.278661
1688	2.253532
1672	2.229166
1656	2.184414
1640	2.158641
1624	2.111887
1608	1.979446
1592	2.020072
1576	1.988959
1560	1.936364
1544	1.962494
1528	2.112174
1512	2.093219
1496	1.704335
1480	1.963639
1464	1.939463
1448	1.785373
1432	1.872634
1416	1.843309
1400	1.733446
1384	1.788377
1368	1.819109
1352	1.816344
1336	1.828026
1320	1.853346
1304	1.856637
1288	1.856327
1272	1.807022
1256	1.761341
1240	1.835894
1224	1.814126
1208	1.747393
1192	1.740598
1176	1.699709
1160	1.629304
1144	1.600027
1128	1.540541
1112	1.460051
1096	1.425552
1080	1.428318
1064	1.436233
1048	1.307249
1032	1.380348
1016	1.368451
1000	1.400876
984	 1.383376
968	 1.344704
952	 1.288223
936	 1.253318
920	 1.215004
904	 1.161003
888	 1.120448
872	 1.038050
856	 1.092481
840	 1.061773
824	 0.845551
808	 0.947761
792	 0.958728
776	 0.979709
760	 0.965118
744	 0.942873
728	 0.902175
712	 0.857019
696	 0.791597
680	 0.734233
664	 0.707435
648	 0.666427
632	 0.622820
616	 0.578093
600	 0.524377
584	 0.511980
568	 0.496149
552	 0.466918
536	 0.433063
520	 0.402045
504	 0.361943
488	 0.303816
472	 0.251650
456	 0.197291
440	 0.151395
424	 0.099086
408	 0.055861
392	 0.026583
376	 0.011467
370	 0.008058