File: Bakgrunnsmateriale/MATLAB/FTIR/ftir_data/subAa/Mapping_121/BZ1503107-1_t95_cm-1.asc
PE IR       SPECTRUM    SPECTRUM    ASCII       PEDS        1.60
  -1
BZ6DA5~1.ASC
17/04/07
21:04:28.00
17/04/07
21:04:28.00
tln
$BZ1503107-1_t0095$<tbV0>[-2.6,7.8,8.0,0.0,27,1,0]
370
64

2002,4.07
MIRTGS : RIGHTBACK : INTERNAL 2
MIR : ON : INTERNAL 2
OPTKBR

0.200000
8
8.000000
FILLER
RATIO
SPECTRUM
UNLOCKED 256

DOUBLE
64
COMBINED
1
0
0

1.000000
RATIO

1
0
TRUE
51149
0
LEFT NOT FITTED RIGHT NOT FITTED 0
NONE
NONE
15600
12
4.427000
51148
TRUE
1 0 8 72 0 0 0 0

15798

#HDR
-1
-1
#GR
CM-1
%T
2.38419e-05
0.0
5000
-1.000000
4631
8
73.8072
50.32
#DATA
5000	63.7491
4984	64.8184
4968	65.2979
4952	67.7059
4936	66.0257
4920	64.0949
4904	65.4723
4888	64.9669
4872	65.0022
4856	65.0723
4840	65.0228
4824	64.5956
4808	64.7989
4792	65.1796
4776	65.0298
4760	64.6626
4744	65.1561
4728	65.0056
4712	64.7366
4696	65.1315
4680	65.0383
4664	65.2302
4648	65.0769
4632	65.0458
4616	64.9564
4600	64.7858
4584	65.024
4568	64.9234
4552	64.9316
4536	65.0565
4520	64.7864
4504	65.0959
4488	64.2218
4472	64.7807
4456	65.4768
4440	64.1659
4424	65.9792
4408	65.396
4392	65.0824
4376	64.4995
4360	65.1145
4344	65.2126
4328	65.0062
4312	64.9704
4296	64.791
4280	64.9494
4264	64.6122
4248	65.3192
4232	64.9477
4216	64.8713
4200	64.8018
4184	64.8624
4168	65.093
4152	64.8063
4136	65.0218
4120	64.91
4104	64.9548
4088	65.0586
4072	65.1516
4056	65.121
4040	65.1766
4024	65.1133
4008	65.0218
3992	64.9581
3976	64.9735
3960	65.0715
3944	64.7626
3928	65.1745
3912	64.7886
3896	64.972
3880	65.1086
3864	65.1438
3848	65.1551
3832	64.9858
3816	64.9916
3800	65.0255
3784	64.9039
3768	64.9375
3752	65.1405
3736	65.0653
3720	65.1457
3704	65.1177
3688	65.0658
3672	65.0284
3656	64.8879
3640	65.1315
3624	65.0685
3608	65.0473
3592	65.1596
3576	65.1187
3560	65.1446
3544	64.9819
3528	65.0943
3512	65.0819
3496	64.9651
3480	65.1128
3464	65.0643
3448	65.0573
3432	64.9851
3416	65.1057
3400	64.8799
3384	64.9095
3368	64.8997
3352	64.9561
3336	65.0835
3320	64.9875
3304	64.9017
3288	64.9884
3272	64.9338
3256	64.9954
3240	65.0046
3224	64.7881
3208	64.8199
3192	64.9575
3176	65.0212
3160	64.8093
3144	64.8734
3128	64.7135
3112	64.8741
3096	64.8593
3080	64.7699
3064	65.0318
3048	64.9541
3032	65.0496
3016	64.9266
3000	64.8628
2984	64.6939
2968	64.6788
2952	64.5444
2936	64.7336
2920	64.6631
2904	64.7712
2888	64.6579
2872	64.7523
2856	64.6096
2840	64.7998
2824	64.829
2808	64.7389
2792	64.8024
2776	64.8138
2760	64.7807
2744	64.7512
2728	64.9562
2712	64.8076
2696	64.7379
2680	64.7816
2664	64.6472
2648	64.6778
2632	64.6919
2616	64.6843
2600	64.6825
2584	64.5478
2568	64.7151
2552	64.6481
2536	64.5986
2520	64.6188
2504	64.5342
2488	64.6761
2472	64.7208
2456	64.7031
2440	64.4896
2424	64.6906
2408	64.4175
2392	64.5725
2376	64.6082
2360	64.4919
2344	64.4977
2328	64.5607
2312	64.4778
2296	64.5641
2280	64.4869
2264	64.4611
2248	64.457
2232	64.5848
2216	64.4365
2200	64.3615
2184	64.3364
2168	64.3902
2152	64.2627
2136	64.3376
2120	64.3428
2104	64.2886
2088	64.2223
2072	64.2267
2056	64.3703
2040	64.2767
2024	64.2447
2008	64.1901
1992	64.3397
1976	64.213
1960	64.2275
1944	64.0526
1928	64.0307
1912	64.1085
1896	64.0922
1880	64.0112
1864	63.9946
1848	64.0377
1832	64.0778
1816	64.1564
1800	64.054
1784	63.9376
1768	63.9386
1752	63.7728
1736	63.4386
1720	63.7533
1704	63.7423
1688	63.8337
1672	63.7095
1656	63.7983
1640	63.786
1624	63.7503
1608	63.7338
1592	63.8398
1576	63.6097
1560	63.5992
1544	63.6724
1528	63.7394
1512	63.6236
1496	63.7098
1480	63.5872
1464	63.4661
1448	63.4345
1432	63.5272
1416	63.4373
1400	63.4563
1384	63.4978
1368	63.4095
1352	63.3907
1336	63.3537
1320	63.5459
1304	63.3711
1288	63.2236
1272	63.1223
1256	63.1046
1240	63.2376
1224	63.243
1208	63.0939
1192	63.1632
1176	63.0136
1160	62.9306
1144	63.1491
1128	63.0236
1112	62.9956
1096	63.0365
1080	62.8949
1064	63.0386
1048	62.9508
1032	62.9899
1016	63.0481
1000	62.9466
984	 63.0271
968	 62.9684
952	 63.1377
936	 63.0135
920	 63.0879
904	 62.7362
888	 62.7732
872	 62.9347
856	 62.7376
840	 62.7042
824	 62.7904
808	 63.0174
792	 62.7574
776	 62.5693
760	 62.6278
744	 62.6537
728	 62.6992
712	 62.5169
696	 62.4499
680	 62.3369
664	 62.2184
648	 62.0994
632	 62.3826
616	 62.0152
600	 62.1943
584	 61.9529
568	 62.274
552	 62.2239
536	 61.7415
520	 62.4613
504	 61.3482
488	 61.7213
472	 62.5842
456	 62.5502
440	 62.4393
424	 61.1083
408	 56.3959
392	 66.2809
376	 50.32
370	 72.5197