File: Bakgrunnsmateriale/MATLAB/FTIR/ftir_data/subAa/Mapping_121/BZ1503107-1_t18.asc
PE IR       SPECTRUM    SPECTRUM    ASCII       PEDS        1.60
  -1
BZ296B~1.ASC
17/04/07
14:39:36.00
17/04/07
14:40:02.00
tln
$BZ1503107-1_t0018$<tbV0>[-2.6,-10.4,8.0,0.0,27,1,0]
27.028
64

2002,4.07
MIRTGS : RIGHTBACK : INTERNAL 2
MIR : ON : INTERNAL 2
OPTKBR

0.200000
8
8.000000
FILLER
RATIO
SPECTRUM
UNLOCKED 256

DOUBLE
64
COMBINED
1
0
0

0.002000
RATIO

1
0
TRUE
51149
0
LEFT NOT FITTED RIGHT NOT FITTED 0
NONE
NONE
15600
12
4.427000
51148
TRUE
1 0 8 72 0 0 0 0

15798

#HDR
-1
-1
#GR
µM
%T
2.38419e-05
0.0
2.000000
0.002000
12515
8
70.5214
47.9483
#DATA
2.000000	 66.1167
2.084000	 65.982
2.168000	 64.5614
2.252000	 57.5919
2.336000	 65.0957
2.420000	 64.9516
2.504000	 64.8678
2.588000	 65.1347
2.672000	 65.2522
2.756000	 65.2876
2.840000	 65.0785
2.924000	 65.2404
3.008000	 65.3541
3.092000	 65.0076
3.176000	 65.1818
3.260000	 65.1587
3.344000	 64.9866
3.428000	 64.9521
3.512000	 65.0372
3.596000	 64.9498
3.680000	 65.0028
3.764000	 64.9253
3.848000	 64.9601
3.932000	 64.9113
4.016000	 64.9797
4.100000	 65.0108
4.184000	 65.0054
4.268000	 64.9027
4.352000	 64.8662
4.436000	 64.8832
4.520000	 64.8208
4.604000	 64.8874
4.688000	 64.844
4.772000	 64.76
4.856000	 64.8361
4.940000	 64.8173
5.024000	 64.6463
5.108000	 64.7565
5.192000	 64.7304
5.276000	 64.8538
5.359999	 64.7676
5.444000	 64.7153
5.528000	 64.7668
5.612000	 64.7123
5.696000	 64.7399
5.780000	 64.1489
5.864000	 64.6693
5.948000	 64.6975
6.032000	 64.6947
6.116000	 64.7664
6.200000	 64.5746
6.284000	 64.6443
6.368000	 64.6663
6.452000	 64.6533
6.536000	 64.6688
6.620000	 64.7512
6.704000	 64.6241
6.788000	 64.8037
6.872000	 64.4092
6.956000	 64.4647
7.040000	 64.3993
7.124000	 64.2383
7.208000	 64.3293
7.292000	 64.123
7.376000	 64.3671
7.460000	 64.3787
7.544000	 64.3021
7.628000	 64.2348
7.712000	 64.1866
7.796000	 64.2726
7.880000	 64.076
7.964000	 64.1998
8.048000	 64.0747
8.132000	 64.0362
8.216000	 64.1806
8.300000	 64.2423
8.384000	 64.1775
8.468000	 63.9504
8.552000	 63.8793
8.635999	 63.9149
8.719999	 64.1206
8.804000	 64.1422
8.888000	 64.2048
8.972000	 64.1494
9.056000	 64.0797
9.140000	 64.4701
9.224000	 64.3479
9.308000	 64.4428
9.391999	 63.9545
9.475999	 64.0761
9.560000	 64.0485
9.644000	 63.9556
9.728000	 64.0548
9.812000	 64.0773
9.896000	 64.0861
9.980000	 64.0935
10.064	64.1075
10.148	64.124
10.232	64.1062
10.316	64.2455
10.4	64.2927
10.484	64.1678
10.568	64.2048
10.652	64.0901
10.736	64.0802
10.82	64.0954
10.904	64.1279
10.988	64.1925
11.072	64.1847
11.156	64.1317
11.24	64.0466
11.324	64.1392
11.408	64.1671
11.492	64.0927
11.576	64.1622
11.66	64.1643
11.744	64.1866
11.828	64.2068
11.912	64.1266
11.996	63.9473
12.08	63.7878
12.164	63.9151
12.248	63.8038
12.332	63.8237
12.416	63.8768
12.5	63.8685
12.584	64.0778
12.668	64.181
12.752	64.285
12.836	64.1342
12.92	63.9695
13.004	63.9275
13.088	63.9111
13.172	63.9227
13.256	63.7103
13.34	63.7425
13.424	64.083
13.508	64.1585
13.592	64.1226
13.676	64.1218
13.76	64.1398
13.844	64.1718
13.928	64.0672
14.012	63.9658
14.096	63.8937
14.18	63.6192
14.264	63.3155
14.348	63.1737
14.432	63.2113
14.516	63.3931
14.6	63.5361
14.684	63.5535
14.768	63.6259
14.852	63.8544
14.936	64.0165
15.02	64.0493
15.104	64.0921
15.188	64.0137
15.272	63.7844
15.356	63.6105
15.44	63.596
15.524	63.7068
15.608	63.731
15.692	63.643
15.776	63.694
15.86	63.7913
15.944	63.6775
16.028	63.4903
16.112	63.4344
16.196	63.4708
16.28	63.5326
16.364	63.5664
16.448	63.4907
16.532	63.3653
16.616	63.3495
16.7	63.4416
16.784	63.5224
16.868	63.594
16.952	63.6758
17.036	63.6961
17.12	63.6462
17.204	63.6339
17.288	63.7881
17.372	64.105
17.456	64.3781
17.54	64.3695
17.624	64.1349
17.708	64.0417
17.792	64.3297
17.876	64.7693
17.96	64.8435
18.044	64.321
18.128	63.5799
18.212	63.2336
18.296	63.5426
18.38	64.2438
18.464	64.8321
18.548	64.9015
18.632	64.3778
18.716	63.5493
18.8	62.871
18.884	62.6383
18.968	62.8261
19.052	63.214
19.136	63.6564
19.22	64.1407
19.304	64.5868
19.388	64.7763
19.472	64.563
19.556	64.0884
19.64	63.691
19.724	63.6125
19.808	63.8134
19.892	64.0526
19.976	64.1317
20.06	64.0487
20.144	63.9482
20.228	63.9504
20.312	64.0419
20.396	64.1064
20.48	64.0468
20.564	63.8698
20.648	63.6823
20.732	63.608
20.816	63.7053
20.9	63.9371
20.984	64.1784
21.068	64.2853
21.152	64.1727
21.236	63.8587
21.32	63.4559
21.404	63.1045
21.488	62.9005
21.572	62.8541
21.656	62.8947
21.74	62.9228
21.824	62.8857
21.908	62.8249
21.992	62.8451
22.076	63.0374
22.16	63.4038
22.244	63.84
22.328	64.1916
22.412	64.3253
22.496	64.1932
22.58	63.8393
22.664	63.361
22.748	62.8733
22.832	62.471
22.916	62.228
23	62.174
23.084	62.2939
23.168	62.5287
23.252	62.7854
23.336	62.9431
23.42	62.9008
23.504	62.5998
23.588	62.082
23.672	61.4908
23.756	61.031
23.84	60.87
23.924	61.0529
24.008	61.4973
24.092	62.0438
24.176	62.5284
24.26	62.8662
24.344	63.0815
24.428	63.2668
24.512	63.4889
24.596	63.7394
24.68	63.9156
24.764	63.8577
24.848	63.4287
24.932	62.5633
25.016	61.3288
25.1	59.9113
25.184	58.6081
25.268	57.6894
25.352	57.2675
25.436	57.2747
25.52	57.477
25.604	57.5911
25.688	57.1896
25.772	56.1037
25.856	54.6274
25.94	53.7061
26.024	53.9143
26.108	54.5574
26.192	55.0562
26.276	55.5188
26.36	57.7959
26.444	62.4017
26.528	67.9709
26.612	69.8074
26.696	65.0168
26.78	55.4488
26.864	48.3384
26.948	51.0176
27.028	61.4735