File: Bakgrunnsmateriale/MATLAB/FTIR/ftir_data/subAa/Mapping_121/BZ1503107-1_t82_cm-1.asc
PE IR       SPECTRUM    SPECTRUM    ASCII       PEDS        1.60
  -1
BZ6A26~1.ASC
17/04/07
19:57:57.00
17/04/07
19:57:57.00
tln
$BZ1503107-1_t0082$<tbV0>[2.6,5.2,8.0,0.0,27,1,0]
370
64

2002,4.07
MIRTGS : RIGHTBACK : INTERNAL 2
MIR : ON : INTERNAL 2
OPTKBR

0.200000
8
8.000000
FILLER
RATIO
SPECTRUM
UNLOCKED 256

DOUBLE
64
COMBINED
1
0
0

1.000000
RATIO

1
0
TRUE
51149
0
LEFT NOT FITTED RIGHT NOT FITTED 0
NONE
NONE
15600
12
4.427000
51148
TRUE
1 0 8 72 0 0 0 0

15798

#HDR
-1
-1
#GR
CM-1
%T
2.38419e-05
0.0
5000
-1.000000
4631
8
81.802
51.2605
#DATA
5000	66.2346
4984	65.0765
4968	64.288
4952	64.9375
4936	65.5244
4920	64.9499
4904	64.5394
4888	64.3925
4872	64.8994
4856	64.3832
4840	64.5612
4824	64.5882
4808	64.4646
4792	64.5361
4776	65.0019
4760	65.0087
4744	64.8674
4728	64.9227
4712	64.847
4696	64.9062
4680	64.7433
4664	65.1621
4648	64.7011
4632	64.7452
4616	64.6812
4600	64.3718
4584	64.7235
4568	64.3498
4552	64.548
4536	64.4287
4520	64.3604
4504	64.6693
4488	64.2591
4472	64.42
4456	64.2912
4440	72.4674
4424	67.5035
4408	66.2973
4392	63.9433
4376	63.9494
4360	64.9022
4344	64.8523
4328	64.6895
4312	64.4375
4296	64.8034
4280	64.8689
4264	64.9583
4248	64.7725
4232	64.6801
4216	64.8577
4200	65.1657
4184	64.7166
4168	64.9934
4152	64.7502
4136	64.8952
4120	65.1101
4104	64.9432
4088	65.065
4072	65.1625
4056	65.2081
4040	65.1002
4024	65.1356
4008	64.9327
3992	64.8093
3976	64.8209
3960	64.9592
3944	64.804
3928	64.7694
3912	64.8478
3896	65.0705
3880	64.9038
3864	64.7511
3848	64.8262
3832	64.8622
3816	64.791
3800	65.1113
3784	65.2731
3768	64.9769
3752	64.8391
3736	65.1897
3720	64.9364
3704	65.0719
3688	65.0761
3672	65.2056
3656	64.9168
3640	65.1511
3624	65.0325
3608	65.1052
3592	65.1594
3576	65.0248
3560	64.9074
3544	65.1202
3528	65.1337
3512	64.94
3496	65.034
3480	64.9527
3464	64.955
3448	65.1315
3432	64.8689
3416	64.9836
3400	64.8313
3384	64.9239
3368	64.9997
3352	64.9115
3336	64.9703
3320	64.978
3304	64.9708
3288	64.9982
3272	64.9068
3256	64.7782
3240	64.9883
3224	65.0312
3208	64.9512
3192	65.0162
3176	64.8692
3160	65.0167
3144	64.9552
3128	64.8751
3112	64.9412
3096	64.8566
3080	64.8895
3064	64.983
3048	64.9431
3032	64.8296
3016	64.8262
3000	65.034
2984	64.9904
2968	64.7499
2952	64.6576
2936	64.8878
2920	64.7119
2904	64.9423
2888	64.7875
2872	64.731
2856	64.8596
2840	64.7497
2824	64.7528
2808	64.8685
2792	64.6476
2776	64.8435
2760	64.9072
2744	64.8518
2728	64.8165
2712	64.7857
2696	64.7978
2680	64.7894
2664	64.7471
2648	64.7889
2632	64.7287
2616	64.7218
2600	64.6713
2584	64.7151
2568	64.6386
2552	64.5987
2536	64.7867
2520	64.6436
2504	64.6641
2488	64.696
2472	64.6118
2456	64.6166
2440	64.6279
2424	64.7164
2408	64.6169
2392	64.5778
2376	64.6541
2360	64.5452
2344	64.4884
2328	64.5256
2312	64.5744
2296	64.388
2280	64.5764
2264	64.5082
2248	64.4596
2232	64.498
2216	64.4267
2200	64.4213
2184	64.4484
2168	64.4183
2152	64.3903
2136	64.4087
2120	64.314
2104	64.3959
2088	64.4266
2072	64.4109
2056	64.3672
2040	64.3196
2024	64.3175
2008	64.2722
1992	64.1929
1976	64.2903
1960	64.3394
1944	64.2761
1928	64.2511
1912	64.3281
1896	64.1191
1880	64.207
1864	64.2134
1848	64.131
1832	64.0288
1816	64.1103
1800	64.1385
1784	64.0783
1768	64.1053
1752	63.879
1736	63.7344
1720	63.8009
1704	63.8566
1688	63.9312
1672	63.7999
1656	63.8376
1640	63.8288
1624	63.9705
1608	63.8238
1592	63.7773
1576	63.8901
1560	63.6972
1544	63.9052
1528	63.8179
1512	63.8821
1496	63.7303
1480	63.7609
1464	63.7643
1448	63.748
1432	63.7991
1416	63.6344
1400	63.571
1384	63.5462
1368	63.4975
1352	63.5048
1336	63.606
1320	63.516
1304	63.5267
1288	63.5431
1272	63.4081
1256	63.3971
1240	63.4461
1224	63.57
1208	63.4887
1192	63.4525
1176	63.376
1160	63.1805
1144	63.3178
1128	63.3066
1112	63.2787
1096	63.2103
1080	63.3105
1064	63.2787
1048	63.2168
1032	63.1799
1016	63.2213
1000	63.1967
984	 63.1861
968	 63.192
952	 63.2113
936	 63.062
920	 63.0709
904	 63.284
888	 63.3801
872	 63.2411
856	 63.0927
840	 63.0053
824	 63.4027
808	 63.1149
792	 62.9814
776	 63.344
760	 62.9418
744	 63.1657
728	 62.801
712	 62.9532
696	 62.5947
680	 63.1842
664	 62.4943
648	 62.3745
632	 62.4095
616	 62.989
600	 63.2852
584	 62.4153
568	 63.048
552	 62.8247
536	 61.3682
520	 62.8471
504	 62.9143
488	 61.8553
472	 61.9396
456	 63.0276
440	 62.0148
424	 62.9138
408	 63.1896
392	 53.5143
376	 56.0454
370	 67.7509