File: Bakgrunnsmateriale/MATLAB/FTIR/ftir_data/subAa/Mapping_121/BZ1503107-1_t103_cm-1.asc
PE IR       SPECTRUM    SPECTRUM    ASCII       PEDS        1.60
  -1
BZCBFA~1.ASC
17/04/07
21:42:04.00
17/04/07
21:42:04.00
tln
$BZ1503107-1_t0103$<tbV0>[5.2,10.4,8.0,0.0,27,1,0]
370
64

2002,4.07
MIRTGS : RIGHTBACK : INTERNAL 2
MIR : ON : INTERNAL 2
OPTKBR

0.200000
8
8.000000
FILLER
RATIO
SPECTRUM
UNLOCKED 256

DOUBLE
64
COMBINED
1
0
0

1.000000
RATIO

1
0
TRUE
51149
0
LEFT NOT FITTED RIGHT NOT FITTED 0
NONE
NONE
15600
12
4.427000
51148
TRUE
1 0 8 72 0 0 0 0

15798

#HDR
-1
-1
#GR
CM-1
%T
2.38419e-05
0.0
5000
-1.000000
4631
8
78.8896
49.847
#DATA
5000	66.379
4984	62.9633
4968	61.9513
4952	66.6404
4936	65.2287
4920	64.6068
4904	64.7545
4888	64.635
4872	64.6604
4856	65.0576
4840	64.798
4824	64.7596
4808	64.9981
4792	64.8848
4776	65.0118
4760	64.8952
4744	64.7658
4728	64.6477
4712	64.7803
4696	64.7965
4680	64.8529
4664	64.7214
4648	65.075
4632	65.5615
4616	65.1229
4600	64.8623
4584	64.8605
4568	65.328
4552	64.7048
4536	64.7027
4520	64.7804
4504	64.9827
4488	64.0974
4472	64.5499
4456	65.9865
4440	73.3016
4424	62.4047
4408	65.4614
4392	65.1248
4376	64.4405
4360	65.0526
4344	65.1223
4328	65.3057
4312	64.776
4296	64.6789
4280	64.8642
4264	64.8868
4248	64.9633
4232	65.0424
4216	64.6261
4200	64.8375
4184	65.0353
4168	64.9692
4152	65.0729
4136	64.9319
4120	64.7624
4104	64.8913
4088	65.1529
4072	64.8436
4056	64.8614
4040	65.0458
4024	64.9218
4008	64.8481
3992	64.9305
3976	64.9693
3960	64.8991
3944	64.3552
3928	65.2615
3912	64.6596
3896	64.9137
3880	64.8698
3864	64.8942
3848	64.8389
3832	65.0293
3816	64.7893
3800	65.0474
3784	64.8489
3768	65.1111
3752	65.0243
3736	64.9361
3720	65.0312
3704	65.1185
3688	65.1184
3672	64.9405
3656	64.707
3640	65.0899
3624	64.7824
3608	64.9564
3592	64.9971
3576	64.8453
3560	64.9248
3544	64.7883
3528	64.9594
3512	64.9219
3496	64.9346
3480	64.9956
3464	65.024
3448	64.8429
3432	65.0069
3416	65.0409
3400	64.8576
3384	65.0289
3368	64.9717
3352	64.92
3336	64.9065
3320	64.8265
3304	64.8416
3288	64.7741
3272	64.9148
3256	64.9778
3240	64.952
3224	64.836
3208	64.7544
3192	64.7537
3176	64.8243
3160	64.653
3144	64.7653
3128	64.8984
3112	64.7923
3096	64.8512
3080	64.7269
3064	64.7223
3048	64.8432
3032	64.6828
3016	64.8415
3000	64.7133
2984	64.5702
2968	64.5984
2952	64.5121
2936	64.4796
2920	64.6856
2904	64.5663
2888	64.5736
2872	64.6115
2856	64.5926
2840	64.6242
2824	64.7115
2808	64.6444
2792	64.6657
2776	64.7367
2760	64.7074
2744	64.6297
2728	64.6922
2712	64.7321
2696	64.5917
2680	64.6398
2664	64.6445
2648	64.67
2632	64.5679
2616	64.5571
2600	64.4592
2584	64.5681
2568	64.6039
2552	64.6053
2536	64.4951
2520	64.5139
2504	64.456
2488	64.5873
2472	64.498
2456	64.5612
2440	64.4734
2424	64.3915
2408	64.4446
2392	64.4467
2376	64.4899
2360	64.5081
2344	64.4108
2328	64.4218
2312	64.2798
2296	64.4242
2280	64.2603
2264	64.3347
2248	64.3082
2232	64.2942
2216	64.3242
2200	64.277
2184	64.2755
2168	64.3111
2152	64.2285
2136	64.3217
2120	64.1815
2104	64.293
2088	64.2161
2072	64.0373
2056	64.2149
2040	64.1627
2024	64.0708
2008	64.0912
1992	64.1282
1976	64.146
1960	63.9971
1944	64.0119
1928	64.0053
1912	64.0028
1896	64.0275
1880	63.9651
1864	63.9184
1848	63.8732
1832	63.9656
1816	63.9497
1800	63.8824
1784	63.7661
1768	63.8497
1752	63.6749
1736	63.5652
1720	63.6982
1704	63.6855
1688	63.6122
1672	63.5994
1656	63.6962
1640	63.5961
1624	63.6006
1608	63.6365
1592	63.6776
1576	63.3986
1560	63.6331
1544	63.6228
1528	63.4527
1512	63.4684
1496	63.6752
1480	63.3031
1464	63.1975
1448	63.2991
1432	63.3351
1416	63.397
1400	63.3647
1384	63.3356
1368	63.2528
1352	63.2921
1336	63.1409
1320	63.2576
1304	63.1918
1288	63.1069
1272	63.098
1256	62.9841
1240	63.0178
1224	63.1534
1208	63.0065
1192	62.9541
1176	62.9753
1160	62.8563
1144	62.9139
1128	62.8812
1112	62.9995
1096	63.0574
1080	62.7685
1064	62.881
1048	62.8139
1032	62.8096
1016	62.7821
1000	62.7841
984	 62.8045
968	 62.6587
952	 62.8145
936	 62.776
920	 63.0081
904	 62.6955
888	 62.6064
872	 62.8294
856	 62.818
840	 62.5784
824	 62.6617
808	 62.5978
792	 62.5213
776	 62.5152
760	 62.5687
744	 62.6249
728	 62.517
712	 61.9661
696	 62.3677
680	 62.2149
664	 62.1981
648	 62.0828
632	 61.8904
616	 61.3633
600	 62.6691
584	 62.4802
568	 61.5765
552	 62.1548
536	 62.3172
520	 62.0417
504	 61.4376
488	 61.9659
472	 60.9897
456	 61.3065
440	 60.5191
424	 60.7661
408	 62.1609
392	 61.7006
376	 52.7615
370	 63.8644