File: Bakgrunnsmateriale/MATLAB/FTIR/ftir_data/subAa/Mapping_121/BZ1503107-1_t77_cm-1.asc
PE IR       SPECTRUM    SPECTRUM    ASCII       PEDS        1.60
  -1
BZ6FA6~1.ASC
17/04/07
19:34:14.00
17/04/07
19:34:14.00
tln
$BZ1503107-1_t0077$<tbV0>[-13.0,2.6,8.0,0.0,27,1,0]
370
64

2002,4.07
MIRTGS : RIGHTBACK : INTERNAL 2
MIR : ON : INTERNAL 2
OPTKBR

0.200000
8
8.000000
FILLER
RATIO
SPECTRUM
UNLOCKED 256

DOUBLE
64
COMBINED
1
0
0

1.000000
RATIO

1
0
TRUE
51149
0
LEFT NOT FITTED RIGHT NOT FITTED 0
NONE
NONE
15600
12
4.427000
51148
TRUE
1 0 8 72 0 0 0 0

15798

#HDR
-1
-1
#GR
CM-1
%T
2.38419e-05
0.0
5000
-1.000000
4631
8
75.4374
54.7334
#DATA
5000	66.1398
4984	64.5819
4968	64.7256
4952	65.2415
4936	65.4079
4920	64.7163
4904	65.4586
4888	65.5354
4872	65.271
4856	65.0666
4840	64.9576
4824	64.9725
4808	65.3006
4792	65.2526
4776	65.053
4760	65.312
4744	65.3356
4728	64.871
4712	65.2775
4696	65.3149
4680	65.0405
4664	65.2124
4648	65.1709
4632	65.407
4616	65.6011
4600	65.474
4584	65.6551
4568	65.2926
4552	65.1057
4536	65.4577
4520	65.249
4504	65.339
4488	65.1763
4472	65.0885
4456	64.8813
4440	60.6951
4424	73.3534
4408	68.1449
4392	65.3144
4376	64.7967
4360	65.7242
4344	65.5061
4328	65.2014
4312	65.2846
4296	65.3887
4280	65.2535
4264	65.3693
4248	65.2231
4232	65.0216
4216	65.1664
4200	65.3555
4184	65.0786
4168	65.1458
4152	65.4918
4136	65.0449
4120	65.5013
4104	65.6566
4088	65.0691
4072	65.4126
4056	65.5064
4040	65.3279
4024	65.3142
4008	65.5567
3992	65.2668
3976	65.4553
3960	65.1253
3944	65.3087
3928	65.197
3912	65.4199
3896	65.5509
3880	65.3669
3864	65.3053
3848	65.4155
3832	65.2003
3816	65.4904
3800	65.294
3784	65.5587
3768	65.1676
3752	65.3363
3736	65.5672
3720	65.3144
3704	65.4754
3688	65.4044
3672	65.5532
3656	65.436
3640	65.5449
3624	65.358
3608	65.5663
3592	65.4108
3576	65.3775
3560	65.4814
3544	65.3434
3528	65.4449
3512	65.4598
3496	65.305
3480	65.439
3464	65.3612
3448	65.3579
3432	65.1318
3416	65.2871
3400	65.3109
3384	65.2058
3368	65.1524
3352	65.2623
3336	65.2597
3320	65.3816
3304	65.4056
3288	65.3398
3272	65.1585
3256	65.2607
3240	65.2481
3224	65.3016
3208	65.2367
3192	65.2133
3176	65.1845
3160	65.3201
3144	65.2909
3128	65.147
3112	65.2094
3096	65.2572
3080	65.3288
3064	65.2918
3048	65.2735
3032	65.0436
3016	65.145
3000	65.2066
2984	64.8993
2968	64.6563
2952	64.5427
2936	64.7237
2920	64.806
2904	64.9568
2888	65.0149
2872	64.8715
2856	65.0304
2840	65.0073
2824	64.9706
2808	65.112
2792	65.0891
2776	65.1452
2760	65.2752
2744	65.1864
2728	65.1478
2712	65.1735
2696	65.0294
2680	65.2368
2664	65.0055
2648	65.0181
2632	64.988
2616	65.0509
2600	64.9897
2584	64.9846
2568	64.9782
2552	64.8787
2536	65.077
2520	65.084
2504	64.9887
2488	64.9159
2472	65.0035
2456	64.9703
2440	64.9702
2424	64.9363
2408	64.8208
2392	64.8867
2376	64.9073
2360	64.8471
2344	64.817
2328	64.8778
2312	64.874
2296	64.7451
2280	64.7557
2264	64.8695
2248	64.8704
2232	64.8349
2216	64.778
2200	64.6756
2184	64.8967
2168	64.6636
2152	64.768
2136	64.7673
2120	64.7074
2104	64.7548
2088	64.6331
2072	64.6768
2056	64.6677
2040	64.6234
2024	64.6955
2008	64.5912
1992	64.5324
1976	64.593
1960	64.538
1944	64.5319
1928	64.571
1912	64.5819
1896	64.5549
1880	64.5512
1864	64.4428
1848	64.5226
1832	64.4288
1816	64.5491
1800	64.4286
1784	64.3282
1768	64.3481
1752	63.9735
1736	62.8926
1720	63.7454
1704	64.1315
1688	64.2317
1672	64.2284
1656	64.1737
1640	64.1769
1624	64.2287
1608	64.2125
1592	64.1137
1576	64.1519
1560	63.9803
1544	64.132
1528	64.0395
1512	64.3454
1496	64.0774
1480	64.008
1464	63.8736
1448	63.8692
1432	63.8863
1416	63.9603
1400	63.9132
1384	63.9446
1368	63.8331
1352	63.9223
1336	63.922
1320	63.8878
1304	63.7829
1288	63.6792
1272	63.5893
1256	63.4752
1240	63.3944
1224	63.6255
1208	63.5878
1192	63.4169
1176	63.1762
1160	63.1352
1144	63.5298
1128	63.5875
1112	63.4429
1096	63.4405
1080	63.5617
1064	63.64
1048	63.5383
1032	63.5584
1016	63.4144
1000	63.6209
984	 63.791
968	 63.5257
952	 63.6266
936	 63.5285
920	 63.4381
904	 63.4294
888	 63.513
872	 63.478
856	 63.4381
840	 63.5378
824	 63.6458
808	 63.4808
792	 63.2112
776	 63.5184
760	 63.3878
744	 63.0989
728	 62.9707
712	 63.2225
696	 63.0028
680	 63.6437
664	 62.883
648	 62.9565
632	 62.6959
616	 64.081
600	 62.4339
584	 62.0566
568	 63.2225
552	 63.784
536	 63.5172
520	 63.6137
504	 62.218
488	 62.7315
472	 62.8609
456	 62.1112
440	 62.3576
424	 63.356
408	 65.191
392	 58.9153
376	 68.219
370	 54.7334