File: Bakgrunnsmateriale/MATLAB/FTIR/ftir_data/subAa/Mapping_121/BZ1503107-1_t116.asc
PE IR       SPECTRUM    SPECTRUM    ASCII       PEDS        1.60
  -1
BZEABA~1.ASC
17/04/07
22:48:22.00
17/04/07
22:48:48.00
tln
$BZ1503107-1_t0116$<tbV0>[0.0,13.0,8.0,0.0,27,1,0]
27.028
64

2002,4.07
MIRTGS : RIGHTBACK : INTERNAL 2
MIR : ON : INTERNAL 2
OPTKBR

0.200000
8
8.000000
FILLER
RATIO
SPECTRUM
UNLOCKED 256

DOUBLE
64
COMBINED
1
0
0

0.002000
RATIO

1
0
TRUE
51149
0
LEFT NOT FITTED RIGHT NOT FITTED 0
NONE
NONE
15600
12
4.427000
51148
TRUE
1 0 8 72 0 0 0 0

15798

#HDR
-1
-1
#GR
µM
%T
2.38419e-05
0.0
2.000000
0.002000
12515
8
71.4729
34.7091
#DATA
2.000000	 65.8665
2.084000	 66.164
2.168000	 65.9236
2.252000	 62.9949
2.336000	 65.9176
2.420000	 65.5498
2.504000	 65.7025
2.588000	 65.6766
2.672000	 65.6711
2.756000	 65.6404
2.840000	 65.4992
2.924000	 65.2791
3.008000	 65.3693
3.092000	 65.1435
3.176000	 65.1321
3.260000	 65.0991
3.344000	 64.9811
3.428000	 64.7275
3.512000	 64.886
3.596000	 64.9202
3.680000	 65.0144
3.764000	 64.923
3.848000	 64.67
3.932000	 64.7028
4.016000	 64.6245
4.100000	 64.8324
4.184000	 64.5649
4.268000	 64.5156
4.352000	 64.5661
4.436000	 64.4648
4.520000	 64.4542
4.604000	 64.3227
4.688000	 64.2969
4.772000	 64.169
4.856000	 64.1743
4.940000	 64.0603
5.024000	 64.0476
5.108000	 63.9968
5.192000	 63.9732
5.276000	 63.9574
5.359999	 63.9681
5.444000	 63.8025
5.528000	 63.875
5.612000	 63.8277
5.696000	 63.4393
5.780000	 61.9984
5.864000	 63.4374
5.948000	 63.6457
6.032000	 63.5175
6.116000	 63.5359
6.200000	 63.4864
6.284000	 63.3343
6.368000	 63.4341
6.452000	 63.3757
6.536000	 63.2944
6.620000	 63.351
6.704000	 63.2715
6.788000	 63.1687
6.872000	 63.1189
6.956000	 63.0938
7.040000	 63.1586
7.124000	 63.092
7.208000	 62.8391
7.292000	 62.9571
7.376000	 63.0379
7.460000	 62.9984
7.544000	 62.9797
7.628000	 63.0242
7.712000	 62.8685
7.796000	 62.7593
7.880000	 62.5449
7.964000	 62.3949
8.048000	 62.3798
8.132000	 62.2834
8.216000	 62.4948
8.300000	 62.5536
8.384000	 62.3998
8.468000	 62.2446
8.552000	 61.9374
8.635999	 62.0084
8.719999	 62.3832
8.804000	 62.7538
8.888000	 62.3966
8.972000	 62.2625
9.056000	 62.4808
9.140000	 62.3471
9.224000	 62.1753
9.308000	 62.2222
9.391999	 62.4283
9.475999	 62.4189
9.560000	 62.2891
9.644000	 62.2843
9.728000	 62.3662
9.812000	 62.4627
9.896000	 62.4974
9.980000	 62.4442
10.064	62.4147
10.148	62.4241
10.232	62.3309
10.316	62.398
10.4	62.3828
10.484	62.3317
10.568	62.4174
10.652	62.2515
10.736	62.3264
10.82	62.559
10.904	62.6828
10.988	62.5285
11.072	62.4001
11.156	62.3926
11.24	62.3421
11.324	62.5094
11.408	62.2981
11.492	62.2158
11.576	62.2335
11.66	62.2932
11.744	62.5372
11.828	62.438
11.912	62.3282
11.996	62.3321
12.08	62.2259
12.164	62.1904
12.248	62.3654
12.332	62.3755
12.416	62.2779
12.5	62.2897
12.584	62.1909
12.668	62.0121
12.752	61.9994
12.836	61.973
12.92	61.906
13.004	61.7663
13.088	61.7236
13.172	61.8498
13.256	61.8773
13.34	61.756
13.424	61.7469
13.508	61.9268
13.592	62.022
13.676	61.9073
13.76	61.8026
13.844	61.7749
13.928	61.7213
14.012	61.618
14.096	61.4966
14.18	61.571
14.264	61.8544
14.348	62.0735
14.432	62.1844
14.516	62.1785
14.6	61.9763
14.684	61.6398
14.768	61.2949
14.852	61.1732
14.936	61.4366
15.02	61.7778
15.104	61.5778
15.188	60.868
15.272	60.387
15.356	60.3978
15.44	60.6274
15.524	60.9654
15.608	61.358
15.692	61.6466
15.776	61.8075
15.86	61.9428
15.944	61.8735
16.028	61.3892
16.112	60.8769
16.196	60.911
16.28	61.4673
16.364	62.0758
16.448	62.3449
16.532	62.2442
16.616	62.0733
16.7	62.0649
16.784	62.1189
16.868	62.0309
16.952	61.7569
17.036	61.4232
17.12	61.2634
17.204	61.4336
17.288	61.7493
17.372	61.8121
17.456	61.5835
17.54	61.5231
17.624	61.8815
17.708	62.2472
17.792	62.1201
17.876	61.5831
17.96	61.0868
18.044	60.8663
18.128	60.8839
18.212	61.0762
18.296	61.4036
18.38	61.7955
18.464	62.1294
18.548	62.2697
18.632	62.1279
18.716	61.7441
18.8	61.2853
18.884	60.9227
18.968	60.7135
19.052	60.6151
19.136	60.5777
19.22	60.5875
19.304	60.6583
19.388	60.7883
19.472	60.9367
19.556	61.0321
19.64	61.012
19.724	60.8705
19.808	60.6733
19.892	60.5244
19.976	60.4993
20.06	60.5961
20.144	60.7348
20.228	60.8123
20.312	60.7892
20.396	60.716
20.48	60.6799
20.564	60.7178
20.648	60.7907
20.732	60.8235
20.816	60.757
20.9	60.5831
20.984	60.3457
21.068	60.1315
21.152	60.0468
21.236	60.1632
21.32	60.4475
21.404	60.747
21.488	60.8699
21.572	60.7039
21.656	60.2722
21.74	59.7158
21.824	59.229
21.908	58.9766
21.992	59.0302
22.076	59.3448
22.16	59.7767
22.244	60.1606
22.328	60.3868
22.412	60.4348
22.496	60.3688
22.58	60.2775
22.664	60.2248
22.748	60.2263
22.832	60.2694
22.916	60.3516
23	60.49
23.084	60.71
23.168	61.0011
23.252	61.2855
23.336	61.4289
23.42	61.3148
23.504	60.8976
23.588	60.2554
23.672	59.5597
23.756	59.0085
23.84	58.7256
23.924	58.7228
24.008	58.8974
24.092	59.0837
24.176	59.1662
24.26	59.1564
24.344	59.1953
24.428	59.4621
24.512	60.0866
24.596	61.0207
24.68	62.0417
24.764	62.8418
24.848	63.1307
24.932	62.7233
25.016	61.6346
25.1	60.0359
25.184	58.2487
25.268	56.6672
25.352	55.6773
25.436	55.588
25.52	56.5315
25.604	58.4507
25.688	61.1208
25.772	64.1673
25.856	67.1343
25.94	69.5699
26.024	71.0869
26.108	71.4473
26.192	70.5747
26.276	68.5073
26.36	65.4092
26.444	61.4875
26.528	56.972
26.612	52.1266
26.696	47.2491
26.78	42.6634
26.864	38.744
26.948	35.9252
27.028	34.7091