File: Bakgrunnsmateriale/MATLAB/FTIR/ftir_data/subAa/Mapping_121/BZ1503107-1_t11_cm-1.asc
PE IR       SPECTRUM    SPECTRUM    ASCII       PEDS        1.60
  -1
BZ69A1~1.ASC
17/04/07
14:06:39.00
17/04/07
14:06:39.00
tln
$BZ1503107-1_t0011$<tbV0>[-13.0,-13.0,8.0,0.0,27,1,0]
370
64

2002,4.07
MIRTGS : RIGHTBACK : INTERNAL 2
MIR : ON : INTERNAL 2
OPTKBR

0.200000
8
8.000000
FILLER
RATIO
SPECTRUM
UNLOCKED 256

DOUBLE
64
COMBINED
1
0
0

1.000000
RATIO

1
0
TRUE
51149
0
LEFT NOT FITTED RIGHT NOT FITTED 0
NONE
NONE
15600
12
4.427000
51148
TRUE
1 0 8 72 0 0 0 0

15798

#HDR
-1
-1
#GR
CM-1
%T
2.38419e-05
0.0
5000
-1.000000
4631
8
92.8159
61.6125
#DATA
5000	65.1273
4984	63.7483
4968	65.5776
4952	63.0722
4936	65.6505
4920	63.7452
4904	64.7923
4888	65.3887
4872	64.8174
4856	65.1423
4840	65.6551
4824	64.688
4808	65.3025
4792	65.7115
4776	65.1426
4760	65.6053
4744	64.9213
4728	64.8693
4712	65.0081
4696	64.9322
4680	64.9899
4664	64.8933
4648	64.8218
4632	64.3972
4616	64.421
4600	64.3481
4584	64.1911
4568	64.0458
4552	63.4851
4536	64.1063
4520	63.4646
4504	63.8207
4488	67.8017
4472	63.3844
4456	63.4249
4440	82.1503
4424	64.6219
4408	64.0321
4392	64.1325
4376	63.1818
4360	64.0935
4344	64.0847
4328	64.3727
4312	64.7742
4296	64.4018
4280	64.6515
4264	64.7505
4248	64.8226
4232	64.9491
4216	64.8941
4200	65.0222
4184	65.061
4168	65.1009
4152	65.0004
4136	65.4136
4120	65.4725
4104	65.6232
4088	65.4528
4072	65.1479
4056	65.3922
4040	65.1689
4024	65.0577
4008	65.0739
3992	65.0775
3976	65.1159
3960	64.8788
3944	65.0399
3928	64.9442
3912	65.1356
3896	64.7491
3880	64.866
3864	64.8412
3848	65.3125
3832	65.0887
3816	65.0198
3800	65.1594
3784	64.9722
3768	65.3085
3752	65.3536
3736	65.257
3720	65.1916
3704	65.3078
3688	65.3967
3672	65.3494
3656	65.3863
3640	65.2828
3624	65.4252
3608	65.2597
3592	65.0764
3576	65.0838
3560	65.1113
3544	65.27
3528	65.0108
3512	65.1562
3496	65.1467
3480	65.149
3464	65.0387
3448	64.9842
3432	65.0939
3416	65.2481
3400	65.0552
3384	65.1509
3368	65.065
3352	65.1035
3336	65.1681
3320	65.2225
3304	65.1683
3288	65.2187
3272	65.0848
3256	65.2622
3240	65.0141
3224	65.2289
3208	65.2672
3192	65.0068
3176	64.978
3160	65.1365
3144	65.1815
3128	65.0766
3112	64.9985
3096	65.2418
3080	65.0713
3064	65.0849
3048	65.1856
3032	65.0365
3016	65.2205
3000	65.1855
2984	65.0335
2968	65.0908
2952	64.9759
2936	65.0058
2920	64.9349
2904	64.9834
2888	65.0049
2872	65.143
2856	65.1957
2840	65.1939
2824	65.0719
2808	65.1438
2792	65.0962
2776	65.1175
2760	64.9992
2744	65.1461
2728	65.1024
2712	65.043
2696	65.1547
2680	65.1675
2664	65.1791
2648	65.0057
2632	65.0946
2616	65.0199
2600	65.066
2584	65.0467
2568	65.138
2552	65.0722
2536	65.0653
2520	64.9651
2504	65.0331
2488	65.2798
2472	65.0685
2456	65.1236
2440	65.0893
2424	64.989
2408	65.1049
2392	65.0572
2376	65.1061
2360	65.1487
2344	65.0389
2328	65.0326
2312	64.9403
2296	64.9603
2280	64.8522
2264	64.8732
2248	65.0169
2232	64.967
2216	64.9661
2200	64.936
2184	64.8864
2168	64.9325
2152	64.6736
2136	64.8537
2120	65.0051
2104	64.9167
2088	64.7863
2072	64.8712
2056	64.8853
2040	64.9756
2024	64.9861
2008	64.9485
1992	64.9124
1976	64.8961
1960	64.986
1944	64.8989
1928	64.8443
1912	64.9796
1896	64.9101
1880	64.8361
1864	64.9221
1848	64.8368
1832	64.7827
1816	64.8231
1800	64.8793
1784	64.7957
1768	64.9141
1752	64.7519
1736	64.7594
1720	64.5931
1704	64.7468
1688	64.8212
1672	64.782
1656	64.9205
1640	64.7622
1624	64.7708
1608	64.6433
1592	64.6564
1576	64.8633
1560	64.9111
1544	64.7562
1528	64.7017
1512	64.8279
1496	64.7802
1480	64.7452
1464	64.6435
1448	64.5343
1432	64.7308
1416	64.571
1400	64.477
1384	64.4487
1368	64.5444
1352	64.5501
1336	64.4874
1320	64.4706
1304	64.3821
1288	64.5225
1272	64.366
1256	64.4036
1240	64.2421
1224	64.3016
1208	64.51
1192	64.3834
1176	64.2816
1160	64.3048
1144	64.3764
1128	64.5169
1112	64.3844
1096	64.3751
1080	64.4185
1064	64.2047
1048	64.1311
1032	64.3545
1016	64.4218
1000	64.2874
984	 64.4534
968	 64.378
952	 64.3575
936	 64.4152
920	 64.412
904	 64.3771
888	 64.0659
872	 64.1877
856	 64.3821
840	 64.3034
824	 64.3043
808	 64.2331
792	 64.3615
776	 64.3945
760	 64.1585
744	 64.1496
728	 64.3036
712	 64.1929
696	 64.0092
680	 64.1634
664	 64.0027
648	 63.8781
632	 64.1139
616	 64.0162
600	 63.975
584	 64.3152
568	 63.609
552	 65.3571
536	 64.6222
520	 65.3178
504	 64.6077
488	 64.2787
472	 62.7517
456	 63.8574
440	 64.3123
424	 64.1428
408	 67.0629
392	 62.9917
376	 73.1319
370	 92.8159