File: Bakgrunnsmateriale/MATLAB/FTIR/ftir_data/subAa/Mapping_121/BZ1503107-1_t67.asc
PE IR       SPECTRUM    SPECTRUM    ASCII       PEDS        1.60
  -1
BZ2561~1.ASC
17/04/07
18:48:03.00
17/04/07
18:48:29.00
tln
$BZ1503107-1_t0067$<tbV0>[13.0,2.6,8.0,0.0,27,1,0]
27.028
64

2002,4.07
MIRTGS : RIGHTBACK : INTERNAL 2
MIR : ON : INTERNAL 2
OPTKBR

0.200000
8
8.000000
FILLER
RATIO
SPECTRUM
UNLOCKED 256

DOUBLE
64
COMBINED
1
0
0

0.002000
RATIO

1
0
TRUE
51149
0
LEFT NOT FITTED RIGHT NOT FITTED 0
NONE
NONE
15600
12
4.427000
51148
TRUE
1 0 8 72 0 0 0 0

15798

#HDR
-1
-1
#GR
µM
%T
2.38419e-05
0.0
2.000000
0.002000
12515
8
71.1623
34.9017
#DATA
2.000000	 63.6259
2.084000	 63.0695
2.168000	 63.4841
2.252000	 60.1434
2.336000	 63.2614
2.420000	 63.5673
2.504000	 63.5804
2.588000	 63.543
2.672000	 63.6731
2.756000	 63.7812
2.840000	 63.7388
2.924000	 63.5776
3.008000	 63.5823
3.092000	 63.5852
3.176000	 63.5505
3.260000	 63.7788
3.344000	 63.7003
3.428000	 63.6691
3.512000	 63.6233
3.596000	 63.7883
3.680000	 63.6496
3.764000	 63.6651
3.848000	 63.6057
3.932000	 63.6014
4.016000	 63.6911
4.100000	 63.6684
4.184000	 63.6042
4.268000	 63.5977
4.352000	 63.5512
4.436000	 63.5803
4.520000	 63.658
4.604000	 63.5325
4.688000	 63.5695
4.772000	 63.5481
4.856000	 63.3514
4.940000	 63.4574
5.024000	 63.4431
5.108000	 63.5006
5.192000	 63.6127
5.276000	 63.4338
5.359999	 63.4993
5.444000	 63.4172
5.528000	 63.4849
5.612000	 63.4547
5.696000	 63.4067
5.780000	 63.1104
5.864000	 63.3825
5.948000	 63.4104
6.032000	 63.2833
6.116000	 63.1827
6.200000	 63.4553
6.284000	 63.2528
6.368000	 63.2779
6.452000	 63.2582
6.536000	 63.234
6.620000	 63.3052
6.704000	 63.1489
6.788000	 63.2533
6.872000	 63.1882
6.956000	 63.1169
7.040000	 63.1468
7.124000	 63.186
7.208000	 63.1218
7.292000	 63.1307
7.376000	 62.9931
7.460000	 63.2005
7.544000	 63.29
7.628000	 63.0878
7.712000	 63.0938
7.796000	 63.0389
7.880000	 63.059
7.964000	 63.1045
8.048000	 63.055
8.132000	 63.0826
8.216000	 62.9323
8.300000	 63.0986
8.384000	 63.1046
8.468000	 63.0951
8.552000	 63.0325
8.635999	 62.9507
8.719999	 63.0348
8.804000	 63.1465
8.888000	 63.071
8.972000	 62.9636
9.056000	 62.8508
9.140000	 62.9059
9.224000	 62.9631
9.308000	 63.2241
9.391999	 63.0641
9.475999	 63.0406
9.560000	 63.0826
9.644000	 63.0021
9.728000	 63.1758
9.812000	 62.9842
9.896000	 62.9286
9.980000	 63.2066
10.064	63.0928
10.148	63.0403
10.232	63.1597
10.316	63.1168
10.4	63.1306
10.484	63.0678
10.568	62.9799
10.652	62.8994
10.736	62.9078
10.82	63.0481
10.904	62.913
10.988	62.9704
11.072	62.9358
11.156	63.037
11.24	63.3088
11.324	63.2666
11.408	63.1471
11.492	63.189
11.576	62.9492
11.66	62.9685
11.744	62.9681
11.828	63.0215
11.912	63.1909
11.996	63.0715
12.08	62.9956
12.164	63.1852
12.248	63.2564
12.332	63.0745
12.416	62.8885
12.5	62.8585
12.584	62.9758
12.668	62.9305
12.752	62.9961
12.836	63.1691
12.92	63.0118
13.004	62.7788
13.088	62.7445
13.172	62.8949
13.256	63.1144
13.34	63.1429
13.424	63.0517
13.508	62.999
13.592	62.9304
13.676	62.647
13.76	62.3783
13.844	62.4359
13.928	62.6815
14.012	62.8432
14.096	62.4592
14.18	61.8818
14.264	61.9753
14.348	62.207
14.432	62.5975
14.516	63.1261
14.6	63.215
14.684	63.2861
14.768	63.2419
14.852	62.701
14.936	61.9928
15.02	61.7242
15.104	62.2287
15.188	62.6427
15.272	62.5162
15.356	62.6363
15.44	62.9488
15.524	62.8112
15.608	62.3485
15.692	62.05
15.776	62.1747
15.86	62.4274
15.944	62.3577
16.028	62.1855
16.112	62.3737
16.196	62.8128
16.28	63.0924
16.364	63.1302
16.448	63.2089
16.532	63.4362
16.616	63.4396
16.7	62.9513
16.784	62.3126
16.868	61.9389
16.952	61.8686
17.036	62.0722
17.12	62.5811
17.204	63.2121
17.288	63.6218
17.372	63.6566
17.456	63.4382
17.54	63.1799
17.624	62.9944
17.708	62.8612
17.792	62.7451
17.876	62.683
17.96	62.7421
18.044	62.9139
18.128	63.1035
18.212	63.2123
18.296	63.2104
18.38	63.1485
18.464	63.0811
18.548	63.0116
18.632	62.9152
18.716	62.7768
18.8	62.6015
18.884	62.4351
18.968	62.3523
19.052	62.3879
19.136	62.4834
19.22	62.5387
19.304	62.5231
19.388	62.4922
19.472	62.5061
19.556	62.577
19.64	62.6855
19.724	62.7938
19.808	62.8499
19.892	62.8248
19.976	62.7601
20.06	62.7585
20.144	62.8862
20.228	63.1005
20.312	63.2913
20.396	63.3902
20.48	63.4172
20.564	63.4282
20.648	63.4488
20.732	63.4575
20.816	63.4101
20.9	63.2735
20.984	63.0445
21.068	62.7558
21.152	62.4804
21.236	62.3127
21.32	62.333
21.404	62.5534
21.488	62.9014
21.572	63.2486
21.656	63.4808
21.74	63.5487
21.824	63.4759
21.908	63.3328
21.992	63.1882
22.076	63.0801
22.16	63.0171
22.244	62.9794
22.328	62.9324
22.412	62.8417
22.496	62.6878
22.58	62.4652
22.664	62.1854
22.748	61.8701
22.832	61.5308
22.916	61.1822
23	60.8531
23.084	60.5911
23.168	60.4802
23.252	60.6065
23.336	61.0105
23.42	61.6343
23.504	62.3139
23.588	62.834
23.672	63.025
23.756	62.8355
23.84	62.3714
23.924	61.8757
24.008	61.6301
24.092	61.8517
24.176	62.6077
24.26	63.7886
24.344	65.12
24.428	66.2739
24.512	66.9527
24.596	67.0083
24.68	66.4908
24.764	65.6321
24.848	64.7064
24.932	63.9325
25.016	63.366
25.1	62.8896
25.184	62.2894
25.268	61.4113
25.352	60.2683
25.436	59.0595
25.52	58.0901
25.604	57.6157
25.688	57.7076
25.772	58.175
25.856	58.6475
25.94	58.7309
26.024	58.1531
26.108	56.8827
26.192	55.0973
26.276	53.0621
26.36	51.0214
26.444	49.0731
26.528	47.1604
26.612	45.1548
26.696	42.9587
26.78	40.6047
26.864	38.2496
26.948	36.1898
27.028	34.9017