File: Bakgrunnsmateriale/MATLAB/FTIR/ftir_data/subAa/Mapping_121/BZ1503107-1_t50.asc
PE IR       SPECTRUM    SPECTRUM    ASCII       PEDS        1.60
  -1
BZ2943~1.ASC
17/04/07
17:22:08.00
17/04/07
17:22:35.00
tln
$BZ1503107-1_t0050$<tbV0>[0.0,-2.6,8.0,0.0,27,1,0]
27.028
64

2002,4.07
MIRTGS : RIGHTBACK : INTERNAL 2
MIR : ON : INTERNAL 2
OPTKBR

0.200000
8
8.000000
FILLER
RATIO
SPECTRUM
UNLOCKED 256

DOUBLE
64
COMBINED
1
0
0

0.002000
RATIO

1
0
TRUE
51149
0
LEFT NOT FITTED RIGHT NOT FITTED 0
NONE
NONE
15600
12
4.427000
51148
TRUE
1 0 8 72 0 0 0 0

15798

#HDR
-1
-1
#GR
µM
%T
2.38419e-05
0.0
2.000000
0.002000
12515
8
66.9196
33.3121
#DATA
2.000000	 64.2905
2.084000	 64.658
2.168000	 64.6486
2.252000	 63.7166
2.336000	 65.2285
2.420000	 64.5478
2.504000	 65.169
2.588000	 65.0456
2.672000	 64.9322
2.756000	 65.1121
2.840000	 65.0793
2.924000	 65.0422
3.008000	 65.1896
3.092000	 64.85
3.176000	 65.0079
3.260000	 64.8615
3.344000	 65.0312
3.428000	 64.8612
3.512000	 65.0314
3.596000	 64.9415
3.680000	 64.9533
3.764000	 64.9798
3.848000	 64.9601
3.932000	 64.9125
4.016000	 64.814
4.100000	 64.8381
4.184000	 64.8083
4.268000	 64.8208
4.352000	 64.8315
4.436000	 64.8432
4.520000	 64.7601
4.604000	 64.6871
4.688000	 64.7436
4.772000	 64.7424
4.856000	 64.7303
4.940000	 64.5615
5.024000	 64.5792
5.108000	 64.4543
5.192000	 64.5879
5.276000	 64.5478
5.359999	 64.5439
5.444000	 64.5337
5.528000	 64.4346
5.612000	 64.4565
5.696000	 64.3317
5.780000	 64.3065
5.864000	 64.3548
5.948000	 64.3101
6.032000	 64.3109
6.116000	 64.2835
6.200000	 64.3201
6.284000	 64.164
6.368000	 64.1665
6.452000	 64.1545
6.536000	 64.2196
6.620000	 64.2343
6.704000	 64.196
6.788000	 64.1524
6.872000	 64.2202
6.956000	 64.0645
7.040000	 64.23
7.124000	 64.0804
7.208000	 64.0287
7.292000	 64.2622
7.376000	 64.0162
7.460000	 63.9789
7.544000	 64.0615
7.628000	 64.0617
7.712000	 64.0381
7.796000	 63.9788
7.880000	 63.9248
7.964000	 63.9763
8.048000	 63.9186
8.132000	 63.9243
8.216000	 63.865
8.300000	 63.9914
8.384000	 63.8653
8.468000	 63.9459
8.552000	 63.8643
8.635999	 63.7805
8.719999	 63.7267
8.804000	 63.7956
8.888000	 63.765
8.972000	 63.7325
9.056000	 63.9889
9.140000	 63.7886
9.224000	 63.8932
9.308000	 63.8696
9.391999	 63.768
9.475999	 63.6698
9.560000	 63.8016
9.644000	 63.7717
9.728000	 63.5916
9.812000	 63.8022
9.896000	 63.9502
9.980000	 63.8196
10.064	63.7505
10.148	63.8992
10.232	63.9184
10.316	63.7165
10.4	63.6947
10.484	63.6955
10.568	63.6549
10.652	63.6634
10.736	63.7024
10.82	63.8208
10.904	63.8519
10.988	63.7016
11.072	63.6672
11.156	63.6591
11.24	63.7409
11.324	63.7425
11.408	63.9144
11.492	63.7737
11.576	63.7377
11.66	63.7546
11.744	63.5692
11.828	63.7549
11.912	63.879
11.996	63.7072
12.08	63.7504
12.164	63.8039
12.248	63.7191
12.332	63.7664
12.416	63.7722
12.5	63.6983
12.584	63.6573
12.668	63.5549
12.752	63.5716
12.836	63.6904
12.92	63.6949
13.004	63.6667
13.088	63.6388
13.172	63.7796
13.256	63.8604
13.34	63.7743
13.424	63.7498
13.508	63.7355
13.592	63.644
13.676	63.5435
13.76	63.6288
13.844	63.6744
13.928	63.45
14.012	63.2293
14.096	63.2422
14.18	63.2769
14.264	63.2926
14.348	63.4372
14.432	63.584
14.516	63.6309
14.6	63.527
14.684	63.5101
14.768	63.642
14.852	63.5557
14.936	63.3165
15.02	63.2338
15.104	63.4259
15.188	63.7409
15.272	63.8244
15.356	63.6641
15.44	63.3776
15.524	63.0715
15.608	63.2192
15.692	63.7236
15.776	63.7168
15.86	63.2275
15.944	63.0874
16.028	63.4459
16.112	63.8853
16.196	64.0455
16.28	63.7628
16.364	63.317
16.448	63.1406
16.532	63.3177
16.616	63.6814
16.7	63.9949
16.784	64.0475
16.868	63.9365
16.952	63.9475
17.036	64.069
17.12	64.0551
17.204	63.8928
17.288	63.7888
17.372	63.7241
17.456	63.4345
17.54	62.8578
17.624	62.3218
17.708	62.2019
17.792	62.5526
17.876	63.076
17.96	63.4091
18.044	63.4204
18.128	63.2554
18.212	63.1201
18.296	63.0732
18.38	63.0275
18.464	62.9078
18.548	62.7625
18.632	62.7251
18.716	62.8805
18.8	63.1761
18.884	63.4634
18.968	63.5898
19.052	63.4686
19.136	63.1286
19.22	62.7281
19.304	62.4795
19.388	62.5102
19.472	62.7759
19.556	63.1052
19.64	63.3327
19.724	63.403
19.808	63.3743
19.892	63.3384
19.976	63.3513
20.06	63.4008
20.144	63.4361
20.228	63.4208
20.312	63.3611
20.396	63.2984
20.48	63.2706
20.564	63.275
20.648	63.2741
20.732	63.2424
20.816	63.2251
20.9	63.3161
20.984	63.563
21.068	63.8934
21.152	64.1441
21.236	64.1859
21.32	64.0264
21.404	63.8044
21.488	63.6614
21.572	63.6256
21.656	63.6058
21.74	63.4788
21.824	63.1917
21.908	62.8077
21.992	62.4661
22.076	62.3076
22.16	62.4036
22.244	62.7118
22.328	63.1121
22.412	63.4734
22.496	63.7171
22.58	63.8537
22.664	63.9516
22.748	64.0762
22.832	64.2298
22.916	64.3468
23	64.3453
23.084	64.1736
23.168	63.8514
23.252	63.4698
23.336	63.1562
23.42	63.0243
23.504	63.1446
23.588	63.5069
23.672	64.0219
23.756	64.5359
23.84	64.8794
23.924	64.936
24.008	64.7054
24.092	64.3096
24.176	63.9207
24.26	63.6542
24.344	63.4769
24.428	63.2095
24.512	62.6259
24.596	61.5806
24.68	60.1274
24.764	58.5556
24.848	57.2206
24.932	56.444
25.016	56.3598
25.1	56.8857
25.184	57.7651
25.268	58.7157
25.352	59.58
25.436	60.2942
25.52	60.8955
25.604	61.4704
25.688	61.9995
25.772	62.3366
25.856	62.2793
25.94	61.6577
26.024	60.4012
26.108	58.5772
26.192	56.3056
26.276	53.6598
26.36	50.5665
26.444	47.0371
26.528	43.2678
26.612	39.6048
26.696	36.4904
26.78	34.329
26.864	33.3539
26.948	33.6973
27.028	35.3919