File: Bakgrunnsmateriale/MATLAB/FTIR/ftir_data/subAa/Mapping_121/BZ1503107-1_t13_cm-1.asc
PE IR       SPECTRUM    SPECTRUM    ASCII       PEDS        1.60
  -1
BZ6BA1~1.ASC
17/04/07
14:16:31.00
17/04/07
14:16:31.00
tln
$BZ1503107-1_t0013$<tbV0>[10.4,-10.4,8.0,0.0,27,1,0]
370
64

2002,4.07
MIRTGS : RIGHTBACK : INTERNAL 2
MIR : ON : INTERNAL 2
OPTKBR

0.200000
8
8.000000
FILLER
RATIO
SPECTRUM
UNLOCKED 256

DOUBLE
64
COMBINED
1
0
0

1.000000
RATIO

1
0
TRUE
51149
0
LEFT NOT FITTED RIGHT NOT FITTED 0
NONE
NONE
15600
12
4.427000
51148
TRUE
1 0 8 72 0 0 0 0

15798

#HDR
-1
-1
#GR
CM-1
%T
2.38419e-05
0.0
5000
-1.000000
4631
8
76.6097
46.3449
#DATA
5000	64.1522
4984	65.3542
4968	64.2061
4952	64.2106
4936	63.747
4920	64.9419
4904	64.5355
4888	65.1926
4872	64.7166
4856	64.6582
4840	65.2595
4824	65.205
4808	64.7174
4792	65.2063
4776	64.8128
4760	65.1801
4744	65.0845
4728	64.8507
4712	64.1446
4696	64.4095
4680	64.7482
4664	65.1374
4648	65.0434
4632	64.2113
4616	64.3651
4600	64.9851
4584	64.9503
4568	64.318
4552	64.1435
4536	64.5783
4520	63.9903
4504	65.2384
4488	67.3808
4472	65.1518
4456	63.4359
4440	62.4394
4424	65.1287
4408	65.1658
4392	65.3972
4376	65.1534
4360	64.7896
4344	64.5323
4328	64.8835
4312	64.6701
4296	64.9253
4280	64.8272
4264	64.6301
4248	64.8461
4232	64.9586
4216	64.73
4200	64.819
4184	64.3692
4168	65.2153
4152	64.8345
4136	65.2851
4120	64.8967
4104	65.3273
4088	65.0491
4072	64.91
4056	65.3733
4040	65.0391
4024	65.1234
4008	64.9834
3992	64.8465
3976	64.9449
3960	65.0124
3944	64.9853
3928	64.8908
3912	64.9701
3896	65.1412
3880	65.0536
3864	65.0756
3848	65.0652
3832	65.1712
3816	65.1457
3800	65.0594
3784	64.9046
3768	65.1852
3752	65.2257
3736	65.1966
3720	65.12
3704	65.2622
3688	65.3231
3672	65.3956
3656	65.1649
3640	65.1272
3624	65.1478
3608	65.3185
3592	65.1412
3576	65.1451
3560	65.0184
3544	65.176
3528	64.9373
3512	65.0324
3496	64.9992
3480	64.912
3464	64.8408
3448	65.0484
3432	65.133
3416	65.0604
3400	65.0482
3384	65.0476
3368	64.8522
3352	64.9699
3336	65.0398
3320	65.0389
3304	65.0565
3288	64.9951
3272	65.0583
3256	65.1489
3240	64.8651
3224	64.978
3208	65.0687
3192	65.1057
3176	65.1872
3160	65.2177
3144	65.0738
3128	65.1828
3112	65.0614
3096	65.1613
3080	65.0342
3064	64.9275
3048	65.0935
3032	64.9489
3016	64.9982
3000	65.0638
2984	65.0392
2968	64.9037
2952	64.9108
2936	65.065
2920	64.9155
2904	65.0397
2888	64.857
2872	65.0315
2856	65.051
2840	64.9251
2824	64.92
2808	65.0619
2792	64.9123
2776	64.9214
2760	65.0181
2744	64.9494
2728	65.1533
2712	64.8866
2696	64.964
2680	64.9763
2664	64.9928
2648	64.9213
2632	65.0267
2616	64.8209
2600	64.956
2584	64.9609
2568	65.0026
2552	65.0522
2536	65.0305
2520	64.9284
2504	64.793
2488	65.0203
2472	64.9919
2456	64.9434
2440	64.8383
2424	64.9614
2408	64.8181
2392	64.9567
2376	64.9596
2360	65.0082
2344	64.9485
2328	64.8503
2312	64.8909
2296	64.8776
2280	64.8213
2264	64.9045
2248	64.8885
2232	64.8414
2216	64.9102
2200	64.8535
2184	64.8522
2168	64.9465
2152	64.6216
2136	64.7036
2120	64.8607
2104	64.7667
2088	64.7857
2072	64.7429
2056	64.8143
2040	64.8787
2024	64.863
2008	64.8491
1992	64.7885
1976	64.8113
1960	64.7624
1944	64.734
1928	64.6762
1912	64.8385
1896	64.827
1880	64.6644
1864	64.8425
1848	64.7966
1832	64.6982
1816	64.8383
1800	64.8082
1784	64.6952
1768	64.9526
1752	64.7034
1736	64.5548
1720	64.599
1704	64.6262
1688	64.6638
1672	64.5922
1656	64.8098
1640	64.6091
1624	64.6757
1608	64.557
1592	64.4898
1576	64.6812
1560	64.6934
1544	64.6241
1528	64.4914
1512	64.667
1496	64.6016
1480	64.5331
1464	64.5058
1448	64.4568
1432	64.6525
1416	64.5354
1400	64.4486
1384	64.382
1368	64.4808
1352	64.4752
1336	64.3884
1320	64.37
1304	64.3132
1288	64.4502
1272	64.2717
1256	64.3114
1240	64.2357
1224	64.4063
1208	64.1637
1192	64.3146
1176	64.1086
1160	64.1443
1144	64.0038
1128	64.1706
1112	64.2112
1096	64.4815
1080	64.4088
1064	64.0778
1048	64.2232
1032	64.2969
1016	64.2996
1000	64.24
984	 64.3211
968	 64.2585
952	 64.2515
936	 64.325
920	 64.3487
904	 64.1464
888	 63.9358
872	 64.3699
856	 64.0119
840	 64.3288
824	 64.1013
808	 64.0936
792	 64.3509
776	 64.028
760	 64.1019
744	 63.7379
728	 64.0221
712	 63.8017
696	 63.7952
680	 63.8875
664	 64.1093
648	 63.9403
632	 64.3349
616	 63.9631
600	 64.0049
584	 64.1463
568	 63.215
552	 62.2208
536	 62.8731
520	 63.6111
504	 64.1736
488	 63.9391
472	 64.0204
456	 63.9156
440	 61.8072
424	 64.4844
408	 67.2969
392	 55.5527
376	 64.2718
370	 68.8387