File: Bakgrunnsmateriale/MATLAB/FTIR/ftir_data/subAa/Mapping_121/BZ1503107-1_t120.asc
PE IR       SPECTRUM    SPECTRUM    ASCII       PEDS        1.60
  -1
BZCEB2~1.ASC
17/04/07
23:06:50.00
17/04/07
23:07:17.00
tln
$BZ1503107-1_t0120$<tbV0>[-10.4,13.0,8.0,0.0,27,1,0]
27.028
64

2002,4.07
MIRTGS : RIGHTBACK : INTERNAL 2
MIR : ON : INTERNAL 2
OPTKBR

0.200000
8
8.000000
FILLER
RATIO
SPECTRUM
UNLOCKED 256

DOUBLE
64
COMBINED
1
0
0

0.002000
RATIO

1
0
TRUE
51149
0
LEFT NOT FITTED RIGHT NOT FITTED 0
NONE
NONE
15600
12
4.427000
51148
TRUE
1 0 8 72 0 0 0 0

15798

#HDR
-1
-1
#GR
µM
%T
2.38419e-05
0.0
2.000000
0.002000
12515
8
70.4693
50.7772
#DATA
2.000000	 66.8204
2.084000	 64.8287
2.168000	 65.1097
2.252000	 57.2588
2.336000	 65.3114
2.420000	 64.7849
2.504000	 64.6836
2.588000	 65.0112
2.672000	 65.1542
2.756000	 65.0581
2.840000	 64.9013
2.924000	 64.8713
3.008000	 64.8867
3.092000	 64.7277
3.176000	 64.8248
3.260000	 64.6702
3.344000	 64.6951
3.428000	 64.4966
3.512000	 64.7456
3.596000	 64.5954
3.680000	 64.6558
3.764000	 64.4785
3.848000	 64.5564
3.932000	 64.4414
4.016000	 64.3502
4.100000	 64.4903
4.184000	 64.421
4.268000	 64.3341
4.352000	 64.3556
4.436000	 64.2381
4.520000	 64.2002
4.604000	 64.1388
4.688000	 64.1898
4.772000	 64.0655
4.856000	 64.0303
4.940000	 63.9271
5.024000	 63.9078
5.108000	 63.8341
5.192000	 63.8176
5.276000	 63.7968
5.359999	 63.7833
5.444000	 63.7394
5.528000	 63.7926
5.612000	 63.6226
5.696000	 63.578
5.780000	 63.347
5.864000	 63.5672
5.948000	 63.4666
6.032000	 63.5222
6.116000	 63.4406
6.200000	 63.2821
6.284000	 63.4105
6.368000	 63.3579
6.452000	 63.3397
6.536000	 63.3325
6.620000	 63.3572
6.704000	 63.3211
6.788000	 63.1375
6.872000	 63.2046
6.956000	 63.2342
7.040000	 63.1152
7.124000	 63.1819
7.208000	 63.0588
7.292000	 63.0415
7.376000	 63.1518
7.460000	 63.1964
7.544000	 63.1266
7.628000	 63.0161
7.712000	 63.0479
7.796000	 62.9077
7.880000	 62.9385
7.964000	 62.8897
8.048000	 62.8422
8.132000	 62.8447
8.216000	 62.8527
8.300000	 62.7864
8.384000	 62.8471
8.468000	 62.7668
8.552000	 62.5985
8.635999	 62.7602
8.719999	 62.5819
8.804000	 62.7031
8.888000	 62.6783
8.972000	 62.7446
9.056000	 62.5699
9.140000	 62.4533
9.224000	 62.4122
9.308000	 62.5604
9.391999	 62.6483
9.475999	 62.5481
9.560000	 62.6564
9.644000	 62.4601
9.728000	 62.5618
9.812000	 62.4346
9.896000	 62.3711
9.980000	 62.5575
10.064	62.4194
10.148	62.5209
10.232	62.6332
10.316	62.6125
10.4	62.5611
10.484	62.5093
10.568	62.5224
10.652	62.4301
10.736	62.5739
10.82	62.3626
10.904	62.2505
10.988	62.35
11.072	62.4707
11.156	62.4804
11.24	62.5212
11.324	62.4157
11.408	62.3718
11.492	62.4109
11.576	62.3578
11.66	62.4005
11.744	62.5703
11.828	62.3712
11.912	62.29
11.996	62.3716
12.08	62.4953
12.164	62.2508
12.248	62.3801
12.332	62.4207
12.416	62.2529
12.5	62.4382
12.584	62.4669
12.668	62.3338
12.752	62.235
12.836	62.1295
12.92	62.0857
13.004	62.1254
13.088	62.0366
13.172	62.0484
13.256	62.0733
13.34	62.0646
13.424	62.0835
13.508	61.9771
13.592	61.8957
13.676	61.8287
13.76	61.8148
13.844	61.9207
13.928	61.976
14.012	61.9154
14.096	61.8107
14.18	61.7527
14.264	61.7563
14.348	61.7829
14.432	61.8
14.516	61.759
14.6	61.6367
14.684	61.5526
14.768	61.522
14.852	61.4191
14.936	61.2892
15.02	61.2717
15.104	61.2852
15.188	61.2533
15.272	61.3978
15.356	61.6838
15.44	61.7292
15.524	61.6155
15.608	61.6178
15.692	61.5956
15.776	61.5128
15.86	61.534
15.944	61.4854
16.028	61.1603
16.112	60.9079
16.196	61.1997
16.28	61.8443
16.364	62.1465
16.448	61.7884
16.532	61.2623
16.616	61.186
16.7	61.4647
16.784	61.5482
16.868	61.2114
16.952	60.69
17.036	60.2185
17.12	59.8737
17.204	59.7542
17.288	59.918
17.372	60.2447
17.456	60.6544
17.54	61.2321
17.624	61.8679
17.708	62.1738
17.792	61.9883
17.876	61.6065
17.96	61.3588
18.044	61.2755
18.128	61.2546
18.212	61.2839
18.296	61.4043
18.38	61.6472
18.464	62.03
18.548	62.4819
18.632	62.7818
18.716	62.6924
18.8	62.1839
18.884	61.4797
18.968	60.8879
19.052	60.6117
19.136	60.6584
19.22	60.8631
19.304	61.0129
19.388	60.9977
19.472	60.8628
19.556	60.734
19.64	60.6793
19.724	60.6642
19.808	60.6306
19.892	60.6038
19.976	60.6839
20.06	60.9418
20.144	61.3306
20.228	61.7195
20.312	62.0158
20.396	62.2109
20.48	62.3152
20.564	62.2845
20.648	62.0637
20.732	61.68
20.816	61.2487
20.9	60.8941
20.984	60.6743
21.068	60.5858
21.152	60.6295
21.236	60.8231
21.32	61.1499
21.404	61.5018
21.488	61.7062
21.572	61.6367
21.656	61.2975
21.74	60.8255
21.824	60.4153
21.908	60.2118
21.992	60.2452
22.076	60.4376
22.16	60.6501
22.244	60.7489
22.328	60.663
22.412	60.3988
22.496	60.0435
22.58	59.7259
22.664	59.5709
22.748	59.6591
22.832	60.0013
22.916	60.5376
23	61.1616
23.084	61.753
23.168	62.2061
23.252	62.4657
23.336	62.5191
23.42	62.3889
23.504	62.1317
23.588	61.8207
23.672	61.5302
23.756	61.3323
23.84	61.258
23.924	61.2946
24.008	61.3851
24.092	61.4428
24.176	61.3996
24.26	61.2339
24.344	60.9575
24.428	60.5929
24.512	60.1736
24.596	59.6969
24.68	59.15
24.764	58.5578
24.848	57.9985
24.932	57.6155
25.016	57.5703
25.1	57.9937
25.184	58.9064
25.268	60.1942
25.352	61.6692
25.436	63.1578
25.52	64.5677
25.604	65.8851
25.688	67.1619
25.772	68.4203
25.856	69.5588
25.94	70.3328
26.024	70.3833
26.108	69.3818
26.192	67.1843
26.276	63.9263
26.36	60.065
26.444	56.2396
26.528	53.1246
26.612	51.2094
26.696	50.852
26.78	52.2437
26.864	55.3658
26.948	59.9168
27.028	64.9462