File: Bakgrunnsmateriale/MATLAB/FTIR/ftir_data/subAa/Mapping_121/BZ1503107-1_t68_cm-1.asc
PE IR       SPECTRUM    SPECTRUM    ASCII       PEDS        1.60
  -1
BZ6031~1.ASC
17/04/07
18:52:40.00
17/04/07
18:52:40.00
tln
$BZ1503107-1_t0068$<tbV0>[10.4,2.6,8.0,0.0,27,1,0]
370
64

2002,4.07
MIRTGS : RIGHTBACK : INTERNAL 2
MIR : ON : INTERNAL 2
OPTKBR

0.200000
8
8.000000
FILLER
RATIO
SPECTRUM
UNLOCKED 256

DOUBLE
64
COMBINED
1
0
0

1.000000
RATIO

1
0
TRUE
51149
0
LEFT NOT FITTED RIGHT NOT FITTED 0
NONE
NONE
15600
12
4.427000
51148
TRUE
1 0 8 72 0 0 0 0

15798

#HDR
-1
-1
#GR
CM-1
%T
2.38419e-05
0.0
5000
-1.000000
4631
8
80.1269
50.4947
#DATA
5000	65.2046
4984	64.9664
4968	64.6374
4952	64.6173
4936	64.6473
4920	64.9829
4904	64.8147
4888	65.0018
4872	64.9509
4856	64.6805
4840	65.2917
4824	64.4839
4808	65.1548
4792	64.5275
4776	64.7574
4760	64.6865
4744	65.0672
4728	65.1834
4712	64.7609
4696	65.3495
4680	64.8886
4664	64.9094
4648	64.7446
4632	65.3469
4616	64.8893
4600	65.0099
4584	64.6173
4568	64.8852
4552	64.5266
4536	64.8693
4520	64.7945
4504	64.8758
4488	64.6222
4472	63.9842
4456	64.7494
4440	64.6189
4424	50.7051
4408	78.6129
4392	64.7523
4376	64.975
4360	64.8187
4344	64.9713
4328	64.3888
4312	64.6735
4296	64.5925
4280	64.8316
4264	64.5517
4248	64.9066
4232	64.8352
4216	64.8555
4200	64.8178
4184	64.9919
4168	65.1869
4152	65.0043
4136	64.7639
4120	65.0819
4104	65.2195
4088	65.1374
4072	64.9228
4056	65.2061
4040	65.1444
4024	65.0586
4008	65.1766
3992	64.9991
3976	65.2005
3960	65.1149
3944	65.1446
3928	64.6755
3912	65.0981
3896	65.2458
3880	65.1321
3864	65.1791
3848	64.985
3832	64.8633
3816	65.0812
3800	64.9818
3784	65.342
3768	65.0094
3752	65.1499
3736	65.1385
3720	65.1598
3704	65.2064
3688	64.9791
3672	65.1784
3656	65.1424
3640	65.2797
3624	65.0618
3608	65.175
3592	65.1131
3576	65.1617
3560	65.1129
3544	65.1354
3528	65.0622
3512	65.0914
3496	65.1065
3480	65.155
3464	65.0941
3448	65.1802
3432	64.9686
3416	65.0249
3400	64.9695
3384	65.061
3368	65.0448
3352	65.1393
3336	65.1966
3320	65.0721
3304	65.0931
3288	65.0492
3272	64.9451
3256	64.9372
3240	64.9705
3224	65.0257
3208	65.1498
3192	65.0654
3176	64.9532
3160	65.1086
3144	65.0768
3128	65.004
3112	64.9053
3096	64.8639
3080	64.967
3064	65.0975
3048	64.8823
3032	64.882
3016	64.9564
3000	65.066
2984	64.9358
2968	64.923
2952	64.8289
2936	64.8742
2920	64.866
2904	64.8243
2888	64.8221
2872	64.8734
2856	64.8651
2840	64.7541
2824	64.7783
2808	64.9844
2792	64.895
2776	65.0326
2760	64.9557
2744	64.9504
2728	64.9005
2712	65.0565
2696	64.9092
2680	65.0788
2664	64.8741
2648	64.9453
2632	64.8334
2616	64.8359
2600	64.7348
2584	64.8031
2568	64.72
2552	64.8514
2536	64.774
2520	64.8612
2504	64.8369
2488	64.7961
2472	64.837
2456	64.7798
2440	64.7393
2424	64.7244
2408	64.9085
2392	64.6876
2376	64.7363
2360	64.7397
2344	64.7302
2328	64.7094
2312	64.7651
2296	64.6218
2280	64.7
2264	64.7293
2248	64.6074
2232	64.6088
2216	64.6352
2200	64.5921
2184	64.6683
2168	64.5582
2152	64.5368
2136	64.5858
2120	64.509
2104	64.5109
2088	64.5559
2072	64.4999
2056	64.4599
2040	64.4221
2024	64.4564
2008	64.5042
1992	64.3919
1976	64.4974
1960	64.5253
1944	64.3843
1928	64.45
1912	64.5365
1896	64.3661
1880	64.4918
1864	64.3114
1848	64.3529
1832	64.2505
1816	64.4353
1800	64.3788
1784	64.3236
1768	64.3842
1752	64.2314
1736	64.0247
1720	64.1025
1704	64.2246
1688	64.2569
1672	64.1292
1656	64.0991
1640	64.091
1624	64.2482
1608	64.079
1592	64.0192
1576	64.0371
1560	64.0584
1544	64.025
1528	64.0073
1512	64.049
1496	63.858
1480	63.9875
1464	63.8194
1448	64.0492
1432	64.0682
1416	64.0354
1400	63.9166
1384	63.8513
1368	63.9136
1352	63.831
1336	64.0008
1320	63.9604
1304	63.8487
1288	63.6686
1272	63.6406
1256	63.8314
1240	63.8558
1224	63.7449
1208	63.6231
1192	63.6022
1176	63.5614
1160	63.4968
1144	63.6969
1128	63.5875
1112	63.5829
1096	63.4145
1080	63.6038
1064	63.5409
1048	63.4622
1032	63.4863
1016	63.5164
1000	63.5442
984	 63.6208
968	 63.4831
952	 63.6061
936	 63.6127
920	 63.7717
904	 63.4237
888	 63.5306
872	 63.6967
856	 63.6109
840	 63.4319
824	 63.4922
808	 63.6889
792	 63.5382
776	 63.5897
760	 63.4485
744	 63.4759
728	 63.0589
712	 63.0305
696	 63.2263
680	 63.2868
664	 62.7601
648	 63.6873
632	 62.0877
616	 62.7635
600	 63.5604
584	 62.8967
568	 63.5328
552	 62.7842
536	 62.5898
520	 63.0932
504	 62.9147
488	 63.1337
472	 62.8455
456	 61.6314
440	 63.1337
424	 63.8151
408	 67.4087
392	 59.8502
376	 57.2824
370	 70.6604