File: Bakgrunnsmateriale/MATLAB/FTIR/ftir_data/subAa/Mapping_121/BZ1503107-1_t102_cm-1.asc
PE IR       SPECTRUM    SPECTRUM    ASCII       PEDS        1.60
  -1
BZCB7B~1.ASC
17/04/07
21:37:27.00
17/04/07
21:37:27.00
tln
$BZ1503107-1_t0102$<tbV0>[7.8,10.4,8.0,0.0,27,1,0]
370
64

2002,4.07
MIRTGS : RIGHTBACK : INTERNAL 2
MIR : ON : INTERNAL 2
OPTKBR

0.200000
8
8.000000
FILLER
RATIO
SPECTRUM
UNLOCKED 256

DOUBLE
64
COMBINED
1
0
0

1.000000
RATIO

1
0
TRUE
51149
0
LEFT NOT FITTED RIGHT NOT FITTED 0
NONE
NONE
15600
12
4.427000
51148
TRUE
1 0 8 72 0 0 0 0

15798

#HDR
-1
-1
#GR
CM-1
%T
2.38419e-05
0.0
5000
-1.000000
4631
8
79.772
57.9841
#DATA
5000	62.1838
4984	62.6161
4968	61.9486
4952	64.4736
4936	63.0144
4920	63.1272
4904	64.0375
4888	63.5027
4872	63.4367
4856	64.0547
4840	63.6485
4824	64.0111
4808	64.1104
4792	64.1732
4776	63.9844
4760	63.8772
4744	64.4368
4728	63.9715
4712	63.6718
4696	64.0521
4680	64.0528
4664	64.3961
4648	64.4083
4632	64.2097
4616	64.249
4600	63.7933
4584	63.7001
4568	63.5901
4552	63.2492
4536	63.4119
4520	63.2163
4504	63.353
4488	62.7077
4472	63.0691
4456	64.8098
4440	75.0459
4424	61.4545
4408	64.9391
4392	63.4145
4376	63.3653
4360	63.6966
4344	63.8159
4328	63.4946
4312	63.307
4296	63.6898
4280	63.6666
4264	63.8608
4248	63.8407
4232	63.9362
4216	63.6183
4200	64.2662
4184	64.1756
4168	64.524
4152	64.0956
4136	63.9684
4120	64.1292
4104	63.836
4088	64.1196
4072	64.1635
4056	64.2982
4040	63.9155
4024	64.1852
4008	64.0314
3992	64.157
3976	63.8921
3960	63.8207
3944	63.9568
3928	64.1883
3912	63.8331
3896	64.0258
3880	64.1515
3864	63.9769
3848	64.1403
3832	64.2233
3816	64.2098
3800	64.1242
3784	64.1928
3768	64.3825
3752	64.3424
3736	64.3026
3720	64.3847
3704	64.3508
3688	64.4374
3672	64.1571
3656	64.2357
3640	64.4207
3624	64.1427
3608	64.2869
3592	64.3609
3576	64.0772
3560	64.1719
3544	64.1313
3528	64.1013
3512	64.21
3496	64.2033
3480	64.2941
3464	64.1196
3448	64.236
3432	64.2889
3416	64.3653
3400	64.1952
3384	64.2734
3368	64.2591
3352	64.2418
3336	64.3037
3320	64.2211
3304	64.3144
3288	64.1789
3272	64.108
3256	64.2908
3240	64.3206
3224	64.1072
3208	64.1733
3192	64.2998
3176	64.2168
3160	64.1545
3144	64.232
3128	64.1286
3112	64.1593
3096	64.2317
3080	64.0936
3064	64.1685
3048	64.2917
3032	64.3346
3016	64.1164
3000	64.096
2984	64.0405
2968	64.0015
2952	64.0089
2936	64.1909
2920	64.1805
2904	64.0968
2888	64.0046
2872	64.0198
2856	64.0335
2840	64.1134
2824	64.1248
2808	64.0414
2792	64.0125
2776	64.1345
2760	64.0926
2744	64.1424
2728	64.1114
2712	64.0944
2696	64.0239
2680	63.9916
2664	64.076
2648	64.1922
2632	64.0496
2616	64.0167
2600	63.9443
2584	63.9743
2568	63.9692
2552	64.0316
2536	63.9992
2520	63.942
2504	63.9638
2488	63.8953
2472	64.0697
2456	64.1031
2440	64.0969
2424	64.0248
2408	63.8707
2392	63.8083
2376	63.9393
2360	63.9266
2344	63.8034
2328	63.9265
2312	63.9267
2296	63.8904
2280	63.853
2264	63.9117
2248	63.8529
2232	63.9491
2216	63.7922
2200	63.7364
2184	63.7697
2168	63.7025
2152	63.7125
2136	63.8972
2120	63.7855
2104	63.7658
2088	63.6906
2072	63.696
2056	63.8474
2040	63.6527
2024	63.704
2008	63.664
1992	63.7516
1976	63.6588
1960	63.5779
1944	63.5667
1928	63.4442
1912	63.6171
1896	63.639
1880	63.4656
1864	63.5833
1848	63.5657
1832	63.5633
1816	63.4588
1800	63.4857
1784	63.4131
1768	63.4531
1752	63.2175
1736	63.129
1720	63.3038
1704	63.2209
1688	63.2594
1672	63.2452
1656	63.3729
1640	63.3342
1624	63.3289
1608	63.2595
1592	63.2417
1576	63.0736
1560	63.1527
1544	63.2504
1528	63.1735
1512	63.1236
1496	63.2613
1480	63.0613
1464	63.113
1448	62.953
1432	63.1872
1416	62.9943
1400	63.0653
1384	62.886
1368	63.0147
1352	62.8931
1336	62.8948
1320	63.0172
1304	62.7899
1288	62.7477
1272	62.8054
1256	62.785
1240	62.8493
1224	62.7869
1208	62.6689
1192	62.7001
1176	62.6085
1160	62.5301
1144	62.5758
1128	62.5141
1112	62.6667
1096	62.5696
1080	62.3827
1064	62.6374
1048	62.4614
1032	62.6633
1016	62.3978
1000	62.5438
984	 62.5017
968	 62.5493
952	 62.5358
936	 62.5587
920	 62.6662
904	 62.3628
888	 62.5001
872	 62.6117
856	 62.4482
840	 62.5962
824	 62.435
808	 62.472
792	 62.2355
776	 62.119
760	 62.1912
744	 62.4032
728	 62.3523
712	 62.1284
696	 61.9598
680	 61.7975
664	 61.7747
648	 62.1122
632	 62.2783
616	 61.8557
600	 62.511
584	 62.315
568	 62.3254
552	 61.9653
536	 62.1136
520	 62.582
504	 61.1346
488	 62.0991
472	 60.6201
456	 60.9425
440	 61.3962
424	 62.3656
408	 58.1165
392	 64.4852
376	 71.9058
370	 75.1373