File: Bakgrunnsmateriale/MATLAB/FTIR/ftir_data/subAa/Mapping_121/BZ1503107-1_t84.asc
PE IR       SPECTRUM    SPECTRUM    ASCII       PEDS        1.60
  -1
BZ2955~1.ASC
17/04/07
20:07:11.00
17/04/07
20:07:37.00
tln
$BZ1503107-1_t0084$<tbV0>[-2.6,5.2,8.0,0.0,27,1,0]
27.028
64

2002,4.07
MIRTGS : RIGHTBACK : INTERNAL 2
MIR : ON : INTERNAL 2
OPTKBR

0.200000
8
8.000000
FILLER
RATIO
SPECTRUM
UNLOCKED 256

DOUBLE
64
COMBINED
1
0
0

0.002000
RATIO

1
0
TRUE
51149
0
LEFT NOT FITTED RIGHT NOT FITTED 0
NONE
NONE
15600
12
4.427000
51148
TRUE
1 0 8 72 0 0 0 0

15798

#HDR
-1
-1
#GR
µM
%T
2.38419e-05
0.0
2.000000
0.002000
12515
8
69.1703
40.0123
#DATA
2.000000	 65.9016
2.084000	 64.422
2.168000	 65.2024
2.252000	 66.2198
2.336000	 65.0204
2.420000	 64.779
2.504000	 64.9369
2.588000	 65.1827
2.672000	 65.1004
2.756000	 64.9279
2.840000	 64.9856
2.924000	 64.9578
3.008000	 64.9983
3.092000	 65.0339
3.176000	 64.9859
3.260000	 64.9876
3.344000	 64.8536
3.428000	 64.6178
3.512000	 64.822
3.596000	 64.8589
3.680000	 64.8356
3.764000	 64.7157
3.848000	 64.6972
3.932000	 64.6034
4.016000	 64.6783
4.100000	 64.6184
4.184000	 64.5062
4.268000	 64.5656
4.352000	 64.5218
4.436000	 64.5177
4.520000	 64.5169
4.604000	 64.3672
4.688000	 64.3168
4.772000	 64.3123
4.856000	 64.2317
4.940000	 64.24
5.024000	 64.1509
5.108000	 64.2185
5.192000	 64.1993
5.276000	 64.179
5.359999	 64.1559
5.444000	 64.1175
5.528000	 64.1771
5.612000	 64.1038
5.696000	 63.9601
5.780000	 63.891
5.864000	 63.8491
5.948000	 63.8968
6.032000	 63.9996
6.116000	 63.7161
6.200000	 63.8712
6.284000	 63.8412
6.368000	 63.834
6.452000	 63.7399
6.536000	 63.7047
6.620000	 63.8014
6.704000	 63.7402
6.788000	 63.7053
6.872000	 63.6959
6.956000	 63.7176
7.040000	 63.5885
7.124000	 63.5768
7.208000	 63.665
7.292000	 63.4995
7.376000	 63.5654
7.460000	 63.5417
7.544000	 63.6326
7.628000	 63.5392
7.712000	 63.3614
7.796000	 63.3672
7.880000	 63.3978
7.964000	 63.4002
8.048000	 63.3925
8.132000	 63.3307
8.216000	 63.3362
8.300000	 63.5541
8.384000	 63.4305
8.468000	 63.3363
8.552000	 63.247
8.635999	 63.3126
8.719999	 63.3884
8.804000	 63.3297
8.888000	 63.2708
8.972000	 63.429
9.056000	 63.3032
9.140000	 63.2084
9.224000	 63.2507
9.308000	 63.2909
9.391999	 63.2838
9.475999	 63.2641
9.560000	 63.2844
9.644000	 63.1806
9.728000	 63.2673
9.812000	 62.996
9.896000	 63.0127
9.980000	 63.285
10.064	63.0187
10.148	63.1308
10.232	63.3362
10.316	63.1016
10.4	63.2971
10.484	63.2163
10.568	63.187
10.652	63.1608
10.736	63.0781
10.82	63.1546
10.904	63.2561
10.988	63.2071
11.072	63.0877
11.156	63.0849
11.24	63.2756
11.324	63.2001
11.408	63.0965
11.492	63.2112
11.576	63.047
11.66	63.1105
11.744	63.0516
11.828	62.9699
11.912	63.0586
11.996	63.0051
12.08	63.1379
12.164	63.3892
12.248	63.0655
12.332	62.9363
12.416	63.1074
12.5	63.061
12.584	62.9781
12.668	62.9987
12.752	62.9279
12.836	63.0799
12.92	62.9384
13.004	62.7419
13.088	62.7824
13.172	62.7979
13.256	62.8693
13.34	62.8447
13.424	62.7136
13.508	62.6819
13.592	62.819
13.676	62.8595
13.76	62.7483
13.844	62.7159
13.928	62.7095
14.012	62.6625
14.096	62.5575
14.18	62.4309
14.264	62.5297
14.348	62.712
14.432	62.837
14.516	62.8669
14.6	62.8023
14.684	62.9112
14.768	63.0264
14.852	62.7802
14.936	62.363
15.02	62.1993
15.104	62.4758
15.188	62.7225
15.272	62.4638
15.356	62.0915
15.44	62.0391
15.524	62.028
15.608	61.7544
15.692	61.55
15.776	61.8893
15.86	62.4892
15.944	62.6042
16.028	62.2521
16.112	62.0737
16.196	62.2312
16.28	62.4738
16.364	62.6685
16.448	62.7151
16.532	62.6632
16.616	62.69
16.7	62.6934
16.784	62.5372
16.868	62.453
16.952	62.5762
17.036	62.656
17.12	62.5695
17.204	62.5229
17.288	62.6637
17.372	62.9183
17.456	63.1743
17.54	63.3592
17.624	63.3388
17.708	62.949
17.792	62.2316
17.876	61.6152
17.96	61.596
18.044	62.1928
18.128	62.871
18.212	63.0712
18.296	62.7385
18.38	62.3361
18.464	62.3225
18.548	62.6685
18.632	62.9282
18.716	62.7812
18.8	62.3761
18.884	62.1046
18.968	62.1513
19.052	62.3645
19.136	62.5092
19.22	62.5018
19.304	62.4311
19.388	62.4163
19.472	62.5166
19.556	62.7024
19.64	62.865
19.724	62.8671
19.808	62.6435
19.892	62.2893
19.976	62.0154
20.06	61.99
20.144	62.1951
20.228	62.4491
20.312	62.5826
20.396	62.5772
20.48	62.543
20.564	62.583
20.648	62.6959
20.732	62.7991
20.816	62.814
20.9	62.7223
20.984	62.5537
21.068	62.3545
21.152	62.1727
21.236	62.056
21.32	62.034
21.404	62.0994
21.488	62.2092
21.572	62.3114
21.656	62.3752
21.74	62.3907
21.824	62.3606
21.908	62.2966
21.992	62.2251
22.076	62.1917
22.16	62.2457
22.244	62.4062
22.328	62.6306
22.412	62.8363
22.496	62.9472
22.58	62.9476
22.664	62.8871
22.748	62.8457
22.832	62.8597
22.916	62.8959
23	62.8726
23.084	62.7215
23.168	62.4427
23.252	62.1128
23.336	61.8388
23.42	61.6807
23.504	61.6164
23.588	61.5493
23.672	61.3768
23.756	61.0592
23.84	60.6515
23.924	60.2885
24.008	60.1129
24.092	60.204
24.176	60.5349
24.26	60.9833
24.344	61.3494
24.428	61.453
24.512	61.2235
24.596	60.7087
24.68	60.0437
24.764	59.3951
24.848	58.8976
24.932	58.6358
25.016	58.6206
25.1	58.8017
25.184	59.0849
25.268	59.3699
25.352	59.5808
25.436	59.6829
25.52	59.7262
25.604	59.8361
25.688	60.1144
25.772	60.5552
25.856	61.0038
25.94	61.0692
26.024	60.2637
26.108	58.285
26.192	55.0509
26.276	50.8505
26.36	46.4248
26.444	42.7039
26.528	40.4712
26.612	40.0883
26.696	41.3927
26.78	43.762
26.864	46.212
26.948	47.8182
27.028	48.146