File: Bakgrunnsmateriale/MATLAB/FTIR/ftir_data/subAa/Mapping_121/BZ1503107-1_t43.asc
PE IR       SPECTRUM    SPECTRUM    ASCII       PEDS        1.60
  -1
BZ255D~1.ASC
17/04/07
16:42:51.00
17/04/07
16:43:17.00
tln
$BZ1503107-1_t0043$<tbV0>[-10.4,-5.2,8.0,0.0,27,1,0]
27.028
64

2002,4.07
MIRTGS : RIGHTBACK : INTERNAL 2
MIR : ON : INTERNAL 2
OPTKBR

0.200000
8
8.000000
FILLER
RATIO
SPECTRUM
UNLOCKED 256

DOUBLE
64
COMBINED
1
0
0

0.002000
RATIO

1
0
TRUE
51149
0
LEFT NOT FITTED RIGHT NOT FITTED 0
NONE
NONE
15600
12
4.427000
51148
TRUE
1 0 8 72 0 0 0 0

15798

#HDR
-1
-1
#GR
µM
%T
2.38419e-05
0.0
2.000000
0.002000
12515
8
84.689
59.5403
#DATA
2.000000	 65.2682
2.084000	 64.9516
2.168000	 64.8925
2.252000	 64.3573
2.336000	 64.3807
2.420000	 65.3597
2.504000	 65.1934
2.588000	 65.0382
2.672000	 65.1718
2.756000	 65.4404
2.840000	 65.1111
2.924000	 65.1553
3.008000	 65.1692
3.092000	 65.1612
3.176000	 65.1113
3.260000	 65.1015
3.344000	 65.1004
3.428000	 65.014
3.512000	 64.9811
3.596000	 65.0602
3.680000	 65.1782
3.764000	 65.0911
3.848000	 65.03
3.932000	 65.0139
4.016000	 64.8961
4.100000	 65.0491
4.184000	 65.0137
4.268000	 65.0104
4.352000	 64.9529
4.436000	 64.8446
4.520000	 64.8419
4.604000	 64.8838
4.688000	 64.8058
4.772000	 64.8222
4.856000	 64.7688
4.940000	 64.7572
5.024000	 64.7764
5.108000	 64.796
5.192000	 64.7831
5.276000	 64.6551
5.359999	 64.6509
5.444000	 64.6252
5.528000	 64.6761
5.612000	 64.6124
5.696000	 64.3882
5.780000	 64.2762
5.864000	 64.5347
5.948000	 64.4735
6.032000	 64.476
6.116000	 64.4923
6.200000	 64.305
6.284000	 64.4039
6.368000	 64.3887
6.452000	 64.3873
6.536000	 64.3473
6.620000	 64.4187
6.704000	 64.3211
6.788000	 64.3834
6.872000	 64.2632
6.956000	 64.4144
7.040000	 64.3833
7.124000	 64.4108
7.208000	 64.1492
7.292000	 64.3051
7.376000	 64.2024
7.460000	 64.308
7.544000	 64.3127
7.628000	 64.1861
7.712000	 64.2008
7.796000	 64.204
7.880000	 64.1859
7.964000	 64.2418
8.048000	 64.1434
8.132000	 64.0474
8.216000	 64.2376
8.300000	 64.1499
8.384000	 64.1211
8.468000	 63.9545
8.552000	 64.0009
8.635999	 64.011
8.719999	 63.9531
8.804000	 63.9875
8.888000	 63.9049
8.972000	 64.1632
9.056000	 64.0987
9.140000	 63.8586
9.224000	 63.9176
9.308000	 64.0929
9.391999	 63.942
9.475999	 63.9832
9.560000	 64.1112
9.644000	 63.9539
9.728000	 64.1342
9.812000	 64.0906
9.896000	 64.1521
9.980000	 64.1112
10.064	63.9836
10.148	63.9885
10.232	64.1881
10.316	63.9514
10.4	63.8922
10.484	63.9545
10.568	64.0312
10.652	63.9448
10.736	63.8813
10.82	64.1137
10.904	64.3371
10.988	64.1283
11.072	64.1181
11.156	64.0452
11.24	64.18
11.324	64.1046
11.408	64.1256
11.492	64.0552
11.576	64.1111
11.66	64.1458
11.744	64.2024
11.828	64.0966
11.912	64.2133
11.996	64.088
12.08	63.8445
12.164	63.9609
12.248	63.8937
12.332	63.7778
12.416	63.9626
12.5	64.0706
12.584	64.0714
12.668	64.0323
12.752	64.0789
12.836	64.0867
12.92	63.9086
13.004	63.9262
13.088	63.9733
13.172	63.9806
13.256	63.669
13.34	63.6908
13.424	64.1249
13.508	63.9656
13.592	63.666
13.676	63.6259
13.76	63.7212
13.844	63.7265
13.928	63.6917
14.012	63.4391
14.096	63.1929
14.18	63.4449
14.264	64.061
14.348	64.3378
14.432	64.1018
14.516	63.9949
14.6	64.0383
14.684	63.8329
14.768	63.4841
14.852	63.3462
14.936	63.579
15.02	63.9477
15.104	64.1429
15.188	64.2491
15.272	64.3236
15.356	64.1519
15.44	63.8272
15.524	63.8207
15.608	64.1317
15.692	64.1526
15.776	63.8039
15.86	63.6486
15.944	63.7897
16.028	63.7575
16.112	63.4103
16.196	63.1362
16.28	63.2274
16.364	63.5649
16.448	63.9219
16.532	64.1794
16.616	64.3249
16.7	64.4071
16.784	64.4189
16.868	64.3224
16.952	64.199
17.036	64.1421
17.12	64.0995
17.204	64.0451
17.288	64.0918
17.372	64.2754
17.456	64.3852
17.54	64.1813
17.624	63.7568
17.708	63.4771
17.792	63.5335
17.876	63.7302
17.96	63.8323
18.044	63.8672
18.128	63.9253
18.212	63.9273
18.296	63.7414
18.38	63.3749
18.464	62.9946
18.548	62.811
18.632	62.9376
18.716	63.2898
18.8	63.635
18.884	63.8009
18.968	63.7993
19.052	63.7388
19.136	63.6743
19.22	63.5918
19.304	63.479
19.388	63.3699
19.472	63.3184
19.556	63.3445
19.64	63.4191
19.724	63.481
19.808	63.4688
19.892	63.3545
19.976	63.1589
20.06	62.9446
20.144	62.7848
20.228	62.7208
20.312	62.7325
20.396	62.7667
20.48	62.8103
20.564	62.9168
20.648	63.1358
20.732	63.4221
20.816	63.6352
20.9	63.6526
20.984	63.4933
21.068	63.3079
21.152	63.2412
21.236	63.3048
21.32	63.3808
21.404	63.3455
21.488	63.1792
21.572	62.9707
21.656	62.837
21.74	62.8362
21.824	62.9374
21.908	63.0529
21.992	63.0995
22.076	63.0367
22.16	62.8729
22.244	62.6478
22.328	62.4097
22.412	62.2103
22.496	62.0948
22.58	62.0892
22.664	62.1955
22.748	62.3893
22.832	62.628
22.916	62.8523
23	62.9946
23.084	62.9981
23.168	62.8404
23.252	62.5578
23.336	62.2428
23.42	62.0061
23.504	61.9303
23.588	62.0081
23.672	62.1475
23.756	62.2231
23.84	62.1494
23.924	61.9339
24.008	61.6514
24.092	61.3858
24.176	61.1932
24.26	61.068
24.344	60.9711
24.428	60.8728
24.512	60.7747
24.596	60.6792
24.68	60.5857
24.764	60.4962
24.848	60.4125
24.932	60.3639
25.016	60.4175
25.1	60.6803
25.184	61.2223
25.268	62.0327
25.352	63.0398
25.436	64.1035
25.52	65.0753
25.604	65.8711
25.688	66.5638
25.772	67.3511
25.856	68.416
25.94	69.8152
26.024	71.3647
26.108	72.6367
26.192	73.193
26.276	72.7227
26.36	71.1533
26.444	68.6785
26.528	65.7387
26.612	62.8345
26.696	60.5727
26.78	59.5552
26.864	60.3017
26.948	63.0773
27.028	67.4391