File: Bakgrunnsmateriale/MATLAB/FTIR/ftir_data/subAa/Mapping_121/BZ1503107-1_t19.asc
PE IR       SPECTRUM    SPECTRUM    ASCII       PEDS        1.60
  -1
BZ2D6B~1.ASC
17/04/07
14:44:13.00
17/04/07
14:44:39.00
tln
$BZ1503107-1_t0019$<tbV0>[-5.2,-10.4,8.0,0.0,27,1,0]
27.028
64

2002,4.07
MIRTGS : RIGHTBACK : INTERNAL 2
MIR : ON : INTERNAL 2
OPTKBR

0.200000
8
8.000000
FILLER
RATIO
SPECTRUM
UNLOCKED 256

DOUBLE
64
COMBINED
1
0
0

0.002000
RATIO

1
0
TRUE
51149
0
LEFT NOT FITTED RIGHT NOT FITTED 0
NONE
NONE
15600
12
4.427000
51148
TRUE
1 0 8 72 0 0 0 0

15798

#HDR
-1
-1
#GR
µM
%T
2.38419e-05
0.0
2.000000
0.002000
12515
8
73.3686
50.2451
#DATA
2.000000	 64.1699
2.084000	 65.7838
2.168000	 64.5839
2.252000	 68.1323
2.336000	 64.7952
2.420000	 64.9343
2.504000	 64.9843
2.588000	 65.2425
2.672000	 65.4363
2.756000	 65.3464
2.840000	 65.1363
2.924000	 65.2731
3.008000	 65.2301
3.092000	 64.9589
3.176000	 65.1995
3.260000	 65.1831
3.344000	 65.0818
3.428000	 65.032
3.512000	 65.0723
3.596000	 65.0495
3.680000	 65.0284
3.764000	 64.9972
3.848000	 65.0857
3.932000	 65.0189
4.016000	 65.0321
4.100000	 64.9996
4.184000	 64.978
4.268000	 64.925
4.352000	 64.9396
4.436000	 64.9318
4.520000	 64.97
4.604000	 64.9594
4.688000	 64.8516
4.772000	 64.8857
4.856000	 64.8777
4.940000	 64.9299
5.024000	 64.7605
5.108000	 64.8749
5.192000	 64.812
5.276000	 64.8308
5.359999	 64.8581
5.444000	 64.7497
5.528000	 64.804
5.612000	 64.7981
5.696000	 64.6599
5.780000	 64.5667
5.864000	 64.6948
5.948000	 64.8851
6.032000	 64.7752
6.116000	 64.6344
6.200000	 64.7176
6.284000	 64.7796
6.368000	 64.7026
6.452000	 64.5832
6.536000	 64.6131
6.620000	 64.7323
6.704000	 64.5898
6.788000	 64.741
6.872000	 64.4891
6.956000	 64.5343
7.040000	 64.4737
7.124000	 64.4116
7.208000	 64.3958
7.292000	 64.3484
7.376000	 64.4774
7.460000	 64.3723
7.544000	 64.4234
7.628000	 64.3263
7.712000	 64.3396
7.796000	 64.248
7.880000	 64.2994
7.964000	 64.3161
8.048000	 64.3113
8.132000	 64.1253
8.216000	 64.203
8.300000	 64.2875
8.384000	 64.3012
8.468000	 64.2035
8.552000	 64.2901
8.635999	 64.2217
8.719999	 64.1066
8.804000	 64.3293
8.888000	 64.2977
8.972000	 64.2434
9.056000	 64.1294
9.140000	 64.2977
9.224000	 64.3683
9.308000	 64.0979
9.391999	 64.0162
9.475999	 64.2408
9.560000	 64.091
9.644000	 64.0369
9.728000	 63.9758
9.812000	 64.2286
9.896000	 64.0892
9.980000	 64.0412
10.064	64.0716
10.148	64.1173
10.232	64.1254
10.316	64.0254
10.4	64.2579
10.484	64.2339
10.568	64.1933
10.652	64.2929
10.736	64.3192
10.82	64.4702
10.904	64.3829
10.988	64.2097
11.072	64.1006
11.156	64.0739
11.24	63.9604
11.324	64.1486
11.408	64.2431
11.492	64.2347
11.576	64.2279
11.66	64.1178
11.744	64.1811
11.828	64.3418
11.912	64.2937
11.996	64.2264
12.08	64.0294
12.164	63.8533
12.248	63.9624
12.332	64.1744
12.416	64.1909
12.5	64.1078
12.584	64.2006
12.668	64.1746
12.752	64.1396
12.836	64.087
12.92	64.0569
13.004	63.9572
13.088	63.9408
13.172	64.2195
13.256	64.1297
13.34	63.9873
13.424	64.0273
13.508	63.8493
13.592	63.6207
13.676	63.751
13.76	64.1387
13.844	64.2237
13.928	64.0326
14.012	63.9265
14.096	63.8775
14.18	63.8662
14.264	64.0293
14.348	64.0688
14.432	63.9652
14.516	64.0085
14.6	64.0937
14.684	63.9963
14.768	63.9684
14.852	64.1066
14.936	63.9916
15.02	63.654
15.104	63.6287
15.188	63.8565
15.272	63.8378
15.356	63.723
15.44	63.8246
15.524	63.8975
15.608	63.8986
15.692	64.003
15.776	63.9883
15.86	63.7577
15.944	63.6295
16.028	63.8041
16.112	64.0796
16.196	64.1
16.28	63.8166
16.364	63.5118
16.448	63.3815
16.532	63.4173
16.616	63.3326
16.7	62.703
16.784	61.784
16.868	61.5087
16.952	62.1087
17.036	62.8091
17.12	63.1233
17.204	63.2912
17.288	63.4377
17.372	63.3924
17.456	63.2471
17.54	63.3359
17.624	63.7326
17.708	64.111
17.792	64.0999
17.876	63.6885
17.96	63.2446
18.044	63.1101
18.128	63.3012
18.212	63.6072
18.296	63.8897
18.38	64.1657
18.464	64.4021
18.548	64.4506
18.632	64.2783
18.716	64.0836
18.8	64.0812
18.884	64.2721
18.968	64.4528
19.052	64.4145
19.136	64.1594
19.22	63.9043
19.304	63.8388
19.388	63.9247
19.472	63.9731
19.556	63.8675
19.64	63.6662
19.724	63.4923
19.808	63.3956
19.892	63.3544
19.976	63.3709
20.06	63.4955
20.144	63.7518
20.228	64.0673
20.312	64.308
20.396	64.3906
20.48	64.3376
20.564	64.2544
20.648	64.2477
20.732	64.3698
20.816	64.6019
20.9	64.8734
20.984	65.0842
21.068	65.1333
21.152	64.9436
21.236	64.4948
21.32	63.8553
21.404	63.1855
21.488	62.6943
21.572	62.5471
21.656	62.785
21.74	63.2966
21.824	63.8756
21.908	64.3358
21.992	64.5971
22.076	64.6884
22.16	64.6912
22.244	64.6615
22.328	64.597
22.412	64.4631
22.496	64.245
22.58	63.9878
22.664	63.7796
22.748	63.7016
22.832	63.7702
22.916	63.9276
23	64.0757
23.084	64.1425
23.168	64.1044
23.252	63.9901
23.336	63.864
23.42	63.7687
23.504	63.7162
23.588	63.6885
23.672	63.6527
23.756	63.5725
23.84	63.4373
23.924	63.253
24.008	63.0395
24.092	62.8171
24.176	62.5775
24.26	62.2893
24.344	61.9185
24.428	61.4719
24.512	61.0345
24.596	60.767
24.68	60.897
24.764	61.6409
24.848	63.0875
24.932	65.0933
25.016	67.2764
25.1	69.1792
25.184	70.3342
25.268	70.4639
25.352	69.5759
25.436	67.8874
25.52	65.7485
25.604	63.5246
25.688	61.384
25.772	59.4038
25.856	57.6779
25.94	56.7107
26.024	56.6391
26.108	56.6163
26.192	55.9368
26.276	54.7086
26.36	54.9438
26.444	57.5971
26.528	61.9114
26.612	63.6759
26.696	60.2747
26.78	53.5073
26.864	50.2986
26.948	57.6957
27.028	73.3686