File: Bakgrunnsmateriale/MATLAB/FTIR/ftir_data/subAa/Mapping_121/BZ1503107-1_t113.asc
PE IR       SPECTRUM    SPECTRUM    ASCII       PEDS        1.60
  -1
BZDABE~1.ASC
17/04/07
22:34:29.00
17/04/07
22:34:55.00
tln
$BZ1503107-1_t0113$<tbV0>[7.8,13.0,8.0,0.0,27,1,0]
27.028
64

2002,4.07
MIRTGS : RIGHTBACK : INTERNAL 2
MIR : ON : INTERNAL 2
OPTKBR

0.200000
8
8.000000
FILLER
RATIO
SPECTRUM
UNLOCKED 256

DOUBLE
64
COMBINED
1
0
0

0.002000
RATIO

1
0
TRUE
51149
0
LEFT NOT FITTED RIGHT NOT FITTED 0
NONE
NONE
15600
12
4.427000
51148
TRUE
1 0 8 72 0 0 0 0

15798

#HDR
-1
-1
#GR
µM
%T
2.38419e-05
0.0
2.000000
0.002000
12515
8
68.9041
50.3434
#DATA
2.000000	 65.4717
2.084000	 64.8241
2.168000	 65.0423
2.252000	 59.8258
2.336000	 65.0819
2.420000	 64.8362
2.504000	 64.8811
2.588000	 64.9388
2.672000	 65.0375
2.756000	 65.0849
2.840000	 64.8097
2.924000	 64.9083
3.008000	 65.0019
3.092000	 64.8565
3.176000	 64.7583
3.260000	 64.7317
3.344000	 64.7405
3.428000	 64.7787
3.512000	 64.7106
3.596000	 64.7809
3.680000	 64.6651
3.764000	 64.5585
3.848000	 64.6211
3.932000	 64.5729
4.016000	 64.415
4.100000	 64.4553
4.184000	 64.5421
4.268000	 64.3112
4.352000	 64.3353
4.436000	 64.3005
4.520000	 64.2914
4.604000	 64.1961
4.688000	 64.1457
4.772000	 64.0877
4.856000	 64.0544
4.940000	 64.038
5.024000	 64.0523
5.108000	 64.0139
5.192000	 64.0147
5.276000	 63.9643
5.359999	 63.813
5.444000	 63.8891
5.528000	 63.9096
5.612000	 63.9366
5.696000	 63.6713
5.780000	 63.6147
5.864000	 63.5989
5.948000	 63.6941
6.032000	 63.562
6.116000	 63.529
6.200000	 63.4011
6.284000	 63.5433
6.368000	 63.4247
6.452000	 63.3973
6.536000	 63.4301
6.620000	 63.4488
6.704000	 63.361
6.788000	 63.3246
6.872000	 63.2915
6.956000	 63.1821
7.040000	 63.2085
7.124000	 63.2415
7.208000	 63.115
7.292000	 63.1146
7.376000	 63.196
7.460000	 63.1465
7.544000	 63.2231
7.628000	 63.0726
7.712000	 63.1046
7.796000	 63.0809
7.880000	 62.9641
7.964000	 62.8539
8.048000	 62.9656
8.132000	 62.9756
8.216000	 62.983
8.300000	 62.9568
8.384000	 62.9522
8.468000	 62.8773
8.552000	 62.8171
8.635999	 62.8808
8.719999	 62.889
8.804000	 62.7378
8.888000	 62.7757
8.972000	 62.649
9.056000	 62.8196
9.140000	 62.7165
9.224000	 62.6428
9.308000	 62.4729
9.391999	 62.7413
9.475999	 62.618
9.560000	 62.6651
9.644000	 62.6675
9.728000	 62.5885
9.812000	 62.5479
9.896000	 62.5427
9.980000	 62.6827
10.064	62.5208
10.148	62.7042
10.232	62.6925
10.316	62.584
10.4	62.5041
10.484	62.6309
10.568	62.8319
10.652	62.478
10.736	62.5856
10.82	62.7501
10.904	62.7467
10.988	62.6991
11.072	62.7128
11.156	62.7104
11.24	62.5845
11.324	62.4614
11.408	62.4697
11.492	62.5404
11.576	62.5306
11.66	62.3753
11.744	62.414
11.828	62.4901
11.912	62.3989
11.996	62.546
12.08	62.557
12.164	62.5829
12.248	62.6935
12.332	62.5271
12.416	62.4203
12.5	62.665
12.584	62.7783
12.668	62.5233
12.752	62.376
12.836	62.2912
12.92	62.1714
13.004	62.1886
13.088	62.135
13.172	62.0364
13.256	62.0282
13.34	62.1118
13.424	62.1738
13.508	62.1122
13.592	62.1714
13.676	62.2503
13.76	62.1104
13.844	62.1006
13.928	62.287
14.012	62.1573
14.096	61.8719
14.18	61.8346
14.264	62.0041
14.348	62.1646
14.432	62.2568
14.516	62.4606
14.6	62.6027
14.684	62.4709
14.768	62.2066
14.852	61.9597
14.936	61.7786
15.02	61.644
15.104	61.7201
15.188	62.0624
15.272	62.1394
15.356	61.6998
15.44	61.324
15.524	61.4358
15.608	61.7413
15.692	61.6664
15.776	61.0271
15.86	60.3486
15.944	60.2251
16.028	60.5805
16.112	60.9441
16.196	61.1679
16.28	61.4203
16.364	61.5731
16.448	61.3019
16.532	60.9127
16.616	61.0767
16.7	61.7938
16.784	62.439
16.868	62.577
16.952	62.3151
17.036	61.9877
17.12	61.7567
17.204	61.5604
17.288	61.3117
17.372	60.9704
17.456	60.5975
17.54	60.4567
17.624	60.7575
17.708	61.2793
17.792	61.5886
17.876	61.6101
17.96	61.6355
18.044	61.815
18.128	61.9816
18.212	61.9781
18.296	61.8858
18.38	61.8761
18.464	61.961
18.548	61.9693
18.632	61.7228
18.716	61.2564
18.8	60.8131
18.884	60.5913
18.968	60.575
19.052	60.6507
19.136	60.7616
19.22	60.9143
19.304	61.1337
19.388	61.4188
19.472	61.7176
19.556	61.9292
19.64	61.9564
19.724	61.7663
19.808	61.4201
19.892	61.0297
19.976	60.6924
20.06	60.4503
20.144	60.306
20.228	60.2514
20.312	60.2911
20.396	60.4244
20.48	60.6174
20.564	60.8098
20.648	60.9785
20.732	61.1516
20.816	61.356
20.9	61.5571
20.984	61.6768
21.068	61.6766
21.152	61.6117
21.236	61.5894
21.32	61.6724
21.404	61.827
21.488	61.9616
21.572	62.009
21.656	61.9458
21.74	61.7722
21.824	61.499
21.908	61.1625
21.992	60.8422
22.076	60.638
22.16	60.6085
22.244	60.711
22.328	60.8141
22.412	60.7739
22.496	60.5199
22.58	60.1096
22.664	59.6902
22.748	59.4291
22.832	59.4278
22.916	59.6989
23	60.1561
23.084	60.6666
23.168	61.0859
23.252	61.3191
23.336	61.3401
23.42	61.1886
23.504	60.959
23.588	60.751
23.672	60.6213
23.756	60.561
23.84	60.4879
23.924	60.2964
24.008	59.9263
24.092	59.4087
24.176	58.865
24.26	58.4751
24.344	58.3928
24.428	58.6577
24.512	59.2133
24.596	59.931
24.68	60.6736
24.764	61.3571
24.848	61.9825
24.932	62.6037
25.016	63.2745
25.1	64.0218
25.184	64.8014
25.268	65.528
25.352	66.145
25.436	66.6713
25.52	67.1874
25.604	67.7594
25.688	68.3628
25.772	68.8184
25.856	68.8235
25.94	68.0289
26.024	66.1898
26.108	63.3425
26.192	59.8077
26.276	56.1355
26.36	52.988
26.444	50.9431
26.528	50.3498
26.612	51.1861
26.696	53.2368
26.78	56.2125
26.864	59.8412
26.948	63.8623
27.028	67.7303