File: Bakgrunnsmateriale/MATLAB/FTIR/ftir_data/subAa/Mapping_121/BZ1503107-1_t33.asc
PE IR       SPECTRUM    SPECTRUM    ASCII       PEDS        1.60
  -1
BZ2557~1.ASC
17/04/07
15:56:02.00
17/04/07
15:56:29.00
tln
$BZ1503107-1_t0033$<tbV0>[-13.0,-7.8,8.0,0.0,27,1,0]
27.028
64

2002,4.07
MIRTGS : RIGHTBACK : INTERNAL 2
MIR : ON : INTERNAL 2
OPTKBR

0.200000
8
8.000000
FILLER
RATIO
SPECTRUM
UNLOCKED 256

DOUBLE
64
COMBINED
1
0
0

0.002000
RATIO

1
0
TRUE
51149
0
LEFT NOT FITTED RIGHT NOT FITTED 0
NONE
NONE
15600
12
4.427000
51148
TRUE
1 0 8 72 0 0 0 0

15798

#HDR
-1
-1
#GR
µM
%T
2.38419e-05
0.0
2.000000
0.002000
12515
8
76.6354
48.5142
#DATA
2.000000	 65.3728
2.084000	 64.983
2.168000	 64.5896
2.252000	 65.6016
2.336000	 64.5894
2.420000	 65.0353
2.504000	 65.2973
2.588000	 64.9439
2.672000	 65.0864
2.756000	 65.2375
2.840000	 65.0093
2.924000	 65.2725
3.008000	 65.0829
3.092000	 65.0739
3.176000	 64.9979
3.260000	 65.0556
3.344000	 65.2633
3.428000	 64.8962
3.512000	 64.8798
3.596000	 64.9256
3.680000	 65.1936
3.764000	 64.9871
3.848000	 65.0756
3.932000	 64.9502
4.016000	 64.9631
4.100000	 64.9251
4.184000	 64.9811
4.268000	 64.8841
4.352000	 64.9762
4.436000	 64.8233
4.520000	 64.8947
4.604000	 64.7347
4.688000	 64.8244
4.772000	 64.8561
4.856000	 64.7367
4.940000	 64.9032
5.024000	 64.7942
5.108000	 64.8396
5.192000	 64.806
5.276000	 64.7288
5.359999	 64.8317
5.444000	 64.7816
5.528000	 64.6861
5.612000	 64.6625
5.696000	 64.5373
5.780000	 64.2906
5.864000	 64.5392
5.948000	 64.5488
6.032000	 64.531
6.116000	 64.4695
6.200000	 64.3902
6.284000	 64.4296
6.368000	 64.4135
6.452000	 64.4125
6.536000	 64.4096
6.620000	 64.5327
6.704000	 64.4267
6.788000	 64.4471
6.872000	 64.5643
6.956000	 64.5814
7.040000	 64.3442
7.124000	 64.3503
7.208000	 64.3403
7.292000	 64.5295
7.376000	 64.3464
7.460000	 64.327
7.544000	 64.3014
7.628000	 64.3281
7.712000	 64.3105
7.796000	 64.317
7.880000	 64.2623
7.964000	 64.2223
8.048000	 64.2726
8.132000	 64.0705
8.216000	 64.2225
8.300000	 64.2283
8.384000	 64.0163
8.468000	 64.1743
8.552000	 64.0297
8.635999	 64.0751
8.719999	 64.0974
8.804000	 63.9876
8.888000	 64.0438
8.972000	 64.1394
9.056000	 64.2996
9.140000	 64.057
9.224000	 64.1277
9.308000	 64.0719
9.391999	 64.0425
9.475999	 64.0954
9.560000	 64.0737
9.644000	 64.1256
9.728000	 64.1176
9.812000	 64.0548
9.896000	 64.0985
9.980000	 64.286
10.064	64.3019
10.148	64.2282
10.232	64.2831
10.316	64.2065
10.4	64.3027
10.484	64.4239
10.568	64.2604
10.652	64.1383
10.736	64.206
10.82	64.3341
10.904	64.4654
10.988	64.3129
11.072	64.2111
11.156	64.1578
11.24	64.2629
11.324	64.2132
11.408	64.2511
11.492	64.3652
11.576	64.3078
11.66	64.1514
11.744	64.086
11.828	64.1337
11.912	64.215
11.996	64.159
12.08	64.1628
12.164	64.1954
12.248	64.0865
12.332	64.0301
12.416	63.8686
12.5	64.0763
12.584	64.3393
12.668	64.3744
12.752	64.3278
12.836	64.0958
12.92	64.0763
13.004	64.0973
13.088	63.94
13.172	63.762
13.256	63.8118
13.34	64.0546
13.424	64.31
13.508	64.4467
13.592	64.2586
13.676	64.0048
13.76	63.5118
13.844	63.4031
13.928	63.9738
14.012	64.3696
14.096	64.3161
14.18	64.1756
14.264	64.1587
14.348	64.4094
14.432	64.4576
14.516	64.0188
14.6	63.6654
14.684	63.3021
14.768	62.9098
14.852	63.0621
14.936	63.5233
15.02	63.6845
15.104	63.463
15.188	63.2339
15.272	63.2786
15.356	63.4348
15.44	63.6353
15.524	64.0803
15.608	64.6068
15.692	64.8089
15.776	64.6784
15.86	64.515
15.944	64.4251
16.028	64.3113
16.112	64.0919
16.196	63.7756
16.28	63.5319
16.364	63.5599
16.448	63.7967
16.532	64.0359
16.616	64.2487
16.7	64.4843
16.784	64.6432
16.868	64.5911
16.952	64.3293
17.036	63.9708
17.12	63.6972
17.204	63.6921
17.288	63.9752
17.372	64.3646
17.456	64.6355
17.54	64.6712
17.624	64.4912
17.708	64.2249
17.792	64.05
17.876	64.0804
17.96	64.301
18.044	64.5809
18.128	64.7097
18.212	64.5567
18.296	64.1985
18.38	63.8267
18.464	63.5927
18.548	63.5403
18.632	63.6086
18.716	63.6994
18.8	63.7647
18.884	63.8036
18.968	63.8189
19.052	63.8127
19.136	63.8025
19.22	63.8216
19.304	63.9026
19.388	64.0308
19.472	64.1215
19.556	64.0757
19.64	63.8865
19.724	63.675
19.808	63.5915
19.892	63.6868
19.976	63.8728
20.06	64.0096
20.144	64.0225
20.228	63.9363
20.312	63.8289
20.396	63.7751
20.48	63.8213
20.564	63.9729
20.648	64.17
20.732	64.297
20.816	64.2572
20.9	64.0595
20.984	63.8318
21.068	63.7281
21.152	63.8018
21.236	63.9603
21.32	64.0407
21.404	63.9398
21.488	63.6954
21.572	63.4481
21.656	63.3284
21.74	63.3709
21.824	63.5102
21.908	63.6439
21.992	63.7038
22.076	63.6792
22.16	63.5999
22.244	63.5064
22.328	63.4163
22.412	63.3137
22.496	63.1679
22.58	62.9702
22.664	62.7574
22.748	62.6151
22.832	62.6266
22.916	62.8174
23	63.1052
23.084	63.3436
23.168	63.3875
23.252	63.1819
23.336	62.7751
23.42	62.2969
23.504	61.8765
23.588	61.5785
23.672	61.4042
23.756	61.335
23.84	61.3669
23.924	61.5141
24.008	61.7709
24.092	62.0719
24.176	62.2927
24.26	62.3551
24.344	62.2833
24.428	62.1935
24.512	62.2458
24.596	62.5134
24.68	62.8978
24.764	63.1404
24.848	62.9622
24.932	62.2155
25.016	61.0191
25.1	59.7204
25.184	58.7898
25.268	58.5972
25.352	59.2738
25.436	60.6384
25.52	62.2593
25.604	63.6476
25.688	64.3443
25.772	64.0496
25.856	62.6768
25.94	60.3702
26.024	57.4697
26.108	54.4093
26.192	51.6704
26.276	49.6664
26.36	48.6428
26.444	48.6335
26.528	49.4612
26.612	50.76
26.696	52.0864
26.78	53.0307
26.864	53.3565
26.948	53.1074
27.028	52.6476