File: Bakgrunnsmateriale/MATLAB/FTIR/ftir_data/subAa/Mapping_121/BZ1503107-1_t108_cm-1.asc
PE IR       SPECTRUM    SPECTRUM    ASCII       PEDS        1.60
  -1
BZCB7C~1.ASC
17/04/07
22:05:09.00
17/04/07
22:05:09.00
tln
$BZ1503107-1_t0108$<tbV0>[-7.8,10.4,8.0,0.0,27,1,0]
370
64

2002,4.07
MIRTGS : RIGHTBACK : INTERNAL 2
MIR : ON : INTERNAL 2
OPTKBR

0.200000
8
8.000000
FILLER
RATIO
SPECTRUM
UNLOCKED 256

DOUBLE
64
COMBINED
1
0
0

1.000000
RATIO

1
0
TRUE
51149
0
LEFT NOT FITTED RIGHT NOT FITTED 0
NONE
NONE
15600
12
4.427000
51148
TRUE
1 0 8 72 0 0 0 0

15798

#HDR
-1
-1
#GR
CM-1
%T
2.38419e-05
0.0
5000
-1.000000
4631
8
86.9529
38.3128
#DATA
5000	66.8541
4984	64.4401
4968	63.4613
4952	66.7612
4936	65.5611
4920	64.9757
4904	65.7837
4888	64.9275
4872	65.2068
4856	64.9447
4840	65.2324
4824	65.3542
4808	65.3625
4792	65.2299
4776	65.7939
4760	65.306
4744	65.3434
4728	65.2933
4712	65.2612
4696	65.3989
4680	65.7425
4664	65.4766
4648	65.4145
4632	65.4551
4616	65.3336
4600	65.1149
4584	64.8972
4568	65.0874
4552	64.078
4536	64.9281
4520	64.49
4504	64.7228
4488	63.3489
4472	63.7924
4456	65.4351
4440	85.057
4424	63.1124
4408	65.7986
4392	64.0589
4376	64.2588
4360	64.7988
4344	64.3862
4328	64.7765
4312	64.6127
4296	64.7757
4280	65.0761
4264	64.631
4248	65.335
4232	65.2424
4216	64.9992
4200	65.1777
4184	65.3856
4168	65.3475
4152	65.3676
4136	65.2592
4120	65.1861
4104	65.3124
4088	65.2128
4072	65.2056
4056	65.1134
4040	65.3177
4024	65.1628
4008	65.0237
3992	65.2631
3976	65.2324
3960	64.9999
3944	64.9274
3928	65.1079
3912	65.0102
3896	65.2133
3880	65.2753
3864	65.1518
3848	64.9017
3832	65.0944
3816	65.3244
3800	65.1276
3784	65.2428
3768	65.2267
3752	65.224
3736	65.2847
3720	65.2818
3704	65.1356
3688	65.4248
3672	65.2426
3656	65.229
3640	65.3001
3624	65.255
3608	65.2053
3592	65.4083
3576	65.0387
3560	65.2391
3544	65.0029
3528	65.2174
3512	65.0409
3496	65.2451
3480	65.0213
3464	65.2061
3448	65.0279
3432	65.1011
3416	65.1526
3400	65.0665
3384	65.0422
3368	65.0761
3352	65.1779
3336	65.0409
3320	65.0886
3304	65.2184
3288	65.104
3272	65.0381
3256	65.2104
3240	65.048
3224	64.9471
3208	64.9353
3192	65.0676
3176	65.0276
3160	64.9914
3144	65.0271
3128	64.8341
3112	64.8871
3096	65.0178
3080	64.883
3064	64.8376
3048	65.0773
3032	64.9047
3016	64.9163
3000	64.9771
2984	64.7261
2968	64.2985
2952	64.2994
2936	64.3751
2920	64.61
2904	64.5312
2888	64.5349
2872	64.5654
2856	64.5577
2840	64.82
2824	64.8036
2808	64.7548
2792	64.7322
2776	64.8349
2760	64.8049
2744	64.7131
2728	64.9015
2712	64.8191
2696	64.6977
2680	64.7855
2664	64.7071
2648	64.792
2632	64.7009
2616	64.6955
2600	64.612
2584	64.6831
2568	64.7225
2552	64.7225
2536	64.5929
2520	64.7148
2504	64.4511
2488	64.5959
2472	64.6081
2456	64.6888
2440	64.5444
2424	64.6265
2408	64.544
2392	64.5785
2376	64.4622
2360	64.6717
2344	64.5739
2328	64.4739
2312	64.4478
2296	64.3682
2280	64.3164
2264	64.4719
2248	64.456
2232	64.4299
2216	64.3543
2200	64.2413
2184	64.3177
2168	64.3495
2152	64.3344
2136	64.2782
2120	64.1783
2104	64.2983
2088	64.1545
2072	64.1019
2056	64.2851
2040	64.2122
2024	64.0314
2008	64.1403
1992	64.2291
1976	64.1125
1960	64.1649
1944	64.0402
1928	64.0653
1912	64.1691
1896	64.0942
1880	64.0302
1864	63.993
1848	63.9242
1832	64.0252
1816	64.0206
1800	63.9872
1784	63.6945
1768	63.797
1752	63.3233
1736	62.4038
1720	63.1155
1704	63.6103
1688	63.5837
1672	63.6649
1656	63.7776
1640	63.7537
1624	63.6597
1608	63.7451
1592	63.6207
1576	63.5158
1560	63.4874
1544	63.4152
1528	63.5477
1512	63.4569
1496	63.6606
1480	63.4315
1464	63.2759
1448	63.2479
1432	63.3412
1416	63.316
1400	63.2177
1384	63.0683
1368	63.1486
1352	63.1481
1336	63.0446
1320	63.1828
1304	62.9516
1288	62.9214
1272	62.9113
1256	62.5867
1240	62.5508
1224	62.7717
1208	62.6463
1192	62.7643
1176	62.4389
1160	62.2351
1144	62.6879
1128	62.6997
1112	62.6704
1096	62.8569
1080	62.4675
1064	62.478
1048	62.4899
1032	62.4935
1016	62.5531
1000	62.415
984	 62.7464
968	 62.6435
952	 62.5175
936	 62.6379
920	 62.7276
904	 62.5039
888	 62.5036
872	 62.6572
856	 62.4918
840	 62.3803
824	 62.5249
808	 62.5467
792	 62.501
776	 62.2386
760	 62.2804
744	 62.4519
728	 62.2176
712	 61.6514
696	 62.1464
680	 62.0752
664	 62.2862
648	 61.6941
632	 61.5032
616	 61.7724
600	 61.2145
584	 62.2667
568	 62.3429
552	 62.6011
536	 62.003
520	 61.6158
504	 61.9541
488	 62.4474
472	 61.7063
456	 61.2143
440	 60.1795
424	 64.2991
408	 61.1461
392	 64.6943
376	 45.0477
370	 42.8499