File: Bakgrunnsmateriale/MATLAB/FTIR/ftir_data/subAa/Mapping_121/BZ1503107-1_t102.asc
PE IR       SPECTRUM    SPECTRUM    ASCII       PEDS        1.60
  -1
BZD6BA~1.ASC
17/04/07
21:37:27.00
17/04/07
21:37:53.00
tln
$BZ1503107-1_t0102$<tbV0>[7.8,10.4,8.0,0.0,27,1,0]
27.028
64

2002,4.07
MIRTGS : RIGHTBACK : INTERNAL 2
MIR : ON : INTERNAL 2
OPTKBR

0.200000
8
8.000000
FILLER
RATIO
SPECTRUM
UNLOCKED 256

DOUBLE
64
COMBINED
1
0
0

0.002000
RATIO

1
0
TRUE
51149
0
LEFT NOT FITTED RIGHT NOT FITTED 0
NONE
NONE
15600
12
4.427000
51148
TRUE
1 0 8 72 0 0 0 0

15798

#HDR
-1
-1
#GR
µM
%T
2.38419e-05
0.0
2.000000
0.002000
12515
8
78.8512
57.9832
#DATA
2.000000	 62.1838
2.084000	 64.4662
2.168000	 64.2873
2.252000	 76.3388
2.336000	 63.6881
2.420000	 64.2384
2.504000	 64.1238
2.588000	 63.9767
2.672000	 64.3133
2.756000	 64.2139
2.840000	 64.1331
2.924000	 64.4186
3.008000	 64.1447
3.092000	 64.2444
3.176000	 64.1752
3.260000	 64.1131
3.344000	 64.0419
3.428000	 64.0931
3.512000	 64.0686
3.596000	 64.1176
3.680000	 64.0915
3.764000	 64.0693
3.848000	 63.9597
3.932000	 63.8954
4.016000	 63.8955
4.100000	 64.0904
4.184000	 63.7602
4.268000	 63.8057
4.352000	 63.8654
4.436000	 63.8694
4.520000	 63.8059
4.604000	 63.7814
4.688000	 63.8415
4.772000	 63.722
4.856000	 63.7681
4.940000	 63.7049
5.024000	 63.7721
5.108000	 63.6277
5.192000	 63.4286
5.276000	 63.639
5.359999	 63.5648
5.444000	 63.5942
5.528000	 63.4282
5.612000	 63.4117
5.696000	 63.2813
5.780000	 63.0059
5.864000	 63.237
5.948000	 63.2316
6.032000	 63.3707
6.116000	 63.31
6.200000	 63.2597
6.284000	 63.2495
6.368000	 63.2095
6.452000	 63.0718
6.536000	 63.1557
6.620000	 63.1481
6.704000	 63.2321
6.788000	 63.1312
6.872000	 63.0558
6.956000	 63.1285
7.040000	 63.0394
7.124000	 63.0653
7.208000	 62.8591
7.292000	 62.9688
7.376000	 62.8594
7.460000	 62.8999
7.544000	 62.9464
7.628000	 62.9504
7.712000	 62.8872
7.796000	 62.655
7.880000	 62.8305
7.964000	 62.7806
8.048000	 62.8827
8.132000	 62.8449
8.216000	 62.7067
8.300000	 62.6837
8.384000	 62.6983
8.468000	 62.6446
8.552000	 62.4935
8.635999	 62.5544
8.719999	 62.6004
8.804000	 62.7064
8.888000	 62.4944
8.972000	 62.6779
9.056000	 62.674
9.140000	 62.5225
9.224000	 62.4528
9.308000	 62.4219
9.391999	 62.6327
9.475999	 62.6418
9.560000	 62.4382
9.644000	 62.5971
9.728000	 62.6924
9.812000	 62.4786
9.896000	 62.4413
9.980000	 62.5455
10.064	62.4446
10.148	62.4821
10.232	62.6131
10.316	62.5825
10.4	62.419
10.484	62.5171
10.568	62.4862
10.652	62.5634
10.736	62.5215
10.82	62.6135
10.904	62.6465
10.988	62.5299
11.072	62.3394
11.156	62.2631
11.24	62.424
11.324	62.6188
11.408	62.6323
11.492	62.5333
11.576	62.3572
11.66	62.4634
11.744	62.3381
11.828	62.3253
11.912	62.6166
11.996	62.5925
12.08	62.4311
12.164	62.4416
12.248	62.458
12.332	62.4969
12.416	62.4301
12.5	62.3559
12.584	62.2544
12.668	62.2764
12.752	62.3679
12.836	62.2535
12.92	62.0515
13.004	62.1177
13.088	62.2512
13.172	62.1705
13.256	62.0856
13.34	62.2173
13.424	62.4023
13.508	62.2941
13.592	62.2064
13.676	62.319
13.76	62.3317
13.844	62.15
13.928	62.0193
14.012	62.0852
14.096	62.1502
14.18	62.0397
14.264	61.9392
14.348	61.949
14.432	62.0102
14.516	62.0865
14.6	62.0067
14.684	61.8155
14.768	61.8759
14.852	62.1268
14.936	62.1696
15.02	61.9216
15.104	61.6566
15.188	61.6655
15.272	61.9073
15.356	62.0965
15.44	62.1058
15.524	61.9598
15.608	61.7876
15.692	61.8529
15.776	62.1619
15.86	62.269
15.944	61.9161
16.028	61.5184
16.112	61.5449
16.196	61.7992
16.28	61.8435
16.364	61.7405
16.448	61.8133
16.532	62.103
16.616	62.4051
16.7	62.537
16.784	62.4862
16.868	62.4353
16.952	62.4994
17.036	62.5262
17.12	62.3268
17.204	62.014
17.288	61.9282
17.372	62.1833
17.456	62.4749
17.54	62.4811
17.624	62.2778
17.708	62.1133
17.792	61.99
17.876	61.7592
17.96	61.5257
18.044	61.5962
18.128	62.0421
18.212	62.5175
18.296	62.6165
18.38	62.2993
18.464	61.8992
18.548	61.7766
18.632	62.008
18.716	62.3504
18.8	62.4718
18.884	62.2693
18.968	61.9696
19.052	61.9203
19.136	62.2079
19.22	62.5538
19.304	62.6105
19.388	62.3342
19.472	61.9869
19.556	61.8206
19.64	61.8139
19.724	61.7213
19.808	61.3528
19.892	60.7632
19.976	60.1893
20.06	59.8603
20.144	59.8766
20.228	60.2278
20.312	60.8249
20.396	61.5031
20.48	62.0455
20.564	62.2745
20.648	62.1697
20.732	61.8794
20.816	61.5909
20.9	61.3933
20.984	61.2405
21.068	61.0379
21.152	60.7501
21.236	60.4439
21.32	60.2367
21.404	60.2265
21.488	60.4328
21.572	60.7831
21.656	61.1354
21.74	61.3306
21.824	61.2801
21.908	61.0264
21.992	60.7001
22.076	60.4292
22.16	60.2668
22.244	60.1763
22.328	60.1237
22.412	60.1239
22.496	60.2423
22.58	60.5396
22.664	61.004
22.748	61.5202
22.832	61.9391
22.916	62.1389
23	62.0936
23.084	61.8605
23.168	61.548
23.252	61.2625
23.336	61.1034
23.42	61.1725
23.504	61.5829
23.588	62.4028
23.672	63.5922
23.756	64.9507
23.84	66.1418
23.924	66.7819
24.008	66.5961
24.092	65.5366
24.176	63.8249
24.26	61.8509
24.344	60.0613
24.428	58.769
24.512	58.1067
24.596	57.9988
24.68	58.2338
24.764	58.5718
24.848	58.8529
24.932	59.0518
25.016	59.2734
25.1	59.6746
25.184	60.3752
25.268	61.3695
25.352	62.5342
25.436	63.6614
25.52	64.5787
25.604	65.2462
25.688	65.7572
25.772	66.3033
25.856	67.07
25.94	68.16
26.024	69.511
26.108	70.8829
26.192	72.0091
26.276	72.692
26.36	72.8608
26.444	72.6171
26.528	72.1939
26.612	71.8636
26.696	71.8539
26.78	72.2762
26.864	73.0791
26.948	74.1068
27.028	75.1373