File: Bakgrunnsmateriale/MATLAB/FTIR/ftir_data/subAa/Mapping_121/BZ1503107-1_t119_cm-1.asc
PE IR       SPECTRUM    SPECTRUM    ASCII       PEDS        1.60
  -1
BZ4CF9~1.ASC
17/04/07
23:02:13.00
17/04/07
23:02:13.00
tln
$BZ1503107-1_t0119$<tbV0>[-7.8,13.0,8.0,0.0,27,1,0]
370
64

2002,4.07
MIRTGS : RIGHTBACK : INTERNAL 2
MIR : ON : INTERNAL 2
OPTKBR

0.200000
8
8.000000
FILLER
RATIO
SPECTRUM
UNLOCKED 256

DOUBLE
64
COMBINED
1
0
0

1.000000
RATIO

1
0
TRUE
51149
0
LEFT NOT FITTED RIGHT NOT FITTED 0
NONE
NONE
15600
12
4.427000
51148
TRUE
1 0 8 72 0 0 0 0

15798

#HDR
-1
-1
#GR
CM-1
%T
2.38419e-05
0.0
5000
-1.000000
4631
8
75.4431
58.8168
#DATA
5000	64.4112
4984	64.835
4968	64.6738
4952	64.6826
4936	65.1117
4920	65.2128
4904	64.8081
4888	64.8484
4872	64.791
4856	64.9801
4840	64.8487
4824	64.8649
4808	64.625
4792	64.7211
4776	64.536
4760	64.8863
4744	65.2809
4728	64.7268
4712	64.7181
4696	64.6618
4680	64.7341
4664	64.9794
4648	65.0555
4632	65.0381
4616	64.8141
4600	64.5267
4584	64.7733
4568	64.7467
4552	64.0258
4536	64.4398
4520	64.313
4504	64.1422
4488	63.842
4472	63.8668
4456	64.9257
4440	63.8895
4424	65.3837
4408	65.9585
4392	64.6791
4376	64.3424
4360	64.7259
4344	64.7027
4328	64.7094
4312	64.4753
4296	64.6311
4280	64.8946
4264	64.4419
4248	64.6059
4232	64.8717
4216	65.0426
4200	64.8799
4184	64.7763
4168	64.9322
4152	64.9129
4136	64.7351
4120	64.9896
4104	65.2547
4088	64.7865
4072	65.229
4056	65.0863
4040	64.8427
4024	64.9388
4008	64.8232
3992	64.8233
3976	64.8561
3960	64.8342
3944	65.064
3928	64.6698
3912	64.9562
3896	64.7319
3880	64.9482
3864	64.944
3848	64.7855
3832	64.9882
3816	64.9453
3800	65.0049
3784	64.695
3768	65.076
3752	64.9433
3736	64.9277
3720	65.0515
3704	65.0245
3688	65.039
3672	64.9346
3656	65.0254
3640	65.0069
3624	65.1112
3608	64.9518
3592	64.9737
3576	64.9168
3560	64.9394
3544	64.6854
3528	64.5769
3512	64.7868
3496	64.7449
3480	64.884
3464	64.7443
3448	64.9463
3432	64.9331
3416	64.8825
3400	64.8731
3384	64.7189
3368	64.9532
3352	64.8991
3336	64.8499
3320	64.8802
3304	64.8168
3288	64.8219
3272	64.8359
3256	64.9199
3240	64.8923
3224	64.7205
3208	64.7231
3192	64.9779
3176	64.8943
3160	64.8872
3144	64.7625
3128	64.6626
3112	64.7456
3096	64.8403
3080	64.784
3064	64.764
3048	64.6595
3032	64.7493
3016	64.7758
3000	64.8031
2984	64.7363
2968	64.724
2952	64.5604
2936	64.5343
2920	64.5569
2904	64.4056
2888	64.6145
2872	64.5251
2856	64.5724
2840	64.5421
2824	64.5408
2808	64.6835
2792	64.5898
2776	64.5954
2760	64.5442
2744	64.6003
2728	64.6168
2712	64.6247
2696	64.4923
2680	64.5043
2664	64.4467
2648	64.492
2632	64.3357
2616	64.5627
2600	64.5224
2584	64.491
2568	64.5004
2552	64.465
2536	64.4764
2520	64.4261
2504	64.4166
2488	64.3313
2472	64.3253
2456	64.3957
2440	64.4385
2424	64.2311
2408	64.3106
2392	64.3805
2376	64.3156
2360	64.2855
2344	64.2297
2328	64.4298
2312	64.3204
2296	64.3307
2280	64.2064
2264	64.1949
2248	64.2402
2232	64.1275
2216	64.2651
2200	64.2006
2184	64.0752
2168	64.0864
2152	64.0754
2136	64.0881
2120	64.1382
2104	64.0641
2088	63.9412
2072	64.0228
2056	63.918
2040	63.9305
2024	63.8574
2008	63.9019
1992	63.8417
1976	63.8439
1960	63.8427
1944	63.8654
1928	63.9003
1912	63.8403
1896	63.7897
1880	63.8181
1864	63.7437
1848	63.8227
1832	63.8162
1816	63.6878
1800	63.8111
1784	63.6583
1768	63.6844
1752	63.4805
1736	63.2697
1720	63.3842
1704	63.5816
1688	63.6135
1672	63.4902
1656	63.488
1640	63.4218
1624	63.3845
1608	63.3593
1592	63.325
1576	63.3424
1560	63.2857
1544	63.2487
1528	63.3019
1512	63.2767
1496	63.2465
1480	63.1512
1464	63.0816
1448	63.1687
1432	63.0833
1416	63.1236
1400	63.1064
1384	62.993
1368	62.9853
1352	63.0061
1336	63.069
1320	63.0419
1304	62.9647
1288	62.9301
1272	62.85
1256	62.7173
1240	62.7503
1224	62.8078
1208	62.7477
1192	62.8069
1176	62.6278
1160	62.6526
1144	62.5648
1128	62.5518
1112	62.7165
1096	62.4478
1080	62.6405
1064	62.6405
1048	62.4198
1032	62.5916
1016	62.463
1000	62.4145
984	 62.3799
968	 62.3787
952	 62.3135
936	 62.5214
920	 62.4266
904	 62.3772
888	 62.2801
872	 62.34
856	 62.363
840	 62.1521
824	 62.3471
808	 62.1899
792	 62.2422
776	 61.8939
760	 62.0247
744	 62.0185
728	 61.9066
712	 61.8486
696	 61.8342
680	 61.6099
664	 61.7159
648	 61.3295
632	 62.0606
616	 60.5653
600	 61.5652
584	 60.3703
568	 60.312
552	 61.9881
536	 62.0458
520	 60.7932
504	 60.5432
488	 60.9846
472	 60.9026
456	 59.6722
440	 59.6702
424	 60.8302
408	 60.8589
392	 64.8257
376	 63.0254
370	 68.3148