File: Bakgrunnsmateriale/MATLAB/FTIR/ftir_data/subAa/Mapping_121/BZ1503107-1_t33_cm-1.asc
PE IR       SPECTRUM    SPECTRUM    ASCII       PEDS        1.60
  -1
BZ6BA0~1.ASC
17/04/07
15:56:02.00
17/04/07
15:56:02.00
tln
$BZ1503107-1_t0033$<tbV0>[-13.0,-7.8,8.0,0.0,27,1,0]
370
64

2002,4.07
MIRTGS : RIGHTBACK : INTERNAL 2
MIR : ON : INTERNAL 2
OPTKBR

0.200000
8
8.000000
FILLER
RATIO
SPECTRUM
UNLOCKED 256

DOUBLE
64
COMBINED
1
0
0

1.000000
RATIO

1
0
TRUE
51149
0
LEFT NOT FITTED RIGHT NOT FITTED 0
NONE
NONE
15600
12
4.427000
51148
TRUE
1 0 8 72 0 0 0 0

15798

#HDR
-1
-1
#GR
CM-1
%T
2.38419e-05
0.0
5000
-1.000000
4631
8
76.6842
48.5344
#DATA
5000	65.3728
4984	64.514
4968	64.2419
4952	64.316
4936	64.2495
4920	64.5835
4904	64.7212
4888	64.6764
4872	64.734
4856	65.0295
4840	65.1317
4824	65.1222
4808	65.0789
4792	64.8354
4776	64.9945
4760	65.0988
4744	65.3927
4728	65.2019
4712	65.5805
4696	65.2955
4680	65.0494
4664	64.7497
4648	64.8759
4632	64.5524
4616	64.6842
4600	64.1659
4584	64.6476
4568	64.3228
4552	64.2983
4536	64.2169
4520	63.6649
4504	64.1203
4488	63.9465
4472	64.0811
4456	64.8968
4440	65.837
4424	76.2518
4408	73.904
4392	64.4273
4376	63.7651
4360	64.1901
4344	64.4192
4328	63.9843
4312	64.1781
4296	64.4048
4280	64.5726
4264	64.793
4248	64.5017
4232	64.8234
4216	65.0167
4200	65.3884
4184	64.9229
4168	64.9986
4152	65.0645
4136	64.9995
4120	65.2329
4104	65.3583
4088	65.1967
4072	65.23
4056	65.3353
4040	65.2485
4024	65.0818
4008	65.2488
3992	65.2984
3976	65.0522
3960	65.1589
3944	65.0701
3928	65.0033
3912	65.0829
3896	65.0795
3880	64.925
3864	64.944
3848	65.026
3832	65.0941
3816	65.396
3800	65.108
3784	65.0132
3768	65.1807
3752	65.0727
3736	65.0908
3720	65.187
3704	65.2117
3688	65.0832
3672	65.2246
3656	65.5332
3640	65.1481
3624	65.276
3608	65.2644
3592	65.2272
3576	65.05
3560	64.8843
3544	65.1753
3528	64.9703
3512	65.1622
3496	64.9645
3480	64.9837
3464	65.0584
3448	64.9546
3432	65.1016
3416	65.2109
3400	65.1266
3384	65.2018
3368	65.1836
3352	65.1442
3336	65.2305
3320	65.1239
3304	65.0175
3288	65.1155
3272	65.2664
3256	65.1031
3240	65.1055
3224	65.2385
3208	65.12
3192	65.185
3176	65.1439
3160	65.0284
3144	64.8728
3128	64.9994
3112	65.1495
3096	65.1093
3080	65.0413
3064	65.1134
3048	64.9992
3032	64.9256
3016	64.9412
3000	65.2268
2984	65.1882
2968	64.897
2952	65.0697
2936	64.78
2920	64.9104
2904	64.9453
2888	65.0532
2872	64.9374
2856	65.0853
2840	65.0091
2824	65.0931
2808	64.9876
2792	65.1603
2776	65.0194
2760	65.1934
2744	65.0519
2728	65.0539
2712	65.07
2696	65.2003
2680	65.1802
2664	64.9422
2648	65.0486
2632	65.0311
2616	64.9179
2600	65.0508
2584	65.0298
2568	65.0105
2552	65.1286
2536	64.9916
2520	64.888
2504	64.9418
2488	64.9455
2472	64.9863
2456	64.8913
2440	64.8969
2424	64.8745
2408	65.0332
2392	64.954
2376	64.9621
2360	64.9601
2344	64.8867
2328	64.9859
2312	64.901
2296	64.9594
2280	64.9352
2264	64.7624
2248	64.9261
2232	64.9114
2216	64.8906
2200	64.8577
2184	64.8443
2168	64.805
2152	64.8735
2136	64.8614
2120	64.8982
2104	64.8992
2088	64.801
2072	64.797
2056	64.7196
2040	64.751
2024	64.9053
2008	64.8444
1992	64.8033
1976	64.8145
1960	64.8418
1944	64.8452
1928	64.8113
1912	64.7684
1896	64.7146
1880	64.6767
1864	64.8193
1848	64.8461
1832	64.7024
1816	64.7658
1800	64.8027
1784	64.6729
1768	64.6121
1752	64.5306
1736	64.2644
1720	64.3836
1704	64.546
1688	64.5671
1672	64.6054
1656	64.5101
1640	64.4196
1624	64.369
1608	64.3937
1592	64.4324
1576	64.3891
1560	64.4699
1544	64.4484
1528	64.3815
1512	64.5438
1496	64.4849
1480	64.4582
1464	64.4914
1448	64.4341
1432	64.4643
1416	64.3884
1400	64.3199
1384	64.3376
1368	64.4653
1352	64.3417
1336	64.4359
1320	64.2882
1304	64.2911
1288	64.2943
1272	64.278
1256	64.2287
1240	64.2417
1224	64.1473
1208	64.2701
1192	64.0076
1176	64.1637
1160	64.045
1144	64.1025
1128	64.0293
1112	64.1522
1096	64.098
1080	64.1117
1064	64.0381
1048	64.1281
1032	64.1195
1016	64.0512
1000	64.3193
984	 64.2518
968	 64.2181
952	 64.3907
936	 64.1553
920	 64.4434
904	 64.2297
888	 64.2591
872	 64.3611
856	 64.1236
840	 64.2142
824	 64.2164
808	 63.9283
792	 64.368
776	 64.0465
760	 63.7853
744	 64.3624
728	 63.6575
712	 64.3828
696	 64.4678
680	 63.1778
664	 63.6091
648	 63.6081
632	 64.5771
616	 63.642
600	 64.391
584	 63.6912
568	 64.5439
552	 64.7076
536	 63.6365
520	 63.8281
504	 63.6102
488	 63.8367
472	 63.8661
456	 63.6681
440	 62.6385
424	 61.5872
408	 62.2416
392	 62.0758
376	 50.4961
370	 52.6476