File: Bakgrunnsmateriale/MATLAB/FTIR/ftir_data/subAa/Mapping_121/BZ1503107-1_t66_cm-1.asc
PE IR       SPECTRUM    SPECTRUM    ASCII       PEDS        1.60
  -1
BZ6E21~1.ASC
17/04/07
18:36:41.00
17/04/07
18:36:41.00
tln
$BZ1503107-1_t0066$<tbV0>[-13.0,0.0,8.0,0.0,27,1,0]
370
64

2002,4.07
MIRTGS : RIGHTBACK : INTERNAL 2
MIR : ON : INTERNAL 2
OPTKBR

0.200000
8
8.000000
FILLER
RATIO
SPECTRUM
UNLOCKED 256

DOUBLE
64
COMBINED
1
0
0

1.000000
RATIO

1
0
TRUE
51149
0
LEFT NOT FITTED RIGHT NOT FITTED 0
NONE
NONE
15600
12
4.427000
51148
TRUE
1 0 8 72 0 0 0 0

15798

#HDR
-1
-1
#GR
CM-1
%T
2.38419e-05
0.0
5000
-1.000000
4631
8
79.5573
54.8076
#DATA
5000	65.6723
4984	65.9544
4968	65.1518
4952	64.9275
4936	65.5577
4920	65.0018
4904	64.5517
4888	64.5713
4872	64.9878
4856	65.2067
4840	65.3412
4824	64.9812
4808	65.2705
4792	65.2037
4776	65.6732
4760	65.2619
4744	65.343
4728	65.5355
4712	65.2564
4696	65.3455
4680	65.684
4664	65.5759
4648	65.1321
4632	65.4327
4616	64.6271
4600	65.0742
4584	65.1295
4568	64.7948
4552	65.1691
4536	64.9065
4520	64.5396
4504	64.8807
4488	64.7587
4472	64.4706
4456	64.605
4440	64.1655
4424	65.0279
4408	66.5058
4392	65.2167
4376	64.6824
4360	65.6121
4344	64.6617
4328	65.1409
4312	64.7512
4296	64.8422
4280	65.1732
4264	65.1516
4248	65.013
4232	65.0577
4216	65.0569
4200	65.5075
4184	65.1765
4168	65.2949
4152	65.0915
4136	65.1649
4120	65.4225
4104	65.1558
4088	65.4757
4072	65.4353
4056	65.2196
4040	65.3581
4024	65.253
4008	65.3888
3992	65.5209
3976	65.3687
3960	65.3407
3944	65.2248
3928	65.1771
3912	65.3842
3896	65.2066
3880	65.1207
3864	65.4148
3848	65.0973
3832	65.295
3816	65.2867
3800	65.209
3784	65.3777
3768	65.2949
3752	65.3025
3736	65.175
3720	65.3301
3704	65.4061
3688	65.3552
3672	65.4339
3656	65.4346
3640	65.249
3624	65.2413
3608	65.205
3592	65.1619
3576	65.2122
3560	65.333
3544	65.3526
3528	65.2073
3512	65.3679
3496	65.3744
3480	65.1978
3464	65.0345
3448	65.3229
3432	65.0378
3416	65.1868
3400	64.9985
3384	65.1506
3368	65.3141
3352	65.0184
3336	65.2991
3320	65.2237
3304	65.2477
3288	65.3465
3272	65.1533
3256	65.2472
3240	65.2594
3224	65.4143
3208	65.2384
3192	65.3612
3176	65.2056
3160	65.2686
3144	65.1638
3128	65.0937
3112	65.1849
3096	65.1266
3080	65.1024
3064	65.165
3048	65.0308
3032	65.1387
3016	65.0437
3000	64.8886
2984	64.9602
2968	64.6493
2952	64.6748
2936	64.8298
2920	64.9481
2904	64.9425
2888	65.0083
2872	64.8633
2856	65.0781
2840	65.1369
2824	65.1698
2808	65.0421
2792	65.1836
2776	64.9818
2760	64.9945
2744	65.136
2728	65.2002
2712	65.1575
2696	65.0416
2680	65.0947
2664	65.0819
2648	65.098
2632	64.9568
2616	64.9512
2600	64.9367
2584	65.0387
2568	64.9605
2552	64.9751
2536	64.8251
2520	65.0518
2504	64.8568
2488	65.0504
2472	64.9453
2456	64.8191
2440	64.9559
2424	64.8622
2408	65.0764
2392	64.9129
2376	64.8374
2360	64.8985
2344	64.8516
2328	64.8972
2312	64.7289
2296	64.9304
2280	64.8952
2264	64.885
2248	64.7642
2232	64.8379
2216	64.8617
2200	64.844
2184	64.7136
2168	64.6991
2152	64.7404
2136	64.6972
2120	64.7631
2104	64.648
2088	64.6124
2072	64.581
2056	64.7633
2040	64.7016
2024	64.678
2008	64.6789
1992	64.7108
1976	64.6751
1960	64.4506
1944	64.7106
1928	64.7177
1912	64.6142
1896	64.6572
1880	64.5592
1864	64.6354
1848	64.5795
1832	64.5603
1816	64.5198
1800	64.4626
1784	64.5208
1768	64.3638
1752	64.1602
1736	63.45
1720	64.0622
1704	64.1192
1688	64.288
1672	64.2154
1656	64.2205
1640	64.2538
1624	64.2664
1608	64.201
1592	64.2102
1576	64.1937
1560	64.2999
1544	64.2093
1528	64.1593
1512	64.2611
1496	64.3955
1480	64.2626
1464	64.1251
1448	64.0064
1432	64.0882
1416	64.0899
1400	64.1026
1384	63.944
1368	64.0306
1352	63.9822
1336	64.0124
1320	63.8993
1304	63.893
1288	64.0004
1272	63.8455
1256	63.6743
1240	63.6987
1224	63.6412
1208	63.7293
1192	63.6727
1176	63.4842
1160	63.2339
1144	63.6993
1128	63.7261
1112	63.6033
1096	63.7488
1080	63.6709
1064	63.8918
1048	63.7506
1032	63.4382
1016	63.6537
1000	63.8815
984	 63.8491
968	 63.9008
952	 63.683
936	 63.7908
920	 63.9823
904	 63.7825
888	 63.6044
872	 63.763
856	 63.7717
840	 63.7802
824	 63.7273
808	 63.6263
792	 63.4357
776	 63.4914
760	 63.3802
744	 63.4299
728	 63.3622
712	 63.5717
696	 63.8169
680	 63.8692
664	 63.3836
648	 64.1369
632	 62.8571
616	 63.8927
600	 63.6711
584	 64.0897
568	 63.8876
552	 63.5086
536	 63.0656
520	 64.0178
504	 63.2029
488	 63.5473
472	 63.8121
456	 62.7792
440	 61.7226
424	 64.0465
408	 61.717
392	 55.8412
376	 78.7421
370	 61.9095