File: Bakgrunnsmateriale/MATLAB/FTIR/ftir_data/subAa/Mapping_121/BZ1503107-1_t15.asc
PE IR       SPECTRUM    SPECTRUM    ASCII       PEDS        1.60
  -1
BZ2D5B~1.ASC
17/04/07
14:25:45.00
17/04/07
14:26:11.00
tln
$BZ1503107-1_t0015$<tbV0>[5.2,-10.4,8.0,0.0,27,1,0]
27.028
64

2002,4.07
MIRTGS : RIGHTBACK : INTERNAL 2
MIR : ON : INTERNAL 2
OPTKBR

0.200000
8
8.000000
FILLER
RATIO
SPECTRUM
UNLOCKED 256

DOUBLE
64
COMBINED
1
0
0

0.002000
RATIO

1
0
TRUE
51149
0
LEFT NOT FITTED RIGHT NOT FITTED 0
NONE
NONE
15600
12
4.427000
51148
TRUE
1 0 8 72 0 0 0 0

15798

#HDR
-1
-1
#GR
µM
%T
2.38419e-05
0.0
2.000000
0.002000
12515
8
88.5317
57.811
#DATA
2.000000	 64.6437
2.084000	 66.4215
2.168000	 64.668
2.252000	 74.9385
2.336000	 64.7929
2.420000	 65.1272
2.504000	 64.9562
2.588000	 64.9534
2.672000	 65.5598
2.756000	 65.3645
2.840000	 65.2091
2.924000	 65.1341
3.008000	 65.4231
3.092000	 65.1554
3.176000	 65.2145
3.260000	 65.0293
3.344000	 65.0953
3.428000	 64.9429
3.512000	 65.076
3.596000	 65.2238
3.680000	 65.1149
3.764000	 65.0465
3.848000	 65.0674
3.932000	 65.151
4.016000	 65.2153
4.100000	 64.9861
4.184000	 65.0939
4.268000	 65.0571
4.352000	 64.9177
4.436000	 65.057
4.520000	 64.961
4.604000	 64.925
4.688000	 64.9737
4.772000	 64.8824
4.856000	 64.839
4.940000	 64.9443
5.024000	 64.9012
5.108000	 64.9591
5.192000	 64.8542
5.276000	 64.8711
5.359999	 64.8473
5.444000	 64.882
5.528000	 64.8108
5.612000	 64.6797
5.696000	 64.6994
5.780000	 64.5122
5.864000	 64.7106
5.948000	 64.7104
6.032000	 64.8287
6.116000	 64.7832
6.200000	 64.6552
6.284000	 64.6579
6.368000	 64.6618
6.452000	 64.6108
6.536000	 64.6629
6.620000	 64.7965
6.704000	 64.7708
6.788000	 64.6584
6.872000	 64.5675
6.956000	 64.5999
7.040000	 64.4754
7.124000	 64.5246
7.208000	 64.5136
7.292000	 64.426
7.376000	 64.5486
7.460000	 64.517
7.544000	 64.4018
7.628000	 64.4177
7.712000	 64.3587
7.796000	 64.3119
7.880000	 64.2901
7.964000	 64.3362
8.048000	 64.2928
8.132000	 64.2544
8.216000	 64.3353
8.300000	 64.3279
8.384000	 64.4215
8.468000	 64.1925
8.552000	 64.2522
8.635999	 64.2949
8.719999	 64.2045
8.804000	 64.1937
8.888000	 64.2475
8.972000	 64.3992
9.056000	 64.1362
9.140000	 64.4603
9.224000	 64.397
9.308000	 64.1728
9.391999	 64.0881
9.475999	 64.2259
9.560000	 64.1005
9.644000	 64.1488
9.728000	 64.2124
9.812000	 64.171
9.896000	 64.1763
9.980000	 64.0694
10.064	64.3495
10.148	64.3026
10.232	64.4142
10.316	64.2264
10.4	64.2907
10.484	64.2003
10.568	64.309
10.652	64.2944
10.736	64.2264
10.82	64.2335
10.904	64.3028
10.988	64.1266
11.072	64.1932
11.156	64.2527
11.24	64.1802
11.324	63.9437
11.408	64.0604
11.492	64.1691
11.576	64.1449
11.66	64.2056
11.744	64.3993
11.828	64.4777
11.912	64.2392
11.996	64.0223
12.08	63.8585
12.164	63.9712
12.248	64.1559
12.332	64.2303
12.416	64.085
12.5	63.9364
12.584	64.0764
12.668	64.1269
12.752	64.3065
12.836	64.3763
12.92	64.2212
13.004	64.0616
13.088	64.1162
13.172	64.1929
13.256	64.2333
13.34	64.2424
13.424	64.0436
13.508	64.0069
13.592	64.0532
13.676	64.0641
13.76	64.2037
13.844	64.3122
13.928	64.2669
14.012	64.1361
14.096	64.0293
14.18	64.0237
14.264	64.0861
14.348	64.0622
14.432	63.9707
14.516	64.0193
14.6	64.0717
14.684	64.0262
14.768	63.9924
14.852	63.9799
14.936	63.8902
15.02	63.7584
15.104	63.8079
15.188	63.9127
15.272	63.8326
15.356	63.7831
15.44	63.9428
15.524	64.1128
15.608	64.1301
15.692	63.9854
15.776	63.7292
15.86	63.604
15.944	63.7343
16.028	63.9203
16.112	64.0647
16.196	64.2606
16.28	64.4054
16.364	64.2749
16.448	63.9661
16.532	63.848
16.616	64.0432
16.7	64.3125
16.784	64.4377
16.868	64.3792
16.952	64.1716
17.036	63.9057
17.12	63.7376
17.204	63.7604
17.288	63.8777
17.372	63.8697
17.456	63.6381
17.54	63.3496
17.624	63.2663
17.708	63.4557
17.792	63.7499
17.876	63.9423
17.96	63.9599
18.044	63.8885
18.128	63.8935
18.212	64.0615
18.296	64.32
18.38	64.5261
18.464	64.5608
18.548	64.3552
18.632	63.9251
18.716	63.4051
18.8	63.0062
18.884	62.9295
18.968	63.2492
19.052	63.8443
19.136	64.4622
19.22	64.8829
19.304	65.033
19.388	64.9853
19.472	64.8586
19.556	64.7057
19.64	64.4901
19.724	64.1532
19.808	63.7087
19.892	63.2466
19.976	62.8925
20.06	62.7551
20.144	62.8935
20.228	63.2753
20.312	63.7316
20.396	63.9933
20.48	63.8572
20.564	63.3518
20.648	62.7627
20.732	62.4524
20.816	62.6215
20.9	63.1857
20.984	63.8427
21.068	64.2766
21.152	64.3496
21.236	64.1578
21.32	63.9385
21.404	63.9108
21.488	64.1354
21.572	64.4949
21.656	64.7626
21.74	64.7305
21.824	64.3357
21.908	63.7117
21.992	63.0988
22.076	62.7039
22.16	62.6011
22.244	62.7091
22.328	62.8714
22.412	62.9503
22.496	62.8845
22.58	62.7181
22.664	62.5694
22.748	62.5647
22.832	62.7576
22.916	63.1206
23	63.5484
23.084	63.9259
23.168	64.1788
23.252	64.3105
23.336	64.3824
23.42	64.4449
23.504	64.5094
23.588	64.5265
23.672	64.4117
23.756	64.0868
23.84	63.5342
23.924	62.8185
24.008	62.1002
24.092	61.6215
24.176	61.6181
24.26	62.1912
24.344	63.2472
24.428	64.5297
24.512	65.6884
24.596	66.4639
24.68	66.7933
24.764	66.8345
24.848	66.8752
24.932	67.2034
25.016	67.9291
25.1	68.9337
25.184	69.8893
25.268	70.3878
25.352	70.0846
25.436	68.8151
25.52	66.7275
25.604	64.2459
25.688	61.7945
25.772	59.8289
25.856	58.7832
25.94	59.2727
26.024	61.1904
26.108	63.1092
26.192	63.95
26.276	63.7428
26.36	64.6685
26.444	67.9316
26.528	72.894
26.612	75.3273
26.696	72.2966
26.78	65.0542
26.864	59.9365
26.948	63.5332
27.028	73.6676