File: Bakgrunnsmateriale/MATLAB/FTIR/ftir_data/subAa/Mapping_121/BZ1503107-1_t36.asc
PE IR       SPECTRUM    SPECTRUM    ASCII       PEDS        1.60
  -1
BZ2167~1.ASC
17/04/07
16:10:31.00
17/04/07
16:10:57.00
tln
$BZ1503107-1_t0036$<tbV0>[7.8,-5.2,8.0,0.0,27,1,0]
27.028
64

2002,4.07
MIRTGS : RIGHTBACK : INTERNAL 2
MIR : ON : INTERNAL 2
OPTKBR

0.200000
8
8.000000
FILLER
RATIO
SPECTRUM
UNLOCKED 256

DOUBLE
64
COMBINED
1
0
0

0.002000
RATIO

1
0
TRUE
51149
0
LEFT NOT FITTED RIGHT NOT FITTED 0
NONE
NONE
15600
12
4.427000
51148
TRUE
1 0 8 72 0 0 0 0

15798

#HDR
-1
-1
#GR
µM
%T
2.38419e-05
0.0
2.000000
0.002000
12515
8
77.5598
40.355
#DATA
2.000000	 65.3729
2.084000	 64.6502
2.168000	 64.7505
2.252000	 65.8522
2.336000	 64.8192
2.420000	 65.2979
2.504000	 65.3905
2.588000	 64.9948
2.672000	 65.1466
2.756000	 65.3563
2.840000	 65.1473
2.924000	 65.2949
3.008000	 65.1547
3.092000	 65.018
3.176000	 65.028
3.260000	 65.1864
3.344000	 65.1882
3.428000	 64.9674
3.512000	 64.9571
3.596000	 64.9353
3.680000	 65.0291
3.764000	 65.0832
3.848000	 65.0629
3.932000	 64.9557
4.016000	 64.8691
4.100000	 65.0461
4.184000	 65.0371
4.268000	 64.9087
4.352000	 64.8958
4.436000	 64.8117
4.520000	 64.8483
4.604000	 64.8658
4.688000	 64.793
4.772000	 64.8072
4.856000	 64.8277
4.940000	 64.8477
5.024000	 64.7762
5.108000	 64.7767
5.192000	 64.6994
5.276000	 64.6899
5.359999	 64.6459
5.444000	 64.6379
5.528000	 64.7078
5.612000	 64.6202
5.696000	 64.5554
5.780000	 64.4046
5.864000	 64.528
5.948000	 64.5749
6.032000	 64.4766
6.116000	 64.5028
6.200000	 64.411
6.284000	 64.5374
6.368000	 64.351
6.452000	 64.4063
6.536000	 64.3662
6.620000	 64.4037
6.704000	 64.4753
6.788000	 64.301
6.872000	 64.3275
6.956000	 64.3673
7.040000	 64.256
7.124000	 64.2344
7.208000	 64.2105
7.292000	 64.2686
7.376000	 64.0581
7.460000	 64.3416
7.544000	 64.1393
7.628000	 64.2432
7.712000	 64.2649
7.796000	 64.1263
7.880000	 64.062
7.964000	 64.2011
8.048000	 64.1295
8.132000	 64.1299
8.216000	 64.1915
8.300000	 64.0988
8.384000	 64.0817
8.468000	 64.1854
8.552000	 64.0011
8.635999	 64.057
8.719999	 63.9785
8.804000	 63.9031
8.888000	 63.9648
8.972000	 64.0123
9.056000	 64.1729
9.140000	 63.895
9.224000	 64.0045
9.308000	 63.9986
9.391999	 64.0078
9.475999	 63.9367
9.560000	 63.951
9.644000	 63.9189
9.728000	 64.2041
9.812000	 64.2266
9.896000	 64.1796
9.980000	 64.1027
10.064	64.144
10.148	64.1221
10.232	64.1339
10.316	63.9934
10.4	64.0194
10.484	63.9049
10.568	63.9332
10.652	63.966
10.736	64.0103
10.82	64.0444
10.904	64.0316
10.988	64.0892
11.072	64.0184
11.156	64.0961
11.24	63.9916
11.324	64.0104
11.408	64.1063
11.492	63.9662
11.576	64.1341
11.66	64.1266
11.744	64.0936
11.828	64.0299
11.912	64.0272
11.996	63.8174
12.08	63.7004
12.164	63.6817
12.248	63.7737
12.332	63.8681
12.416	63.8387
12.5	63.8633
12.584	64.1558
12.668	64.1651
12.752	64.192
12.836	63.9302
12.92	63.8268
13.004	63.9577
13.088	63.801
13.172	63.655
13.256	63.6348
13.34	63.6707
13.424	63.5476
13.508	63.4864
13.592	63.8353
13.676	63.876
13.76	63.5699
13.844	63.5484
13.928	63.5692
14.012	63.3859
14.096	63.556
14.18	63.9871
14.264	63.9909
14.348	63.8216
14.432	63.9578
14.516	63.987
14.6	63.5643
14.684	63.0598
14.768	62.8482
14.852	62.9157
14.936	63.1685
15.02	63.3491
15.104	63.3705
15.188	63.4486
15.272	63.5438
15.356	63.7115
15.44	63.93
15.524	63.9367
15.608	64.0007
15.692	64.4715
15.776	65.0846
15.86	65.3922
15.944	65.0774
16.028	64.1612
16.112	63.1834
16.196	62.6637
16.28	62.6857
16.364	63.1054
16.448	63.614
16.532	63.8857
16.616	64.0243
16.7	64.3406
16.784	64.6962
16.868	64.6866
16.952	64.2606
17.036	63.7246
17.12	63.3657
17.204	63.3262
17.288	63.6367
17.372	64.1191
17.456	64.401
17.54	64.2494
17.624	63.8331
17.708	63.4987
17.792	63.3889
17.876	63.4316
17.96	63.5677
18.044	63.7854
18.128	63.9914
18.212	64.0915
18.296	64.1333
18.38	64.2118
18.464	64.2912
18.548	64.2422
18.632	64.0272
18.716	63.7605
18.8	63.6129
18.884	63.6862
18.968	63.9403
19.052	64.1901
19.136	64.2472
19.22	64.0779
19.304	63.8114
19.388	63.5851
19.472	63.4371
19.556	63.3372
19.64	63.2737
19.724	63.2667
19.808	63.3225
19.892	63.4217
19.976	63.5378
20.06	63.6439
20.144	63.703
20.228	63.6749
20.312	63.5566
20.396	63.403
20.48	63.3093
20.564	63.3528
20.648	63.5505
20.732	63.8503
20.816	64.1478
20.9	64.3293
20.984	64.3233
21.068	64.1427
21.152	63.8791
21.236	63.6471
21.32	63.5144
21.404	63.4601
21.488	63.3915
21.572	63.2198
21.656	62.9211
21.74	62.5494
21.824	62.2032
21.908	61.9653
21.992	61.8735
22.076	61.9275
22.16	62.1016
22.244	62.3517
22.328	62.6059
22.412	62.7728
22.496	62.7775
22.58	62.6167
22.664	62.3801
22.748	62.2276
22.832	62.2877
22.916	62.6004
23	63.0609
23.084	63.4938
23.168	63.7248
23.252	63.6769
23.336	63.385
23.42	62.961
23.504	62.5377
23.588	62.2012
23.672	61.9783
23.756	61.8731
23.84	61.8836
23.924	62.0211
24.008	62.301
24.092	62.7209
24.176	63.2428
24.26	63.8524
24.344	64.5565
24.428	65.3596
24.512	66.2626
24.596	67.193
24.68	68.013
24.764	68.5835
24.848	68.81
24.932	68.7277
25.016	68.5295
25.1	68.498
25.184	68.9132
25.268	69.9155
25.352	71.4611
25.436	73.336
25.52	75.2098
25.604	76.7283
25.688	77.5151
25.772	77.2861
25.856	75.9248
25.94	73.4612
26.024	70.0717
26.108	66.0508
26.192	61.7685
26.276	57.5609
26.36	53.6762
26.444	50.2036
26.528	47.1465
26.612	44.4591
26.696	42.2379
26.78	40.7612
26.864	40.377
26.948	41.2925
27.028	43.2255