File: Bakgrunnsmateriale/MATLAB/FTIR/ftir_data/subAa/Mapping_121/BZ1503107-1_t109.asc
PE IR       SPECTRUM    SPECTRUM    ASCII       PEDS        1.60
  -1
BZE6B6~1.ASC
17/04/07
22:09:47.00
17/04/07
22:10:13.00
tln
$BZ1503107-1_t0109$<tbV0>[-10.4,10.4,8.0,0.0,27,1,0]
27.028
64

2002,4.07
MIRTGS : RIGHTBACK : INTERNAL 2
MIR : ON : INTERNAL 2
OPTKBR

0.200000
8
8.000000
FILLER
RATIO
SPECTRUM
UNLOCKED 256

DOUBLE
64
COMBINED
1
0
0

0.002000
RATIO

1
0
TRUE
51149
0
LEFT NOT FITTED RIGHT NOT FITTED 0
NONE
NONE
15600
12
4.427000
51148
TRUE
1 0 8 72 0 0 0 0

15798

#HDR
-1
-1
#GR
µM
%T
2.38419e-05
0.0
2.000000
0.002000
12515
8
76.8024
56.7526
#DATA
2.000000	 64.2356
2.084000	 65.1759
2.168000	 64.7739
2.252000	 74.934
2.336000	 64.8483
2.420000	 65.0059
2.504000	 65.1355
2.588000	 64.9685
2.672000	 65.082
2.756000	 65.0418
2.840000	 64.837
2.924000	 65.0086
3.008000	 64.735
3.092000	 64.9118
3.176000	 64.8122
3.260000	 64.8824
3.344000	 64.6869
3.428000	 64.4502
3.512000	 64.6349
3.596000	 64.6734
3.680000	 64.656
3.764000	 64.6403
3.848000	 64.5695
3.932000	 64.5212
4.016000	 64.5665
4.100000	 64.4994
4.184000	 64.5242
4.268000	 64.4061
4.352000	 64.4627
4.436000	 64.3707
4.520000	 64.2146
4.604000	 64.2556
4.688000	 64.2516
4.772000	 64.2558
4.856000	 64.162
4.940000	 64.0274
5.024000	 64.2034
5.108000	 64.1364
5.192000	 63.9021
5.276000	 64.0235
5.359999	 63.8932
5.444000	 63.9871
5.528000	 63.9512
5.612000	 63.8372
5.696000	 63.7381
5.780000	 63.4808
5.864000	 63.8008
5.948000	 63.726
6.032000	 63.78
6.116000	 63.7773
6.200000	 63.6423
6.284000	 63.6362
6.368000	 63.7127
6.452000	 63.4978
6.536000	 63.4216
6.620000	 63.5286
6.704000	 63.5233
6.788000	 63.5385
6.872000	 63.1732
6.956000	 63.2403
7.040000	 63.3216
7.124000	 63.3286
7.208000	 63.3018
7.292000	 63.2032
7.376000	 63.2602
7.460000	 63.0514
7.544000	 63.2293
7.628000	 63.2175
7.712000	 63.228
7.796000	 63.1593
7.880000	 63.1148
7.964000	 62.9617
8.048000	 62.9821
8.132000	 63.0117
8.216000	 62.9821
8.300000	 62.925
8.384000	 62.9756
8.468000	 62.9484
8.552000	 62.9455
8.635999	 62.9524
8.719999	 62.8928
8.804000	 62.9586
8.888000	 62.911
8.972000	 62.7737
9.056000	 62.7838
9.140000	 62.9111
9.224000	 62.8354
9.308000	 62.6493
9.391999	 62.768
9.475999	 62.7195
9.560000	 62.7618
9.644000	 62.8167
9.728000	 62.7748
9.812000	 62.7861
9.896000	 62.7762
9.980000	 62.7967
10.064	62.836
10.148	62.8223
10.232	62.8326
10.316	62.706
10.4	62.7052
10.484	62.5461
10.568	62.6018
10.652	62.9138
10.736	62.8664
10.82	62.834
10.904	62.5675
10.988	62.6287
11.072	62.6324
11.156	62.5158
11.24	62.5897
11.324	62.6551
11.408	62.6391
11.492	62.5893
11.576	62.6764
11.66	62.8609
11.744	62.9183
11.828	62.6587
11.912	62.5381
11.996	62.5587
12.08	62.5661
12.164	62.6827
12.248	62.7183
12.332	62.7787
12.416	62.6433
12.5	62.3331
12.584	62.4209
12.668	62.5886
12.752	62.5485
12.836	62.2967
12.92	62.3353
13.004	62.4987
13.088	62.54
13.172	62.5141
13.256	62.5465
13.34	62.6129
13.424	62.5564
13.508	62.5128
13.592	62.4352
13.676	62.3726
13.76	62.3402
13.844	62.249
13.928	62.2151
14.012	62.1881
14.096	62.182
14.18	62.0993
14.264	61.98
14.348	62.0234
14.432	62.1438
14.516	62.2092
14.6	62.1638
14.684	62.0818
14.768	62.0798
14.852	62.1325
14.936	62.1633
15.02	62.1076
15.104	61.9996
15.188	61.9133
15.272	61.9316
15.356	62.1141
15.44	62.3021
15.524	62.2452
15.608	62.0006
15.692	61.9122
15.776	62.1109
15.86	62.3475
15.944	62.3622
16.028	62.2557
16.112	62.2597
16.196	62.3052
16.28	62.2394
16.364	62.1105
16.448	61.905
16.532	61.6947
16.616	61.7592
16.7	62.0891
16.784	62.3415
16.868	62.367
16.952	62.2573
17.036	62.0076
17.12	61.5881
17.204	61.1904
17.288	61.0713
17.372	61.204
17.456	61.3617
17.54	61.4732
17.624	61.591
17.708	61.6411
17.792	61.4915
17.876	61.1615
17.96	60.8203
18.044	60.6055
18.128	60.5488
18.212	60.6334
18.296	60.831
18.38	61.0812
18.464	61.3126
18.548	61.5285
18.632	61.8058
18.716	62.1295
18.8	62.3068
18.884	62.1899
18.968	61.9082
19.052	61.761
19.136	61.8397
19.22	61.9298
19.304	61.815
19.388	61.5803
19.472	61.4938
19.556	61.6818
19.64	61.981
19.724	62.0829
19.808	61.7925
19.892	61.1659
19.976	60.4588
20.06	59.9779
20.144	59.9481
20.228	60.429
20.312	61.2499
20.396	62.0558
20.48	62.5035
20.564	62.4783
20.648	62.1473
20.732	61.8085
20.816	61.6703
20.9	61.7337
20.984	61.8431
21.068	61.8232
21.152	61.6038
21.236	61.254
21.32	60.9305
21.404	60.7931
21.488	60.8995
21.572	61.1831
21.656	61.4989
21.74	61.7041
21.824	61.7313
21.908	61.595
21.992	61.3387
22.076	60.9927
22.16	60.566
22.244	60.076
22.328	59.5872
22.412	59.202
22.496	59.0215
22.58	59.1132
22.664	59.4966
22.748	60.1285
22.832	60.9186
22.916	61.7366
23	62.4327
23.084	62.8815
23.168	63.004
23.252	62.8001
23.336	62.3544
23.42	61.8268
23.504	61.406
23.588	61.2348
23.672	61.3528
23.756	61.6704
23.84	62.0006
23.924	62.1168
24.008	61.8566
24.092	61.1965
24.176	60.263
24.26	59.276
24.344	58.4898
24.428	58.0831
24.512	58.1259
24.596	58.5465
24.68	59.1565
24.764	59.7182
24.848	60.0339
24.932	60.0043
25.016	59.6773
25.1	59.2237
25.184	58.862
25.268	58.7366
25.352	58.8588
25.436	59.0789
25.52	59.1715
25.604	58.9726
25.688	58.4395
25.772	57.7085
25.856	57.0405
25.94	56.7527
26.024	57.0633
26.108	57.9467
26.192	59.1464
26.276	60.2825
26.36	60.9779
26.444	61.043
26.528	60.5579
26.612	59.823
26.696	59.2534
26.78	59.2192
26.864	59.8874
26.948	61.1552
27.028	62.5785