File: Bakgrunnsmateriale/MATLAB/FTIR/ftir_data/subAa/Mapping_121/BZ1503107-1_t56_cm-1.asc
PE IR       SPECTRUM    SPECTRUM    ASCII       PEDS        1.60
  -1
BZ6EA3~1.ASC
17/04/07
17:50:29.00
17/04/07
17:50:29.00
tln
$BZ1503107-1_t0056$<tbV0>[13.0,0.0,8.0,0.0,27,1,0]
370
64

2002,4.07
MIRTGS : RIGHTBACK : INTERNAL 2
MIR : ON : INTERNAL 2
OPTKBR

0.200000
8
8.000000
FILLER
RATIO
SPECTRUM
UNLOCKED 256

DOUBLE
64
COMBINED
1
0
0

1.000000
RATIO

1
0
TRUE
51149
0
LEFT NOT FITTED RIGHT NOT FITTED 0
NONE
NONE
15600
12
4.427000
51148
TRUE
1 0 8 72 0 0 0 0

15798

#HDR
-1
-1
#GR
CM-1
%T
2.38419e-05
0.0
5000
-1.000000
4631
8
74.067
47.3123
#DATA
5000	65.603
4984	64.8291
4968	64.3886
4952	65.388
4936	64.8078
4920	65.6088
4904	65.5574
4888	65.1309
4872	64.9767
4856	64.9703
4840	64.7479
4824	64.925
4808	64.7339
4792	65.0748
4776	64.9291
4760	64.7434
4744	64.6169
4728	64.5046
4712	64.5621
4696	64.6417
4680	65.2624
4664	64.7989
4648	65.2368
4632	64.9685
4616	65.0758
4600	65.2674
4584	65.2629
4568	65.0166
4552	65.1749
4536	64.9836
4520	65.0136
4504	65.7486
4488	64.9757
4472	65.0744
4456	63.8963
4440	69.7538
4424	56.3802
4408	65.4955
4392	65.3751
4376	65.1326
4360	65.989
4344	65.15
4328	65.3729
4312	65.4849
4296	65.5003
4280	65.1409
4264	65.0502
4248	64.7033
4232	65.1189
4216	64.96
4200	64.9552
4184	65.1003
4168	64.6741
4152	65.0407
4136	65.0916
4120	65.1578
4104	65.1356
4088	65.1607
4072	65.0566
4056	65.0846
4040	65.1903
4024	65.1406
4008	65.1782
3992	65.3184
3976	65.1951
3960	65.1401
3944	65.1567
3928	65.182
3912	65.1337
3896	65.5234
3880	65.3362
3864	65.2071
3848	65.2764
3832	65.193
3816	65.1923
3800	65.0347
3784	65.0862
3768	64.9766
3752	65.0894
3736	65.1021
3720	65.1492
3704	65.2919
3688	65.2087
3672	65.0976
3656	65.34
3640	65.2653
3624	65.1346
3608	65.0229
3592	65.0417
3576	64.9633
3560	65.0826
3544	65.0334
3528	64.986
3512	65.1314
3496	65.1944
3480	65.1214
3464	65.1034
3448	65.2556
3432	64.9869
3416	65.0588
3400	64.9714
3384	65.0988
3368	65.1002
3352	64.8095
3336	64.9699
3320	65.064
3304	65.2045
3288	65.0639
3272	65.0514
3256	65.1875
3240	65.0608
3224	65.0598
3208	65.1548
3192	65.1375
3176	65.0273
3160	65.2152
3144	65.0008
3128	65.2391
3112	64.9462
3096	65.2156
3080	64.949
3064	65.1005
3048	65.008
3032	64.9041
3016	65.0467
3000	65.1278
2984	65.0193
2968	64.7907
2952	64.8653
2936	64.8955
2920	64.982
2904	64.9523
2888	64.8357
2872	64.8954
2856	64.8151
2840	64.9686
2824	64.9812
2808	65.0677
2792	64.9417
2776	64.9789
2760	64.8633
2744	65.0368
2728	64.8985
2712	64.9045
2696	64.9304
2680	64.932
2664	64.9631
2648	64.9551
2632	64.8776
2616	64.8597
2600	64.9315
2584	64.8837
2568	64.8329
2552	64.8648
2536	64.8968
2520	64.887
2504	64.883
2488	64.9409
2472	64.8146
2456	64.8494
2440	64.8895
2424	64.9508
2408	64.8038
2392	64.9338
2376	64.7342
2360	64.8062
2344	64.784
2328	64.8014
2312	64.8458
2296	64.8088
2280	64.8013
2264	64.8141
2248	64.7728
2232	64.647
2216	64.7498
2200	64.769
2184	64.6951
2168	64.6075
2152	64.7267
2136	64.684
2120	64.7203
2104	64.7475
2088	64.5654
2072	64.6917
2056	64.6986
2040	64.6847
2024	64.5732
2008	64.6253
1992	64.6144
1976	64.5062
1960	64.5448
1944	64.5153
1928	64.515
1912	64.4572
1896	64.4256
1880	64.5761
1864	64.5458
1848	64.4967
1832	64.4912
1816	64.4718
1800	64.4136
1784	64.4578
1768	64.2821
1752	64.2958
1736	64.2047
1720	64.2008
1704	64.3268
1688	64.289
1672	64.1804
1656	64.2484
1640	64.2416
1624	64.2303
1608	64.2972
1592	64.1743
1576	64.2683
1560	64.109
1544	64.1739
1528	64.212
1512	64.2657
1496	64.3791
1480	64.2108
1464	64.0541
1448	64.1938
1432	64.1587
1416	64.0322
1400	64.1381
1384	64.0679
1368	64.0372
1352	64.0651
1336	64.0726
1320	64.0509
1304	64.1211
1288	64.0791
1272	64.0409
1256	63.9154
1240	64.0055
1224	63.8106
1208	63.9469
1192	63.8557
1176	63.8418
1160	63.6569
1144	63.7962
1128	63.7799
1112	63.5573
1096	63.8166
1080	63.6705
1064	63.6274
1048	63.5758
1032	63.666
1016	63.7095
1000	63.8352
984	 63.7588
968	 63.8208
952	 63.7593
936	 63.6951
920	 63.7383
904	 63.9596
888	 63.727
872	 63.5846
856	 63.7681
840	 63.8434
824	 63.8221
808	 63.6182
792	 63.6428
776	 63.6222
760	 63.517
744	 63.2962
728	 63.3369
712	 63.5295
696	 63.4464
680	 63.5382
664	 63.2676
648	 63.4612
632	 63.1947
616	 63.3973
600	 62.9739
584	 63.6946
568	 63.0442
552	 63.9985
536	 64.2975
520	 63.0186
504	 62.6001
488	 62.0047
472	 63.8542
456	 63.205
440	 62.193
424	 62.8226
408	 62.4743
392	 62.3353
376	 52.7977
370	 54.8006