File: Bakgrunnsmateriale/MATLAB/FTIR/ftir_data/subAa/Mapping_121/BZ1503107-1_t118_cm-1.asc
PE IR       SPECTRUM    SPECTRUM    ASCII       PEDS        1.60
  -1
BZ4C7C~1.ASC
17/04/07
22:57:36.00
17/04/07
22:57:36.00
tln
$BZ1503107-1_t0118$<tbV0>[-5.2,13.0,8.0,0.0,27,1,0]
370
64

2002,4.07
MIRTGS : RIGHTBACK : INTERNAL 2
MIR : ON : INTERNAL 2
OPTKBR

0.200000
8
8.000000
FILLER
RATIO
SPECTRUM
UNLOCKED 256

DOUBLE
64
COMBINED
1
0
0

1.000000
RATIO

1
0
TRUE
51149
0
LEFT NOT FITTED RIGHT NOT FITTED 0
NONE
NONE
15600
12
4.427000
51148
TRUE
1 0 8 72 0 0 0 0

15798

#HDR
-1
-1
#GR
CM-1
%T
2.38419e-05
0.0
5000
-1.000000
4631
8
73.8115
42.4046
#DATA
5000	64.0428
4984	66.168
4968	65.4883
4952	65.1388
4936	65.0679
4920	64.6973
4904	65.02
4888	65.1318
4872	64.8374
4856	65.2158
4840	64.5507
4824	64.5297
4808	64.4192
4792	64.9292
4776	64.7389
4760	64.8741
4744	64.6185
4728	64.9931
4712	64.7517
4696	64.5432
4680	64.6168
4664	64.928
4648	65.3641
4632	65.2886
4616	65.0162
4600	65.2362
4584	65.0191
4568	65.2055
4552	65.0527
4536	65.0649
4520	65.7048
4504	65.3951
4488	64.571
4472	65.0154
4456	66.9885
4440	59.4634
4424	61.7069
4408	66.967
4392	66.0696
4376	65.6578
4360	65.6408
4344	64.8635
4328	65.4008
4312	64.8585
4296	65.1734
4280	64.959
4264	64.9598
4248	64.8236
4232	64.9966
4216	64.8783
4200	65.2343
4184	64.8165
4168	64.7564
4152	64.9023
4136	64.7963
4120	64.7695
4104	64.7877
4088	64.7229
4072	64.9773
4056	64.9029
4040	64.7063
4024	64.7088
4008	65.1318
3992	64.9037
3976	64.8229
3960	64.8645
3944	65.1439
3928	64.9559
3912	64.8854
3896	64.8785
3880	64.8937
3864	65.0891
3848	64.9793
3832	64.9956
3816	64.7913
3800	64.8565
3784	64.852
3768	65.0564
3752	64.8643
3736	64.964
3720	65.0082
3704	65.0897
3688	65.0646
3672	65.0175
3656	65.0127
3640	64.9883
3624	65.0237
3608	65.0557
3592	64.9474
3576	64.939
3560	64.9334
3544	64.845
3528	64.8738
3512	64.8436
3496	64.8521
3480	64.9746
3464	64.8136
3448	64.7365
3432	65.0717
3416	64.9937
3400	64.7545
3384	64.6924
3368	64.9477
3352	64.9218
3336	64.9573
3320	64.8196
3304	64.7878
3288	64.7949
3272	64.8307
3256	64.8966
3240	64.7648
3224	64.7155
3208	64.8298
3192	64.929
3176	64.8602
3160	64.8695
3144	64.7279
3128	64.7668
3112	64.7573
3096	64.7074
3080	64.8194
3064	64.7721
3048	64.7628
3032	64.8783
3016	64.6701
3000	64.8493
2984	64.7135
2968	64.5729
2952	64.5313
2936	64.6677
2920	64.3973
2904	64.4619
2888	64.6449
2872	64.467
2856	64.4413
2840	64.5048
2824	64.5726
2808	64.6621
2792	64.5884
2776	64.6595
2760	64.5738
2744	64.6888
2728	64.6688
2712	64.5716
2696	64.4947
2680	64.5801
2664	64.4409
2648	64.4363
2632	64.4674
2616	64.4857
2600	64.4051
2584	64.4333
2568	64.4654
2552	64.5302
2536	64.45
2520	64.4859
2504	64.3845
2488	64.5043
2472	64.4022
2456	64.4718
2440	64.3632
2424	64.2811
2408	64.3287
2392	64.3541
2376	64.1725
2360	64.1951
2344	64.205
2328	64.2571
2312	64.2575
2296	64.2559
2280	64.1777
2264	64.1863
2248	64.1602
2232	64.1857
2216	64.2052
2200	64.156
2184	64.1822
2168	64.1469
2152	64.1693
2136	64.1253
2120	64.0527
2104	64.0791
2088	64.0543
2072	64.0017
2056	64.0942
2040	63.9719
2024	63.8585
2008	63.9478
1992	63.9362
1976	63.8542
1960	63.9003
1944	63.913
1928	63.8888
1912	63.8473
1896	63.8486
1880	63.7644
1864	63.7883
1848	63.7423
1832	63.7524
1816	63.8048
1800	63.793
1784	63.6609
1768	63.5489
1752	63.5565
1736	63.2977
1720	63.4709
1704	63.468
1688	63.5041
1672	63.4589
1656	63.4681
1640	63.4605
1624	63.3832
1608	63.3378
1592	63.3734
1576	63.187
1560	63.2776
1544	63.1939
1528	63.198
1512	63.2737
1496	63.1171
1480	63.1457
1464	63.0639
1448	63.1108
1432	63.0007
1416	63.0273
1400	62.9416
1384	62.9419
1368	63.0346
1352	62.9657
1336	62.9823
1320	63.0996
1304	62.9001
1288	62.8931
1272	62.9046
1256	62.5166
1240	62.7857
1224	62.6803
1208	62.7536
1192	62.7265
1176	62.5315
1160	62.7064
1144	62.6599
1128	62.581
1112	62.5032
1096	62.6202
1080	62.5686
1064	62.5394
1048	62.2777
1032	62.4161
1016	62.2875
1000	62.4183
984	 62.3622
968	 62.3403
952	 62.5039
936	 62.3358
920	 62.2907
904	 62.3884
888	 62.4201
872	 62.4461
856	 62.3733
840	 62.1601
824	 62.1942
808	 62.199
792	 62.3071
776	 61.9792
760	 61.6592
744	 61.9898
728	 61.8395
712	 61.7947
696	 61.7201
680	 61.4268
664	 61.6731
648	 61.4793
632	 61.2422
616	 62.6159
600	 60.2861
584	 59.7889
568	 61.34
552	 60.6207
536	 62.1598
520	 60.6044
504	 60.2212
488	 60.4774
472	 60.6049
456	 59.6836
440	 59.1595
424	 60.8082
408	 60.2135
392	 59.0139
376	 53.3228
370	 42.4046