File: Bakgrunnsmateriale/MATLAB/FTIR/ftir_data/subAa/Mapping_121/BZ1503107-1_t106.asc
PE IR       SPECTRUM    SPECTRUM    ASCII       PEDS        1.60
  -1
BZE6BA~1.ASC
17/04/07
21:55:55.00
17/04/07
21:56:22.00
tln
$BZ1503107-1_t0106$<tbV0>[-2.6,10.4,8.0,0.0,27,1,0]
27.028
64

2002,4.07
MIRTGS : RIGHTBACK : INTERNAL 2
MIR : ON : INTERNAL 2
OPTKBR

0.200000
8
8.000000
FILLER
RATIO
SPECTRUM
UNLOCKED 256

DOUBLE
64
COMBINED
1
0
0

0.002000
RATIO

1
0
TRUE
51149
0
LEFT NOT FITTED RIGHT NOT FITTED 0
NONE
NONE
15600
12
4.427000
51148
TRUE
1 0 8 72 0 0 0 0

15798

#HDR
-1
-1
#GR
µM
%T
2.38419e-05
0.0
2.000000
0.002000
12515
8
83.8963
52.7126
#DATA
2.000000	 63.984
2.084000	 65.2981
2.168000	 64.7444
2.252000	 80.3437
2.336000	 64.8428
2.420000	 65.0701
2.504000	 64.961
2.588000	 65.1555
2.672000	 65.3393
2.756000	 64.941
2.840000	 64.921
2.924000	 64.9513
3.008000	 64.8661
3.092000	 64.949
3.176000	 64.7654
3.260000	 64.8099
3.344000	 64.7341
3.428000	 64.7522
3.512000	 64.6182
3.596000	 64.7217
3.680000	 64.7822
3.764000	 64.6201
3.848000	 64.525
3.932000	 64.6028
4.016000	 64.7186
4.100000	 64.423
4.184000	 64.4256
4.268000	 64.3669
4.352000	 64.476
4.436000	 64.4256
4.520000	 64.2499
4.604000	 64.2383
4.688000	 64.2296
4.772000	 64.1568
4.856000	 64.1637
4.940000	 64.0143
5.024000	 64.1367
5.108000	 64.104
5.192000	 63.9243
5.276000	 64.0021
5.359999	 63.9481
5.444000	 63.9896
5.528000	 63.9249
5.612000	 63.7673
5.696000	 63.691
5.780000	 63.405
5.864000	 63.6954
5.948000	 63.6297
6.032000	 63.6942
6.116000	 63.5809
6.200000	 63.6384
6.284000	 63.6591
6.368000	 63.6175
6.452000	 63.4699
6.536000	 63.4916
6.620000	 63.4933
6.704000	 63.4893
6.788000	 63.5007
6.872000	 63.4183
6.956000	 63.3432
7.040000	 63.4227
7.124000	 63.2817
7.208000	 63.2622
7.292000	 63.1908
7.376000	 63.2336
7.460000	 63.3085
7.544000	 63.14
7.628000	 63.1144
7.712000	 63.1459
7.796000	 63.0724
7.880000	 63.1476
7.964000	 63.1344
8.048000	 62.9769
8.132000	 63.0633
8.216000	 63.0229
8.300000	 63.0655
8.384000	 63.0483
8.468000	 62.838
8.552000	 62.8787
8.635999	 62.8124
8.719999	 62.9519
8.804000	 63.0681
8.888000	 62.836
8.972000	 62.8722
9.056000	 62.7773
9.140000	 62.9204
9.224000	 62.7037
9.308000	 62.6438
9.391999	 62.703
9.475999	 62.633
9.560000	 62.8063
9.644000	 62.6974
9.728000	 62.637
9.812000	 62.7603
9.896000	 62.6009
9.980000	 62.559
10.064	62.5691
10.148	62.745
10.232	62.7823
10.316	62.6208
10.4	62.7599
10.484	62.7666
10.568	62.7164
10.652	62.6422
10.736	62.5631
10.82	62.7488
10.904	62.6109
10.988	62.612
11.072	62.4966
11.156	62.4771
11.24	62.5483
11.324	62.5221
11.408	62.5035
11.492	62.6977
11.576	62.6649
11.66	62.5909
11.744	62.5257
11.828	62.5245
11.912	62.4917
11.996	62.4535
12.08	62.4682
12.164	62.5021
12.248	62.554
12.332	62.5973
12.416	62.5067
12.5	62.3676
12.584	62.4809
12.668	62.5461
12.752	62.6059
12.836	62.5071
12.92	62.3552
13.004	62.3774
13.088	62.3649
13.172	62.3801
13.256	62.5147
13.34	62.4641
13.424	62.3828
13.508	62.4973
13.592	62.44
13.676	62.3319
13.76	62.3411
13.844	62.2623
13.928	62.2045
14.012	62.2164
14.096	62.2253
14.18	62.1562
14.264	62.0982
14.348	62.1882
14.432	62.3062
14.516	62.4853
14.6	62.5628
14.684	62.2492
14.768	62.0623
14.852	62.3888
14.936	62.7047
15.02	62.6045
15.104	62.2702
15.188	61.9333
15.272	61.7353
15.356	61.7896
15.44	62.0418
15.524	62.2882
15.608	62.4097
15.692	62.4151
15.776	62.3437
15.86	62.3266
15.944	62.4191
16.028	62.4379
16.112	62.3095
16.196	62.0162
16.28	61.5314
16.364	61.2961
16.448	61.6471
16.532	62.0135
16.616	61.9873
16.7	61.9853
16.784	62.1066
16.868	61.9303
16.952	61.417
17.036	60.9804
17.12	60.9776
17.204	61.4551
17.288	62.0011
17.372	62.0543
17.456	61.6022
17.54	61.1526
17.624	60.9697
17.708	60.8566
17.792	60.7074
17.876	60.7314
17.96	61.0476
18.044	61.4513
18.128	61.6717
18.212	61.6744
18.296	61.5839
18.38	61.4809
18.464	61.4118
18.548	61.4771
18.632	61.7281
18.716	62.0492
18.8	62.2293
18.884	62.1735
18.968	62.0017
19.052	61.9383
19.136	62.0601
19.22	62.2116
19.304	62.1983
19.388	62.0328
19.472	61.9128
19.556	61.9713
19.64	62.1039
19.724	62.0823
19.808	61.7887
19.892	61.2959
19.976	60.7856
20.06	60.4421
20.144	60.3857
20.228	60.6409
20.312	61.1098
20.396	61.5898
20.48	61.8552
20.564	61.7837
20.648	61.4457
20.732	61.0661
20.816	60.8684
20.9	60.9294
20.984	61.1528
21.068	61.3504
21.152	61.3635
21.236	61.1497
21.32	60.8002
21.404	60.4869
21.488	60.3474
21.572	60.4115
21.656	60.5962
21.74	60.7712
21.824	60.8506
21.908	60.8313
21.992	60.7502
22.076	60.6307
22.16	60.4634
22.244	60.2363
22.328	59.9767
22.412	59.7411
22.496	59.5839
22.58	59.5393
22.664	59.6329
22.748	59.8931
22.832	60.3373
22.916	60.9393
23	61.5811
23.084	62.0845
23.168	62.2697
23.252	62.0676
23.336	61.5566
23.42	60.9436
23.504	60.4707
23.588	60.2885
23.672	60.3996
23.756	60.6788
23.84	60.9569
23.924	61.1176
24.008	61.1385
24.092	61.0723
24.176	61.0112
24.26	61.0446
24.344	61.2294
24.428	61.5554
24.512	61.9419
24.596	62.2528
24.68	62.3522
24.764	62.1767
24.848	61.7683
24.932	61.2826
25.016	60.933
25.1	60.9036
25.184	61.3031
25.268	62.1275
25.352	63.2924
25.436	64.6791
25.52	66.1715
25.604	67.6704
25.688	69.0926
25.772	70.3376
25.856	71.268
25.94	71.7403
26.024	71.6534
26.108	71.0166
26.192	69.9128
26.276	68.4878
26.36	66.9611
26.444	65.5423
26.528	64.3866
26.612	63.5388
26.696	63.0006
26.78	62.7783
26.864	62.8832
26.948	63.3279
27.028	64.0568