File: Bakgrunnsmateriale/MATLAB/FTIR/ftir_data/subAa/Mapping_121/BZ1503107-1_t112_cm-1.asc
PE IR       SPECTRUM    SPECTRUM    ASCII       PEDS        1.60
  -1
BZ4C7B~1.ASC
17/04/07
22:29:52.00
17/04/07
22:29:52.00
tln
$BZ1503107-1_t0112$<tbV0>[10.4,13.0,8.0,0.0,27,1,0]
370
64

2002,4.07
MIRTGS : RIGHTBACK : INTERNAL 2
MIR : ON : INTERNAL 2
OPTKBR

0.200000
8
8.000000
FILLER
RATIO
SPECTRUM
UNLOCKED 256

DOUBLE
64
COMBINED
1
0
0

1.000000
RATIO

1
0
TRUE
51149
0
LEFT NOT FITTED RIGHT NOT FITTED 0
NONE
NONE
15600
12
4.427000
51148
TRUE
1 0 8 72 0 0 0 0

15798

#HDR
-1
-1
#GR
CM-1
%T
2.38419e-05
0.0
5000
-1.000000
4631
8
75.5464
51.2072
#DATA
5000	65.0947
4984	65.1033
4968	65.3928
4952	64.8769
4936	64.5653
4920	65.2317
4904	65.1566
4888	64.8263
4872	65.0151
4856	65.0364
4840	65.1075
4824	64.7371
4808	64.7014
4792	64.7785
4776	64.3064
4760	64.799
4744	64.4886
4728	65.018
4712	65.0553
4696	64.5939
4680	64.7987
4664	64.8353
4648	65.148
4632	65.0623
4616	65.1485
4600	65.197
4584	64.6487
4568	65.2149
4552	65.283
4536	65.2049
4520	65.5393
4504	65.1923
4488	65.0419
4472	65.5009
4456	65.7716
4440	53.6914
4424	70.7187
4408	65.6709
4392	65.6068
4376	65.7375
4360	65.321
4344	65.096
4328	65.039
4312	65.2499
4296	64.9688
4280	64.8392
4264	65.0022
4248	64.7787
4232	65.1034
4216	65.1466
4200	65.0751
4184	64.8141
4168	65.0429
4152	64.7911
4136	64.5374
4120	64.7583
4104	65.1047
4088	65.1239
4072	65.0267
4056	65.0089
4040	64.848
4024	65.0543
4008	65.4365
3992	65.0128
3976	64.9599
3960	64.8493
3944	65.2381
3928	65.0157
3912	65.0787
3896	64.7899
3880	64.9933
3864	64.9936
3848	65.1916
3832	65.0864
3816	64.7544
3800	64.9146
3784	65.0599
3768	65.0881
3752	65.1172
3736	65.1137
3720	65.1309
3704	65.0069
3688	64.8987
3672	65.0549
3656	65.1966
3640	65.0273
3624	64.9902
3608	65.1456
3592	65.0704
3576	64.8941
3560	65.0251
3544	64.9637
3528	65.0468
3512	64.9042
3496	64.9707
3480	64.9107
3464	64.9242
3448	64.8501
3432	65.0936
3416	65.044
3400	65.0999
3384	64.7714
3368	65.2106
3352	64.9076
3336	65.0606
3320	64.9481
3304	64.8885
3288	64.9666
3272	64.757
3256	64.8831
3240	64.9561
3224	64.8063
3208	64.9125
3192	64.9239
3176	64.9482
3160	64.8496
3144	64.796
3128	64.8598
3112	64.8595
3096	64.9111
3080	64.9048
3064	64.7156
3048	64.8607
3032	64.8007
3016	64.738
3000	64.7581
2984	64.7998
2968	64.8032
2952	64.6947
2936	64.7045
2920	64.6667
2904	64.5427
2888	64.6704
2872	64.7161
2856	64.8057
2840	64.8752
2824	64.6327
2808	64.7528
2792	64.628
2776	64.6939
2760	64.7727
2744	64.6306
2728	64.6802
2712	64.7471
2696	64.5237
2680	64.6873
2664	64.5723
2648	64.7145
2632	64.577
2616	64.6501
2600	64.5147
2584	64.6017
2568	64.6266
2552	64.4833
2536	64.7246
2520	64.5122
2504	64.5489
2488	64.5116
2472	64.5344
2456	64.5293
2440	64.5415
2424	64.3904
2408	64.5192
2392	64.4603
2376	64.4641
2360	64.5709
2344	64.54
2328	64.4604
2312	64.4401
2296	64.3836
2280	64.3512
2264	64.344
2248	64.3439
2232	64.2661
2216	64.3895
2200	64.365
2184	64.2223
2168	64.2612
2152	64.2737
2136	64.2941
2120	64.2456
2104	64.2138
2088	64.1093
2072	64.3368
2056	64.1335
2040	64.0437
2024	64.0254
2008	64.0607
1992	64.0351
1976	64.0313
1960	64.0326
1944	63.963
1928	64.0532
1912	63.9265
1896	63.9719
1880	64.0112
1864	63.9688
1848	63.9034
1832	63.8636
1816	63.8294
1800	63.9145
1784	63.9309
1768	63.8432
1752	63.6523
1736	63.5684
1720	63.7123
1704	63.6645
1688	63.7594
1672	63.6675
1656	63.6323
1640	63.5568
1624	63.5334
1608	63.3829
1592	63.5594
1576	63.5663
1560	63.5602
1544	63.4921
1528	63.3978
1512	63.463
1496	63.5302
1480	63.3363
1464	63.3796
1448	63.3523
1432	63.2743
1416	63.4099
1400	63.2434
1384	63.1482
1368	63.2486
1352	63.2581
1336	63.2342
1320	63.2176
1304	63.1665
1288	63.1275
1272	62.9868
1256	63.0436
1240	62.9708
1224	63.1607
1208	63.1017
1192	62.8531
1176	62.899
1160	62.78
1144	62.7877
1128	62.7879
1112	62.9493
1096	62.8372
1080	62.8768
1064	62.9271
1048	62.6384
1032	62.7475
1016	62.5452
1000	62.6608
984	 62.8872
968	 62.7289
952	 62.6511
936	 62.5202
920	 62.7104
904	 62.7255
888	 62.8021
872	 62.4832
856	 62.657
840	 62.4527
824	 62.6428
808	 62.471
792	 62.4212
776	 62.3431
760	 62.2735
744	 62.1631
728	 62.2111
712	 62.08
696	 61.8824
680	 61.893
664	 61.5825
648	 61.6025
632	 60.7852
616	 62.0885
600	 61.6719
584	 62.5044
568	 60.444
552	 61.6889
536	 61.6111
520	 61.2802
504	 61.547
488	 61.4788
472	 60.0986
456	 60.0194
440	 59.6606
424	 60.8835
408	 56.8366
392	 63.5342
376	 56.9983
370	 67.1133