File: Bakgrunnsmateriale/MATLAB/FTIR/ftir_data/subAa/Mapping_121/BZ1503107-1_e124_cm-1.asc
PE IR       SPECTRUM    SPECTRUM    ASCII       PEDS        1.60
  -1
BZ097A~1.ASC
17/04/07
16:53:18.00
17/04/07
16:53:18.00
tln
$BZ1503107-1_e0124$<ebV0>[-23.3,12.1,10.0,0.0,27,1,0]
370
64

2002,4.07
MIRTGS : RIGHTBACK : INTERNAL 2
MIR : ON : INTERNAL 2
OPTKBR

0.200000
8
8.000000
FILLER
SINGLE
SPECTRUM
UNLOCKED 256

DOUBLE

COMBINED
1
0
0

1.000000
BACKG

1
0
TRUE
51149
0
LEFT NOT FITTED RIGHT NOT FITTED 0
NONE
NONE
15600
12
4.427000
51148
TRUE
1 0 8 72 0 0 0 0

15798

#HDR
-1
-1
#GR
CM-1
EGY
2.38419e-05
0.0
5000
-1.000000
4631
8
2.464175
0.008201
#DATA
5000	0.774908
4984	0.780272
4968	0.790739
4952	0.798106
4936	0.802230
4920	0.809979
4904	0.815773
4888	0.823616
4872	0.833034
4856	0.841546
4840	0.851655
4824	0.862979
4808	0.873374
4792	0.883698
4776	0.891280
4760	0.902295
4744	0.908756
4728	0.911569
4712	0.915455
4696	0.918316
4680	0.915408
4664	0.923061
4648	0.924205
4632	0.928592
4616	0.939035
4600	0.945162
4584	0.956273
4568	0.969481
4552	0.975203
4536	0.987601
4520	0.992584
4504	1.001501
4488	1.009321
4472	1.013612
4456	1.003623
4440	1.008486
4424	1.136279
4408	1.038241
4392	1.036453
4376	1.047182
4360	1.050901
4344	1.073646
4328	1.088905
4312	1.110720
4296	1.128697
4280	1.148128
4264	1.162195
4248	1.178359
4232	1.189112
4216	1.197147
4200	1.204109
4184	1.212191
4168	1.223707
4152	1.233148
4136	1.243162
4120	1.253771
4104	1.272273
4088	1.292657
4072	1.315069
4056	1.337838
4040	1.358270
4024	1.378226
4008	1.395964
3992	1.404666
3976	1.414942
3960	1.424098
3944	1.430058
3928	1.434588
3912	1.438117
3896	1.441478
3880	1.451683
3864	1.458787
3848	1.472640
3832	1.490831
3816	1.507949
3800	1.528096
3784	1.549720
3768	1.563835
3752	1.560807
3736	1.573491
3720	1.585769
3704	1.586198
3688	1.582646
3672	1.578092
3656	1.584267
3640	1.590442
3624	1.591420
3608	1.597833
3592	1.608371
3576	1.619768
3560	1.628279
3544	1.635193
3528	1.637125
3512	1.638531
3496	1.632261
3480	1.624369
3464	1.617741
3448	1.604509
3432	1.598334
3416	1.599645
3400	1.610445
3384	1.619911
3368	1.630449
3352	1.661825
3336	1.681995
3320	1.706075
3304	1.727962
3288	1.751112
3272	1.770281
3256	1.783132
3240	1.793932
3224	1.798439
3208	1.802349
3192	1.804876
3176	1.808476
3160	1.816987
3144	1.828813
3128	1.845240
3112	1.868867
3096	1.895022
3080	1.930475
3064	1.950120
3048	1.979303
3032	1.990842
3016	1.977968
3000	2.036476
2984	2.036762
2968	1.974821
2952	1.931810
2936	1.826047
2920	1.813364
2904	1.957654
2888	2.007770
2872	1.995778
2856	1.938366
2840	2.081418
2824	2.142190
2808	2.180194
2792	2.207970
2776	2.239108
2760	2.258896
2744	2.268290
2728	2.270436
2712	2.263307
2696	2.255272
2680	2.246928
2664	2.236175
2648	2.229738
2632	2.228307
2616	2.231788
2600	2.235960
2584	2.249884
2568	2.278447
2552	2.297544
2536	2.317190
2520	2.328467
2504	2.337479
2488	2.335548
2472	2.332210
2456	2.315640
2440	2.298069
2424	2.281212
2408	2.269005
2392	2.259564
2376	2.252578
2360	2.246832
2344	2.273130
2328	2.294182
2312	2.327942
2296	2.352523
2280	2.373480
2264	2.384209
2248	2.391719
2232	2.390313
2216	2.380013
2200	2.366781
2184	2.356886
2168	2.348303
2152	2.343058
2136	2.342414
2120	2.344012
2104	2.348136
2088	2.347993
2072	2.367758
2056	2.400827
2040	2.432203
2024	2.452230
2008	2.460789
1992	2.462911
1976	2.453875
1960	2.442526
1944	2.425146
1928	2.412271
1912	2.394413
1896	2.381134
1880	2.383708
1864	2.389907
1848	2.399754
1832	2.414751
1816	2.432632
1800	2.438735
1784	2.436423
1768	2.421045
1752	2.393341
1736	2.335095
1720	2.316808
1704	2.281856
1688	2.256679
1672	2.233791
1656	2.186632
1640	2.160573
1624	2.112770
1608	1.977610
1592	2.022027
1576	1.991772
1560	1.937150
1544	1.963949
1528	2.113342
1512	2.095484
1496	1.705932
1480	1.962208
1464	1.940155
1448	1.788163
1432	1.873445
1416	1.845812
1400	1.734638
1384	1.789379
1368	1.819348
1352	1.819539
1336	1.830935
1320	1.856350
1304	1.857733
1288	1.856923
1272	1.808094
1256	1.759719
1240	1.838016
1224	1.817607
1208	1.749944
1192	1.744055
1176	1.701045
1160	1.633715
1144	1.601886
1128	1.542901
1112	1.460409
1096	1.425790
1080	1.428627
1064	1.438021
1048	1.308393
1032	1.381158
1016	1.369237
1000	1.400637
984	 1.382637
968	 1.344537
952	 1.290678
936	 1.255822
920	 1.216888
904	 1.161718
888	 1.121783
872	 1.039266
856	 1.092696
840	 1.060771
824	 0.845837
808	 0.950360
792	 0.961422
776	 0.978922
760	 0.965571
744	 0.943207
728	 0.904512
712	 0.857925
696	 0.792551
680	 0.733780
664	 0.708794
648	 0.664210
632	 0.626850
616	 0.573158
600	 0.524687
584	 0.509357
568	 0.493001
552	 0.464963
536	 0.440859
520	 0.397920
504	 0.360846
488	 0.305962
472	 0.251770
456	 0.196385
440	 0.150179
424	 0.098013
408	 0.057291
392	 0.026726
376	 0.010681
370	 0.008201