File: Bakgrunnsmateriale/MATLAB/FTIR/ftir_data/subAa/Mapping_121/BZ1503107-1_t64_cm-1.asc
PE IR       SPECTRUM    SPECTRUM    ASCII       PEDS        1.60
  -1
BZ6C21~1.ASC
17/04/07
18:27:27.00
17/04/07
18:27:27.00
tln
$BZ1503107-1_t0064$<tbV0>[-7.8,0.0,8.0,0.0,27,1,0]
370
64

2002,4.07
MIRTGS : RIGHTBACK : INTERNAL 2
MIR : ON : INTERNAL 2
OPTKBR

0.200000
8
8.000000
FILLER
RATIO
SPECTRUM
UNLOCKED 256

DOUBLE
64
COMBINED
1
0
0

1.000000
RATIO

1
0
TRUE
51149
0
LEFT NOT FITTED RIGHT NOT FITTED 0
NONE
NONE
15600
12
4.427000
51148
TRUE
1 0 8 72 0 0 0 0

15798

#HDR
-1
-1
#GR
CM-1
%T
2.38419e-05
0.0
5000
-1.000000
4631
8
70.6243
47.5368
#DATA
5000	65.0026
4984	65.2569
4968	64.6985
4952	64.2547
4936	65.4076
4920	64.5779
4904	64.777
4888	64.8117
4872	64.8279
4856	64.8128
4840	64.8334
4824	64.5316
4808	64.2788
4792	65.0097
4776	65.2796
4760	64.8074
4744	64.9043
4728	64.8214
4712	64.6701
4696	64.9969
4680	65.1449
4664	64.7845
4648	64.7615
4632	64.8336
4616	64.4591
4600	65.0016
4584	65.0743
4568	65.0304
4552	65.4032
4536	64.8441
4520	65.2209
4504	65.4112
4488	64.749
4472	65.1707
4456	64.5586
4440	65.0205
4424	69.7454
4408	65.7914
4392	64.8097
4376	65.2236
4360	65.5812
4344	64.7825
4328	65.2521
4312	64.9595
4296	64.708
4280	65.0029
4264	65.0687
4248	64.7776
4232	65.2608
4216	64.8196
4200	64.7012
4184	65.364
4168	64.5761
4152	64.8155
4136	64.8244
4120	65.0311
4104	65.069
4088	64.9121
4072	64.9069
4056	64.9775
4040	65.0184
4024	65.1983
4008	64.8275
3992	65.2784
3976	65.2799
3960	65.0499
3944	64.9108
3928	65.0068
3912	64.831
3896	65.1746
3880	65.0282
3864	65.1447
3848	65.2473
3832	65.0674
3816	65.0473
3800	64.8668
3784	65.1312
3768	65.1329
3752	65.1794
3736	65.0297
3720	65.1454
3704	65.057
3688	65.0089
3672	65.0218
3656	65.1689
3640	65.2611
3624	65.2066
3608	65.2074
3592	65.0886
3576	65.1306
3560	65.1982
3544	64.9873
3528	64.9303
3512	65.2527
3496	65.2305
3480	65.2024
3464	64.9701
3448	65.1119
3432	64.7013
3416	64.9514
3400	64.9432
3384	64.9292
3368	65.2865
3352	64.8051
3336	65.0172
3320	64.9301
3304	65.0668
3288	65.0429
3272	64.8705
3256	64.9012
3240	64.9848
3224	65.0532
3208	65.0069
3192	65.0018
3176	64.9525
3160	65.0794
3144	64.9548
3128	65.0223
3112	64.9418
3096	65.1252
3080	64.9472
3064	64.8797
3048	64.9385
3032	64.9821
3016	65.0465
3000	65.0403
2984	65.0673
2968	64.8384
2952	64.8429
2936	64.6585
2920	64.9295
2904	64.8977
2888	64.9989
2872	64.8361
2856	64.9278
2840	64.9939
2824	64.9012
2808	64.7844
2792	64.9181
2776	64.7416
2760	64.8631
2744	64.919
2728	64.8906
2712	64.9219
2696	64.9179
2680	64.8618
2664	64.985
2648	64.8399
2632	64.8864
2616	64.8734
2600	64.8334
2584	64.8615
2568	64.8261
2552	64.8336
2536	64.7932
2520	64.8321
2504	64.6781
2488	64.9233
2472	64.6418
2456	64.7743
2440	64.8289
2424	64.9757
2408	64.6843
2392	64.7885
2376	64.6635
2360	64.7116
2344	64.8058
2328	64.7222
2312	64.5845
2296	64.7674
2280	64.6073
2264	64.7437
2248	64.6609
2232	64.7122
2216	64.659
2200	64.776
2184	64.6388
2168	64.6341
2152	64.7123
2136	64.7042
2120	64.4767
2104	64.6415
2088	64.5696
2072	64.4142
2056	64.6437
2040	64.5535
2024	64.5917
2008	64.6019
1992	64.5491
1976	64.6003
1960	64.4052
1944	64.4552
1928	64.4646
1912	64.2957
1896	64.3414
1880	64.3757
1864	64.4434
1848	64.5085
1832	64.4264
1816	64.3146
1800	64.2914
1784	64.3792
1768	64.3668
1752	64.1756
1736	64.0255
1720	64.1372
1704	64.1767
1688	64.1603
1672	64.108
1656	64.1125
1640	64.1992
1624	64.1094
1608	64.1002
1592	64.0681
1576	64.0448
1560	63.9395
1544	63.9468
1528	64.0362
1512	64.2267
1496	64.0461
1480	64.1575
1464	64.0688
1448	63.9806
1432	64.0649
1416	64.0895
1400	64.0604
1384	64.0105
1368	63.9415
1352	63.8933
1336	63.8753
1320	63.9102
1304	63.8781
1288	63.9099
1272	63.8875
1256	63.7977
1240	63.8168
1224	63.7756
1208	63.7359
1192	63.6687
1176	63.7226
1160	63.558
1144	63.5816
1128	63.5911
1112	63.5935
1096	63.6716
1080	63.6109
1064	63.6608
1048	63.713
1032	63.5146
1016	63.4978
1000	63.758
984	 63.6309
968	 63.6336
952	 63.6812
936	 63.6023
920	 63.8504
904	 63.687
888	 63.6468
872	 63.8015
856	 63.8528
840	 63.7141
824	 63.7239
808	 63.4631
792	 63.4686
776	 63.4851
760	 63.1248
744	 63.0094
728	 63.0358
712	 63.3054
696	 63.1031
680	 63.1857
664	 62.7286
648	 63.8419
632	 62.8561
616	 63.9179
600	 61.1664
584	 63.0452
568	 62.7044
552	 63.2625
536	 61.9089
520	 63.7773
504	 62.6887
488	 62.5995
472	 62.6288
456	 62.2823
440	 64.8793
424	 64.1461
408	 66.4087
392	 63.6285
376	 62.2337
370	 47.5368