File: Bakgrunnsmateriale/MATLAB/FTIR/ftir_data/subAa/Mapping_121/BZ1503107-1_t21.asc
PE IR       SPECTRUM    SPECTRUM    ASCII       PEDS        1.60
  -1
BZ2D49~1.ASC
17/04/07
14:53:27.00
17/04/07
14:53:54.00
tln
$BZ1503107-1_t0021$<tbV0>[-10.4,-10.4,8.0,0.0,27,1,0]
27.028
64

2002,4.07
MIRTGS : RIGHTBACK : INTERNAL 2
MIR : ON : INTERNAL 2
OPTKBR

0.200000
8
8.000000
FILLER
RATIO
SPECTRUM
UNLOCKED 256

DOUBLE
64
COMBINED
1
0
0

0.002000
RATIO

1
0
TRUE
51149
0
LEFT NOT FITTED RIGHT NOT FITTED 0
NONE
NONE
15600
12
4.427000
51148
TRUE
1 0 8 72 0 0 0 0

15798

#HDR
-1
-1
#GR
µM
%T
2.38419e-05
0.0
2.000000
0.002000
12515
8
72.9187
22.9309
#DATA
2.000000	 64.9513
2.084000	 66.0705
2.168000	 64.7273
2.252000	 59.1047
2.336000	 65.0076
2.420000	 65.1106
2.504000	 64.9456
2.588000	 64.8471
2.672000	 65.2802
2.756000	 65.4078
2.840000	 65.0421
2.924000	 65.273
3.008000	 65.1812
3.092000	 64.9866
3.176000	 65.1988
3.260000	 65.2328
3.344000	 65.0019
3.428000	 64.9731
3.512000	 64.9785
3.596000	 65.1053
3.680000	 64.9825
3.764000	 64.9962
3.848000	 64.9988
3.932000	 65.0721
4.016000	 64.9225
4.100000	 64.9678
4.184000	 65.0938
4.268000	 64.9845
4.352000	 64.9719
4.436000	 65.0081
4.520000	 64.9164
4.604000	 64.9124
4.688000	 64.8736
4.772000	 64.8514
4.856000	 64.6844
4.940000	 64.8652
5.024000	 64.856
5.108000	 64.8067
5.192000	 64.7787
5.276000	 64.8302
5.359999	 64.8385
5.444000	 64.7421
5.528000	 64.7993
5.612000	 64.7964
5.696000	 64.7436
5.780000	 64.5056
5.864000	 64.7304
5.948000	 64.7413
6.032000	 64.7874
6.116000	 64.6913
6.200000	 64.6131
6.284000	 64.6907
6.368000	 64.7778
6.452000	 64.7419
6.536000	 64.6692
6.620000	 64.8263
6.704000	 64.5676
6.788000	 64.6387
6.872000	 64.5469
6.956000	 64.7295
7.040000	 64.48
7.124000	 64.377
7.208000	 64.4411
7.292000	 64.2941
7.376000	 64.5636
7.460000	 64.4023
7.544000	 64.3815
7.628000	 64.2682
7.712000	 64.3714
7.796000	 64.396
7.880000	 64.2141
7.964000	 64.308
8.048000	 64.1969
8.132000	 64.3018
8.216000	 64.2614
8.300000	 64.1816
8.384000	 64.3584
8.468000	 64.1037
8.552000	 64.1425
8.635999	 64.2099
8.719999	 64.1295
8.804000	 64.2581
8.888000	 64.2867
8.972000	 64.2186
9.056000	 63.9569
9.140000	 64.189
9.224000	 64.3243
9.308000	 64.2578
9.391999	 64.1686
9.475999	 64.0644
9.560000	 64.0154
9.644000	 64.0644
9.728000	 64.0998
9.812000	 64.0843
9.896000	 64.0025
9.980000	 64.1471
10.064	64.4794
10.148	64.3398
10.232	64.1604
10.316	64.0345
10.4	64.1264
10.484	64.2582
10.568	64.3367
10.652	64.3477
10.736	64.2192
10.82	64.2033
10.904	64.2687
10.988	64.3421
11.072	64.1653
11.156	64.2355
11.24	64.1083
11.324	64.2429
11.408	64.3665
11.492	64.2543
11.576	63.9876
11.66	64.1447
11.744	64.3556
11.828	64.3703
11.912	64.2611
11.996	64.0395
12.08	64.0107
12.164	64.1682
12.248	64.0776
12.332	64.0658
12.416	64.0034
12.5	64.044
12.584	64.0772
12.668	64.0122
12.752	64.1173
12.836	64.01
12.92	63.8958
13.004	63.9227
13.088	63.9284
13.172	64.1312
13.256	64.318
13.34	64.0244
13.424	63.716
13.508	64
13.592	64.2103
13.676	64.081
13.76	63.97
13.844	63.9563
13.928	64.0036
14.012	64.0182
14.096	63.9611
14.18	63.9166
14.264	64.0237
14.348	64.0783
14.432	63.9658
14.516	63.8858
14.6	63.9647
14.684	64.1149
14.768	63.9405
14.852	63.5929
14.936	63.5786
15.02	63.7387
15.104	63.7536
15.188	63.7122
15.272	63.7124
15.356	63.6357
15.44	63.6254
15.524	63.9414
15.608	64.3156
15.692	64.3966
15.776	64.2565
15.86	64.1307
15.944	64.0541
16.028	63.8561
16.112	63.6932
16.196	63.9752
16.28	64.4343
16.364	64.3495
16.448	63.7672
16.532	63.438
16.616	63.7032
16.7	64.156
16.784	64.2987
16.868	64.1411
16.952	63.9987
17.036	63.9284
17.12	63.7776
17.204	63.6588
17.288	63.764
17.372	63.8585
17.456	63.6189
17.54	63.3051
17.624	63.4978
17.708	64.2298
17.792	64.9258
17.876	65.1097
17.96	64.8366
18.044	64.4327
18.128	64.1301
18.212	63.9702
18.296	63.9014
18.38	63.8706
18.464	63.8214
18.548	63.6855
18.632	63.4637
18.716	63.2891
18.8	63.3411
18.884	63.6612
18.968	64.077
19.052	64.3403
19.136	64.3319
19.22	64.1368
19.304	63.9312
19.388	63.8145
19.472	63.7489
19.556	63.6576
19.64	63.5529
19.724	63.5413
19.808	63.7083
19.892	64.01
19.976	64.3011
20.06	64.4619
20.144	64.4977
20.228	64.5137
20.312	64.5886
20.396	64.6931
20.48	64.721
20.564	64.6069
20.648	64.4109
20.732	64.288
20.816	64.3775
20.9	64.6849
20.984	65.0515
21.068	65.244
21.152	65.1085
21.236	64.674
21.32	64.1476
21.404	63.7877
21.488	63.7549
21.572	64.0306
21.656	64.4397
21.74	64.753
21.824	64.8095
21.908	64.5947
21.992	64.218
22.076	63.8306
22.16	63.5468
22.244	63.3993
22.328	63.346
22.412	63.3039
22.496	63.1937
22.58	62.9842
22.664	62.7044
22.748	62.4335
22.832	62.2511
22.916	62.2128
23	62.3003
23.084	62.4524
23.168	62.6
23.252	62.7006
23.336	62.7333
23.42	62.6848
23.504	62.532
23.588	62.2592
23.672	61.8916
23.756	61.5209
23.84	61.2733
23.924	61.2417
24.008	61.4566
24.092	61.8968
24.176	62.5023
24.26	63.228
24.344	64.0758
24.428	65.0714
24.512	66.1988
24.596	67.3515
24.68	68.3317
24.764	68.919
24.848	68.9218
24.932	68.3191
25.016	67.3297
25.1	66.3324
25.184	65.6798
25.268	65.5166
25.352	65.7678
25.436	66.0295
25.52	65.7935
25.604	64.75
25.688	62.7228
25.772	59.8861
25.856	56.7588
25.94	54.4769
26.024	53.8363
26.108	54.3806
26.192	55.4427
26.276	56.6084
26.36	58.6797
26.444	61.4101
26.528	63.3045
26.612	60.4089
26.696	50.7171
26.78	36.5177
26.864	25.0167
26.948	23.8341
27.028	32.7042