File: Bakgrunnsmateriale/MATLAB/FTIR/ftir_data/subAa/Mapping_121/BZ1503107-1_t114.asc
PE IR       SPECTRUM    SPECTRUM    ASCII       PEDS        1.60
  -1
BZDAB2~1.ASC
17/04/07
22:39:07.00
17/04/07
22:39:33.00
tln
$BZ1503107-1_t0114$<tbV0>[5.2,13.0,8.0,0.0,27,1,0]
27.028
64

2002,4.07
MIRTGS : RIGHTBACK : INTERNAL 2
MIR : ON : INTERNAL 2
OPTKBR

0.200000
8
8.000000
FILLER
RATIO
SPECTRUM
UNLOCKED 256

DOUBLE
64
COMBINED
1
0
0

0.002000
RATIO

1
0
TRUE
51149
0
LEFT NOT FITTED RIGHT NOT FITTED 0
NONE
NONE
15600
12
4.427000
51148
TRUE
1 0 8 72 0 0 0 0

15798

#HDR
-1
-1
#GR
µM
%T
2.38419e-05
0.0
2.000000
0.002000
12515
8
80.7338
51.9574
#DATA
2.000000	 65.7937
2.084000	 65.2976
2.168000	 65.0671
2.252000	 61.1222
2.336000	 64.9497
2.420000	 64.9143
2.504000	 64.9401
2.588000	 64.8824
2.672000	 64.8904
2.756000	 65.1073
2.840000	 64.9399
2.924000	 64.9855
3.008000	 64.7521
3.092000	 64.7888
3.176000	 64.9262
3.260000	 64.8507
3.344000	 64.8304
3.428000	 64.4688
3.512000	 64.6376
3.596000	 64.7079
3.680000	 64.5159
3.764000	 64.5802
3.848000	 64.5351
3.932000	 64.4034
4.016000	 64.437
4.100000	 64.3853
4.184000	 64.3768
4.268000	 64.3085
4.352000	 64.2177
4.436000	 64.2803
4.520000	 64.2267
4.604000	 64.2392
4.688000	 64.1998
4.772000	 64.08
4.856000	 64.1186
4.940000	 63.9569
5.024000	 63.8966
5.108000	 63.8516
5.192000	 63.9094
5.276000	 63.8215
5.359999	 63.863
5.444000	 63.7992
5.528000	 63.8107
5.612000	 63.782
5.696000	 63.6914
5.780000	 63.4312
5.864000	 63.6159
5.948000	 63.6119
6.032000	 63.6073
6.116000	 63.5176
6.200000	 63.4189
6.284000	 63.425
6.368000	 63.4078
6.452000	 63.3173
6.536000	 63.2459
6.620000	 63.446
6.704000	 63.4086
6.788000	 63.3136
6.872000	 63.1734
6.956000	 63.168
7.040000	 63.0831
7.124000	 63.1547
7.208000	 63.0687
7.292000	 62.9648
7.376000	 63.0819
7.460000	 63.0692
7.544000	 63.1438
7.628000	 62.9836
7.712000	 63.0539
7.796000	 62.9818
7.880000	 62.921
7.964000	 62.7957
8.048000	 62.7692
8.132000	 62.8034
8.216000	 62.8295
8.300000	 62.727
8.384000	 62.7252
8.468000	 62.7303
8.552000	 62.6449
8.635999	 62.7607
8.719999	 62.6045
8.804000	 62.7333
8.888000	 62.7466
8.972000	 62.6341
9.056000	 62.6676
9.140000	 62.6618
9.224000	 62.6411
9.308000	 62.58
9.391999	 62.7219
9.475999	 62.7276
9.560000	 62.8212
9.644000	 62.6154
9.728000	 62.6236
9.812000	 62.4722
9.896000	 62.6052
9.980000	 62.7049
10.064	62.4878
10.148	62.5507
10.232	62.5735
10.316	62.597
10.4	62.4627
10.484	62.4844
10.568	62.4878
10.652	62.564
10.736	62.6117
10.82	62.6396
10.904	62.7484
10.988	62.6065
11.072	62.5452
11.156	62.3947
11.24	62.5692
11.324	62.6784
11.408	62.4593
11.492	62.4619
11.576	62.4744
11.66	62.4724
11.744	62.6643
11.828	62.374
11.912	62.2667
11.996	62.4108
12.08	62.6018
12.164	62.4477
12.248	62.546
12.332	62.5088
12.416	62.343
12.5	62.3188
12.584	62.4328
12.668	62.4921
12.752	62.4017
12.836	62.1421
12.92	61.9373
13.004	62.0782
13.088	62.2178
13.172	62.2532
13.256	62.1608
13.34	62.1789
13.424	62.2471
13.508	62.104
13.592	62.1231
13.676	62.1618
13.76	62.1612
13.844	62.0281
13.928	61.9062
14.012	61.9616
14.096	61.9288
14.18	61.7267
14.264	61.602
14.348	61.6847
14.432	61.9457
14.516	62.1376
14.6	62.0119
14.684	61.9837
14.768	62.1599
14.852	62.247
14.936	62.2772
15.02	62.1237
15.104	61.6939
15.188	61.2217
15.272	61.0414
15.356	61.322
15.44	61.7252
15.524	61.8636
15.608	61.8306
15.692	61.8599
15.776	61.8012
15.86	61.2733
15.944	60.4279
16.028	60.1014
16.112	60.7039
16.196	61.5449
16.28	61.779
16.364	61.3953
16.448	60.9087
16.532	60.7887
16.616	61.1105
16.7	61.4783
16.784	61.5188
16.868	61.3061
16.952	61.1834
17.036	61.3296
17.12	61.5544
17.204	61.4896
17.288	61.0399
17.372	60.5486
17.456	60.4498
17.54	60.8337
17.624	61.3769
17.708	61.717
17.792	61.8014
17.876	61.8128
17.96	61.8452
18.044	61.8196
18.128	61.6731
18.212	61.5007
18.296	61.4592
18.38	61.5953
18.464	61.797
18.548	61.8874
18.632	61.746
18.716	61.4089
18.8	61.0444
18.884	60.7888
18.968	60.6394
19.052	60.5151
19.136	60.377
19.22	60.2623
19.304	60.2438
19.388	60.3713
19.472	60.6304
19.556	60.9221
19.64	61.1069
19.724	61.1202
19.808	61.0255
19.892	60.9378
19.976	60.9278
20.06	61.0041
20.144	61.1394
20.228	61.28
20.312	61.3643
20.396	61.3557
20.48	61.262
20.564	61.1268
20.648	61.0051
20.732	60.9321
20.816	60.9061
20.9	60.8992
20.984	60.886
21.068	60.856
21.152	60.8105
21.236	60.7476
21.32	60.6613
21.404	60.5566
21.488	60.4608
21.572	60.4076
21.656	60.3999
21.74	60.4029
21.824	60.3826
21.908	60.3512
21.992	60.3624
22.076	60.4589
22.16	60.616
22.244	60.7338
22.328	60.7108
22.412	60.5135
22.496	60.2097
22.58	59.9214
22.664	59.7546
22.748	59.7568
22.832	59.9231
22.916	60.2195
23	60.5963
23.084	60.9813
23.168	61.2705
23.252	61.3682
23.336	61.226
23.42	60.8845
23.504	60.4709
23.588	60.1442
23.672	60.0128
23.756	60.0827
23.84	60.2573
23.924	60.4012
24.008	60.4027
24.092	60.208
24.176	59.8411
24.26	59.3713
24.344	58.8804
24.428	58.4224
24.512	58.0093
24.596	57.6445
24.68	57.3665
24.764	57.2607
24.848	57.4138
24.932	57.8769
25.016	58.612
25.1	59.4766
25.184	60.2732
25.268	60.8555
25.352	61.1989
25.436	61.4853
25.52	62.0038
25.604	62.9696
25.688	64.4503
25.772	66.2861
25.856	68.153
25.94	69.6968
26.024	70.7002
26.108	71.2109
26.192	71.4671
26.276	71.7537
26.36	72.3046
26.444	73.0831
26.528	73.792
26.612	73.9797
26.696	73.3249
26.78	71.8633
26.864	70.0154
26.948	68.3491
27.028	67.2799