File: Bakgrunnsmateriale/MATLAB/FTIR/ftir_data/subAa/Mapping_121/BZ1503107-1_t113_cm-1.asc
PE IR       SPECTRUM    SPECTRUM    ASCII       PEDS        1.60
  -1
BZ4CFA~1.ASC
17/04/07
22:34:29.00
17/04/07
22:34:29.00
tln
$BZ1503107-1_t0113$<tbV0>[7.8,13.0,8.0,0.0,27,1,0]
370
64

2002,4.07
MIRTGS : RIGHTBACK : INTERNAL 2
MIR : ON : INTERNAL 2
OPTKBR

0.200000
8
8.000000
FILLER
RATIO
SPECTRUM
UNLOCKED 256

DOUBLE
64
COMBINED
1
0
0

1.000000
RATIO

1
0
TRUE
51149
0
LEFT NOT FITTED RIGHT NOT FITTED 0
NONE
NONE
15600
12
4.427000
51148
TRUE
1 0 8 72 0 0 0 0

15798

#HDR
-1
-1
#GR
CM-1
%T
2.38419e-05
0.0
5000
-1.000000
4631
8
68.8773
50.346
#DATA
5000	65.4717
4984	65.4577
4968	64.8572
4952	65.2935
4936	64.9033
4920	64.6082
4904	65.036
4888	65.0508
4872	64.6468
4856	65.0623
4840	65.2566
4824	64.7279
4808	64.6995
4792	64.7203
4776	64.3151
4760	64.6854
4744	64.7766
4728	64.9038
4712	64.6983
4696	64.4724
4680	64.6053
4664	64.6239
4648	64.9538
4632	64.8808
4616	64.9622
4600	65.1619
4584	65.0675
4568	65.2309
4552	65.2181
4536	65.2706
4520	65.0864
4504	64.9864
4488	65.2085
4472	64.9774
4456	67.0424
4440	59.0791
4424	63.6132
4408	65.777
4392	65.578
4376	65.9188
4360	65.1205
4344	65.1539
4328	65.1636
4312	65.1817
4296	65.016
4280	65.0539
4264	64.9904
4248	65.0479
4232	64.6529
4216	64.967
4200	65.0235
4184	64.9654
4168	65.0292
4152	64.8261
4136	64.7469
4120	64.8209
4104	65.2086
4088	64.777
4072	65.0789
4056	65.1622
4040	64.7311
4024	64.9354
4008	65.0467
3992	64.9002
3976	64.9007
3960	64.9943
3944	65.0301
3928	64.9191
3912	64.8373
3896	64.8026
3880	65.349
3864	64.9388
3848	64.8124
3832	65.0225
3816	64.9539
3800	65.193
3784	64.9269
3768	64.9198
3752	64.8112
3736	65.0081
3720	64.9658
3704	64.8857
3688	65.0639
3672	65.0567
3656	64.9749
3640	64.9182
3624	65.0356
3608	65.0628
3592	64.9375
3576	64.868
3560	64.9811
3544	64.9006
3528	64.8157
3512	64.9899
3496	64.8983
3480	65.068
3464	65.108
3448	64.8655
3432	64.953
3416	64.9591
3400	65.0505
3384	64.8894
3368	64.8992
3352	64.928
3336	65.0021
3320	64.8365
3304	64.8614
3288	64.8917
3272	64.8876
3256	64.8964
3240	64.9245
3224	64.6924
3208	64.7647
3192	64.6963
3176	64.7691
3160	64.9245
3144	64.6878
3128	64.7786
3112	64.9086
3096	64.8603
3080	64.9405
3064	64.8375
3048	64.7576
3032	64.8219
3016	64.8226
3000	64.7266
2984	64.7155
2968	64.6184
2952	64.6673
2936	64.851
2920	64.7524
2904	64.4936
2888	64.7923
2872	64.6549
2856	64.6668
2840	64.7146
2824	64.664
2808	64.7007
2792	64.6402
2776	64.7331
2760	64.7058
2744	64.5539
2728	64.6385
2712	64.676
2696	64.6108
2680	64.5865
2664	64.5688
2648	64.637
2632	64.5095
2616	64.5224
2600	64.6146
2584	64.4945
2568	64.5509
2552	64.5569
2536	64.6109
2520	64.4274
2504	64.5705
2488	64.4014
2472	64.4195
2456	64.5111
2440	64.4533
2424	64.2282
2408	64.3437
2392	64.5537
2376	64.3845
2360	64.3907
2344	64.3173
2328	64.3683
2312	64.2051
2296	64.3553
2280	64.3907
2264	64.2659
2248	64.2816
2232	64.2009
2216	64.2841
2200	64.3403
2184	64.2845
2168	64.1454
2152	64.2057
2136	64.142
2120	64.1608
2104	64.0897
2088	64.1076
2072	64.1443
2056	64.0973
2040	64.0363
2024	64.0381
2008	63.9515
1992	64.0809
1976	64.0098
1960	64.0232
1944	63.9627
1928	64.0153
1912	63.9191
1896	63.9633
1880	63.8737
1864	63.8333
1848	63.8989
1832	63.8576
1816	63.8138
1800	63.8105
1784	63.9315
1768	63.7982
1752	63.6851
1736	63.622
1720	63.547
1704	63.6174
1688	63.6951
1672	63.655
1656	63.5482
1640	63.5674
1624	63.4118
1608	63.4237
1592	63.5403
1576	63.3787
1560	63.4253
1544	63.4714
1528	63.4333
1512	63.4495
1496	63.329
1480	63.2814
1464	63.3016
1448	63.3676
1432	63.1448
1416	63.2345
1400	63.208
1384	63.1082
1368	63.1192
1352	63.2027
1336	63.1498
1320	63.2398
1304	63.0891
1288	63.0547
1272	62.9652
1256	62.8543
1240	62.9849
1224	62.989
1208	62.9792
1192	62.9432
1176	62.8275
1160	62.8932
1144	62.8814
1128	62.7336
1112	62.6132
1096	62.8047
1080	62.6201
1064	62.7541
1048	62.5716
1032	62.584
1016	62.5057
1000	62.6322
984	 62.7492
968	 62.5932
952	 62.7371
936	 62.4678
920	 62.7752
904	 62.7135
888	 62.5376
872	 62.5188
856	 62.3736
840	 62.4054
824	 62.5328
808	 62.4288
792	 62.6693
776	 62.2063
760	 62.0462
744	 62.1654
728	 62.1605
712	 62.0324
696	 62.186
680	 62.407
664	 61.6379
648	 61.3395
632	 60.6049
616	 61.273
600	 61.4787
584	 61.749
568	 60.658
552	 61.967
536	 61.5998
520	 60.9383
504	 61.2639
488	 60.6456
472	 61.5916
456	 61.0735
440	 59.4717
424	 60.7574
408	 59.1964
392	 67.1247
376	 50.9231
370	 67.7303