File: Bakgrunnsmateriale/MATLAB/FTIR/ftir_data/subAa/Mapping_121/BZ1503107-1_t111_cm-1.asc
PE IR       SPECTRUM    SPECTRUM    ASCII       PEDS        1.60
  -1
BZ3CF5~1.ASC
17/04/07
22:25:15.00
17/04/07
22:25:15.00
tln
$BZ1503107-1_t0111$<tbV0>[13.0,13.0,8.0,0.0,27,1,0]
370
64

2002,4.07
MIRTGS : RIGHTBACK : INTERNAL 2
MIR : ON : INTERNAL 2
OPTKBR

0.200000
8
8.000000
FILLER
RATIO
SPECTRUM
UNLOCKED 256

DOUBLE
64
COMBINED
1
0
0

1.000000
RATIO

1
0
TRUE
51149
0
LEFT NOT FITTED RIGHT NOT FITTED 0
NONE
NONE
15600
12
4.427000
51148
TRUE
1 0 8 72 0 0 0 0

15798

#HDR
-1
-1
#GR
CM-1
%T
2.38419e-05
0.0
5000
-1.000000
4631
8
74.5137
53.2446
#DATA
5000	64.359
4984	64.3195
4968	62.7538
4952	63.0136
4936	63.3599
4920	63.4561
4904	63.4311
4888	62.9964
4872	63.4348
4856	63.2865
4840	63.1255
4824	63.1059
4808	62.851
4792	63.01
4776	63.0431
4760	62.9472
4744	62.9679
4728	63.3936
4712	62.9698
4696	62.8869
4680	63.1826
4664	63.448
4648	63.3642
4632	63.413
4616	63.7129
4600	63.3776
4584	63.7826
4568	64.1604
4552	63.6664
4536	63.6028
4520	63.6814
4504	63.742
4488	63.5138
4472	64.4546
4456	65.4587
4440	56.3908
4424	56.0065
4408	64.9312
4392	64.3405
4376	64.5651
4360	64.1686
4344	63.8977
4328	63.9582
4312	63.4822
4296	63.5806
4280	63.4599
4264	63.5077
4248	63.2068
4232	63.4029
4216	63.2741
4200	63.1174
4184	62.9675
4168	63.2727
4152	63.0096
4136	63.1239
4120	63.2153
4104	63.4494
4088	63.4026
4072	63.5146
4056	63.3142
4040	63.3356
4024	63.3184
4008	63.5038
3992	63.3847
3976	62.9635
3960	63.2955
3944	63.3578
3928	63.4041
3912	63.4797
3896	63.1499
3880	63.7788
3864	63.1077
3848	63.6042
3832	63.4416
3816	63.2904
3800	63.5213
3784	63.2605
3768	63.4475
3752	63.3645
3736	63.2853
3720	63.2303
3704	63.0986
3688	63.3548
3672	63.408
3656	63.4031
3640	63.2356
3624	63.4462
3608	63.4732
3592	63.487
3576	63.4279
3560	63.5044
3544	63.3102
3528	63.2986
3512	63.2834
3496	63.1383
3480	63.3596
3464	63.1935
3448	63.1882
3432	63.3091
3416	63.43
3400	63.6683
3384	63.3858
3368	63.5412
3352	63.597
3336	63.2642
3320	63.3251
3304	63.2393
3288	63.2986
3272	63.0913
3256	63.2294
3240	63.0934
3224	63.0101
3208	63.0276
3192	63.1109
3176	63.2357
3160	63.1559
3144	63.123
3128	63.2579
3112	63.2756
3096	63.468
3080	63.3604
3064	63.1915
3048	63.129
3032	63.2386
3016	63.1284
3000	63.1486
2984	62.9171
2968	62.992
2952	62.9738
2936	62.9218
2920	62.9248
2904	62.8792
2888	63.0332
2872	63.1257
2856	63.146
2840	63.2392
2824	63.115
2808	63.0797
2792	63.032
2776	63.1075
2760	63.0298
2744	62.9389
2728	63.0594
2712	62.991
2696	62.9462
2680	63.0261
2664	63.0533
2648	62.9942
2632	63.0598
2616	63.0602
2600	63.2252
2584	63.0856
2568	62.966
2552	63.0125
2536	62.9844
2520	62.9397
2504	62.9514
2488	62.8705
2472	62.8798
2456	62.9031
2440	62.8866
2424	62.7307
2408	62.8675
2392	62.8723
2376	62.8878
2360	62.9105
2344	62.9499
2328	62.9553
2312	62.7327
2296	62.9004
2280	62.798
2264	62.6964
2248	62.6729
2232	62.6029
2216	62.7972
2200	62.8099
2184	62.7862
2168	62.6928
2152	62.6719
2136	62.8471
2120	62.7858
2104	62.7467
2088	62.7
2072	62.6283
2056	62.5773
2040	62.5203
2024	62.5169
2008	62.4775
1992	62.3835
1976	62.3831
1960	62.3904
1944	62.4942
1928	62.553
1912	62.4977
1896	62.5577
1880	62.5049
1864	62.4323
1848	62.4315
1832	62.3895
1816	62.3367
1800	62.3799
1784	62.4125
1768	62.2837
1752	62.2304
1736	61.9712
1720	62.036
1704	62.0814
1688	62.2973
1672	62.11
1656	62.1364
1640	62.2069
1624	62.0382
1608	62.1064
1592	62.0752
1576	62.0952
1560	61.979
1544	61.9284
1528	62.0535
1512	61.9799
1496	62.0607
1480	61.7005
1464	61.7914
1448	61.7249
1432	61.7729
1416	61.8499
1400	61.8845
1384	61.6484
1368	61.8404
1352	61.8321
1336	61.9001
1320	61.8705
1304	61.7666
1288	61.5314
1272	61.5718
1256	61.3703
1240	61.1958
1224	61.2886
1208	61.3754
1192	61.3435
1176	61.2308
1160	61.2025
1144	61.1531
1128	61.0927
1112	61.1321
1096	61.0523
1080	60.8643
1064	61.0513
1048	61.0692
1032	60.8931
1016	60.7405
1000	60.8225
984	 60.8612
968	 60.5999
952	 60.6362
936	 60.5368
920	 60.8268
904	 60.7974
888	 60.7224
872	 60.8873
856	 60.7784
840	 60.6754
824	 60.9836
808	 60.6838
792	 60.714
776	 60.5871
760	 60.4875
744	 60.6303
728	 60.1837
712	 60.4001
696	 60.2553
680	 60.2207
664	 60.3672
648	 59.8617
632	 59.8168
616	 59.4862
600	 59.7503
584	 59.4394
568	 59.5626
552	 61.056
536	 60.6706
520	 58.6777
504	 59.1225
488	 59.5594
472	 59.6287
456	 59.1781
440	 57.1917
424	 60.7962
408	 57.7355
392	 63.8535
376	 63.3992
370	 55.7547