File: Bakgrunnsmateriale/MATLAB/FTIR/ftir_data/subAa/Mapping_121/BZ1503107-1_t63.asc
PE IR       SPECTRUM    SPECTRUM    ASCII       PEDS        1.60
  -1
BZ2551~1.ASC
17/04/07
18:22:50.00
17/04/07
18:23:16.00
tln
$BZ1503107-1_t0063$<tbV0>[-5.2,0.0,8.0,0.0,27,1,0]
27.028
64

2002,4.07
MIRTGS : RIGHTBACK : INTERNAL 2
MIR : ON : INTERNAL 2
OPTKBR

0.200000
8
8.000000
FILLER
RATIO
SPECTRUM
UNLOCKED 256

DOUBLE
64
COMBINED
1
0
0

0.002000
RATIO

1
0
TRUE
51149
0
LEFT NOT FITTED RIGHT NOT FITTED 0
NONE
NONE
15600
12
4.427000
51148
TRUE
1 0 8 72 0 0 0 0

15798

#HDR
-1
-1
#GR
µM
%T
2.38419e-05
0.0
2.000000
0.002000
12515
8
75.2715
53.6849
#DATA
2.000000	 64.8516
2.084000	 64.8306
2.168000	 64.5436
2.252000	 62.4473
2.336000	 65.2971
2.420000	 65.0189
2.504000	 65.2618
2.588000	 65.0955
2.672000	 65.0644
2.756000	 65.0287
2.840000	 64.9442
2.924000	 65.0354
3.008000	 65.0194
3.092000	 64.9304
3.176000	 65.0256
3.260000	 64.9863
3.344000	 65.0511
3.428000	 64.9715
3.512000	 64.9618
3.596000	 64.9253
3.680000	 64.9459
3.764000	 64.9553
3.848000	 64.9133
3.932000	 64.8125
4.016000	 64.9769
4.100000	 64.7541
4.184000	 64.8066
4.268000	 64.703
4.352000	 64.8304
4.436000	 64.7281
4.520000	 64.6704
4.604000	 64.5994
4.688000	 64.5392
4.772000	 64.5443
4.856000	 64.5792
4.940000	 64.5357
5.024000	 64.5646
5.108000	 64.519
5.192000	 64.5146
5.276000	 64.4007
5.359999	 64.4752
5.444000	 64.3709
5.528000	 64.395
5.612000	 64.4046
5.696000	 64.2727
5.780000	 64.0285
5.864000	 64.1531
5.948000	 64.1184
6.032000	 64.2289
6.116000	 64.0706
6.200000	 64.2331
6.284000	 64.0877
6.368000	 64.0819
6.452000	 64.1557
6.536000	 63.9784
6.620000	 64.2082
6.704000	 64.0788
6.788000	 64.0857
6.872000	 64.2243
6.956000	 63.9206
7.040000	 64.0657
7.124000	 63.9842
7.208000	 63.9811
7.292000	 63.9552
7.376000	 63.7808
7.460000	 63.8238
7.544000	 63.8947
7.628000	 63.9446
7.712000	 63.937
7.796000	 63.8498
7.880000	 63.9597
7.964000	 63.8401
8.048000	 63.8098
8.132000	 63.7201
8.216000	 63.702
8.300000	 63.8117
8.384000	 63.6584
8.468000	 63.7817
8.552000	 63.7796
8.635999	 63.4961
8.719999	 63.4584
8.804000	 63.6997
8.888000	 63.5828
8.972000	 63.7528
9.056000	 63.654
9.140000	 63.6565
9.224000	 63.6102
9.308000	 63.6539
9.391999	 63.6023
9.475999	 63.635
9.560000	 63.5705
9.644000	 63.6408
9.728000	 63.6855
9.812000	 63.5726
9.896000	 63.4974
9.980000	 63.6292
10.064	63.6978
10.148	63.6665
10.232	63.7213
10.316	63.6224
10.4	63.5698
10.484	63.5008
10.568	63.5265
10.652	63.2701
10.736	63.5822
10.82	63.6396
10.904	63.3507
10.988	63.4464
11.072	63.5137
11.156	63.3757
11.24	63.3887
11.324	63.5598
11.408	63.7207
11.492	63.6509
11.576	63.5963
11.66	63.7853
11.744	63.7609
11.828	63.5602
11.912	63.5915
11.996	63.6373
12.08	63.8786
12.164	63.756
12.248	63.4893
12.332	63.523
12.416	63.4263
12.5	63.3681
12.584	63.3766
12.668	63.3229
12.752	63.352
12.836	63.4955
12.92	63.5403
13.004	63.5311
13.088	63.5115
13.172	63.5514
13.256	63.5978
13.34	63.4262
13.424	63.312
13.508	63.3195
13.592	63.351
13.676	63.4315
13.76	63.5178
13.844	63.4138
13.928	63.2896
14.012	63.3601
14.096	63.3455
14.18	63.2773
14.264	63.2442
14.348	63.1685
14.432	63.2367
14.516	63.5688
14.6	63.689
14.684	63.581
14.768	63.4986
14.852	63.2597
14.936	63.1525
15.02	63.4188
15.104	63.7519
15.188	63.8243
15.272	63.5102
15.356	63.1775
15.44	63.0899
15.524	62.8497
15.608	62.4573
15.692	62.3439
15.776	62.4369
15.86	62.5991
15.944	62.933
16.028	63.2371
16.112	63.336
16.196	63.4875
16.28	63.825
16.364	64.0335
16.448	63.7729
16.532	63.1536
16.616	62.7051
16.7	62.7341
16.784	62.9611
16.868	63.0456
16.952	62.999
17.036	62.9927
17.12	63.132
17.204	63.3724
17.288	63.5093
17.372	63.372
17.456	63.069
17.54	62.8931
17.624	63.0008
17.708	63.315
17.792	63.6563
17.876	63.8222
17.96	63.6963
18.044	63.3619
18.128	63.0056
18.212	62.7011
18.296	62.3702
18.38	61.9621
18.464	61.6057
18.548	61.5423
18.632	61.9078
18.716	62.5686
18.8	63.2096
18.884	63.6281
18.968	63.877
19.052	64.101
19.136	64.2823
19.22	64.2563
19.304	63.9514
19.388	63.52
19.472	63.1848
19.556	63.0365
19.64	63.0072
19.724	63.0068
19.808	63.0125
19.892	63.0424
19.976	63.0954
20.06	63.1564
20.144	63.2099
20.228	63.2431
20.312	63.2451
20.396	63.2164
20.48	63.1683
20.564	63.1048
20.648	63.0132
20.732	62.8884
20.816	62.7628
20.9	62.6938
20.984	62.7063
21.068	62.7674
21.152	62.826
21.236	62.8687
21.32	62.9291
21.404	63.0316
21.488	63.1466
21.572	63.2051
21.656	63.154
21.74	63.0016
21.824	62.7893
21.908	62.545
21.992	62.287
22.076	62.0562
22.16	61.9336
22.244	62.0018
22.328	62.2653
22.412	62.6315
22.496	62.9349
22.58	63.027
22.664	62.8415
22.748	62.4416
22.832	61.9913
22.916	61.694
23	61.7324
23.084	62.1922
23.168	63.0197
23.252	64.0341
23.336	64.9709
23.42	65.5771
23.504	65.6882
23.588	65.2954
23.672	64.5255
23.756	63.5973
23.84	62.7504
23.924	62.1821
24.008	61.987
24.092	62.1292
24.176	62.4561
24.26	62.7352
24.344	62.7188
24.428	62.2653
24.512	61.3619
24.596	60.1845
24.68	59.0597
24.764	58.3425
24.848	58.2547
24.932	58.8104
25.016	59.7772
25.1	60.758
25.184	61.2852
25.268	61.0367
25.352	59.9564
25.436	58.2753
25.52	56.4237
25.604	54.8458
25.688	53.8931
25.772	53.7108
25.856	54.2596
25.94	55.406
26.024	57.0543
26.108	59.2188
26.192	61.9355
26.276	65.1453
26.36	68.6146
26.444	71.8684
26.528	74.2911
26.612	75.2691
26.696	74.4706
26.78	72.0535
26.864	68.6783
26.948	65.3179
27.028	63.061