File: Bakgrunnsmateriale/MATLAB/FTIR/ftir_data/subAa/Mapping_121/BZ1503107-1_t65.asc
PE IR       SPECTRUM    SPECTRUM    ASCII       PEDS        1.60
  -1
BZ2D51~1.ASC
17/04/07
18:32:04.00
17/04/07
18:32:30.00
tln
$BZ1503107-1_t0065$<tbV0>[-10.4,0.0,8.0,0.0,27,1,0]
27.028
64

2002,4.07
MIRTGS : RIGHTBACK : INTERNAL 2
MIR : ON : INTERNAL 2
OPTKBR

0.200000
8
8.000000
FILLER
RATIO
SPECTRUM
UNLOCKED 256

DOUBLE
64
COMBINED
1
0
0

0.002000
RATIO

1
0
TRUE
51149
0
LEFT NOT FITTED RIGHT NOT FITTED 0
NONE
NONE
15600
12
4.427000
51148
TRUE
1 0 8 72 0 0 0 0

15798

#HDR
-1
-1
#GR
µM
%T
2.38419e-05
0.0
2.000000
0.002000
12515
8
69.276
37.853
#DATA
2.000000	 64.3493
2.084000	 64.7809
2.168000	 64.742
2.252000	 63.9801
2.336000	 64.8969
2.420000	 64.907
2.504000	 65.0932
2.588000	 65.3617
2.672000	 65.12
2.756000	 65.0675
2.840000	 64.9906
2.924000	 65.0754
3.008000	 65.2469
3.092000	 65.0885
3.176000	 65.0986
3.260000	 65.0186
3.344000	 64.9618
3.428000	 64.9587
3.512000	 65.0177
3.596000	 64.9236
3.680000	 64.9131
3.764000	 64.9032
3.848000	 64.8457
3.932000	 64.7014
4.016000	 64.8792
4.100000	 64.827
4.184000	 64.798
4.268000	 64.6903
4.352000	 64.7124
4.436000	 64.7889
4.520000	 64.6896
4.604000	 64.523
4.688000	 64.7383
4.772000	 64.6337
4.856000	 64.4421
4.940000	 64.5327
5.024000	 64.5667
5.108000	 64.415
5.192000	 64.5027
5.276000	 64.4186
5.359999	 64.4682
5.444000	 64.4915
5.528000	 64.428
5.612000	 64.3941
5.696000	 64.265
5.780000	 64.1501
5.864000	 64.2573
5.948000	 64.24
6.032000	 64.1789
6.116000	 64.1772
6.200000	 64.1665
6.284000	 64.208
6.368000	 63.9671
6.452000	 64.0151
6.536000	 64.1284
6.620000	 64.1054
6.704000	 64.1806
6.788000	 64.1382
6.872000	 64.0081
6.956000	 63.9725
7.040000	 64.167
7.124000	 64.0326
7.208000	 63.9904
7.292000	 63.8694
7.376000	 64.0517
7.460000	 63.9209
7.544000	 63.889
7.628000	 63.827
7.712000	 63.893
7.796000	 63.9702
7.880000	 63.8562
7.964000	 63.8
8.048000	 63.8206
8.132000	 63.7476
8.216000	 63.8592
8.300000	 63.9025
8.384000	 63.7003
8.468000	 63.7343
8.552000	 63.5684
8.635999	 63.5396
8.719999	 63.603
8.804000	 63.6804
8.888000	 63.6099
8.972000	 63.586
9.056000	 63.5587
9.140000	 63.7723
9.224000	 63.6309
9.308000	 63.7053
9.391999	 63.6902
9.475999	 63.7311
9.560000	 63.5207
9.644000	 63.5619
9.728000	 63.673
9.812000	 63.6811
9.896000	 63.7036
9.980000	 63.7068
10.064	63.7839
10.148	63.7869
10.232	63.9435
10.316	63.7665
10.4	63.5987
10.484	63.4241
10.568	63.5087
10.652	63.4149
10.736	63.5208
10.82	63.5801
10.904	63.6377
10.988	63.5416
11.072	63.6507
11.156	63.6098
11.24	63.6323
11.324	63.782
11.408	63.8112
11.492	63.6342
11.576	63.6583
11.66	63.736
11.744	63.6945
11.828	63.7209
11.912	63.5929
11.996	63.6069
12.08	63.8036
12.164	63.5219
12.248	63.5738
12.332	63.643
12.416	63.3904
12.5	63.3645
12.584	63.4595
12.668	63.4694
12.752	63.5274
12.836	63.5914
12.92	63.5631
13.004	63.6135
13.088	63.5124
13.172	63.4943
13.256	63.529
13.34	63.4488
13.424	63.4423
13.508	63.3363
13.592	63.285
13.676	63.2761
13.76	63.3645
13.844	63.4419
13.928	63.3788
14.012	63.3663
14.096	63.3819
14.18	63.2778
14.264	63.023
14.348	62.8658
14.432	63.1283
14.516	63.6155
14.6	63.7322
14.684	63.6403
14.768	63.5754
14.852	63.4074
14.936	63.4241
15.02	63.4758
15.104	63.2672
15.188	63.3083
15.272	63.7284
15.356	64.0123
15.44	63.943
15.524	63.5247
15.608	63.0269
15.692	62.9156
15.776	63.1059
15.86	63.2556
15.944	63.6401
16.028	64.5735
16.112	65.4225
16.196	65.3483
16.28	64.5848
16.364	64.0463
16.448	64.093
16.532	64.28
16.616	64.0992
16.7	63.5751
16.784	63.0446
16.868	62.6617
16.952	62.4587
17.036	62.5741
17.12	63.0031
17.204	63.4063
17.288	63.4787
17.372	63.2786
17.456	63.0464
17.54	62.942
17.624	63.0046
17.708	63.2213
17.792	63.5384
17.876	63.8145
17.96	63.8597
18.044	63.5874
18.128	63.1228
18.212	62.7084
18.296	62.4967
18.38	62.468
18.464	62.531
18.548	62.6441
18.632	62.8321
18.716	63.1149
18.8	63.4426
18.884	63.704
18.968	63.7874
19.052	63.6598
19.136	63.4028
19.22	63.165
19.304	63.0497
19.388	63.0603
19.472	63.1343
19.556	63.2032
19.64	63.2152
19.724	63.1454
19.808	63.0116
19.892	62.8784
19.976	62.8142
20.06	62.8309
20.144	62.8783
20.228	62.9022
20.312	62.8905
20.396	62.8699
20.48	62.8747
20.564	62.9136
20.648	62.9613
20.732	62.9767
20.816	62.9445
20.9	62.8922
20.984	62.8734
21.068	62.9249
21.152	63.0358
21.236	63.1672
21.32	63.2899
21.404	63.4015
21.488	63.4861
21.572	63.4858
21.656	63.3289
21.74	62.9932
21.824	62.5338
21.908	62.0555
21.992	61.657
22.076	61.3931
22.16	61.2738
22.244	61.293
22.328	61.4422
22.412	61.7131
22.496	62.0773
22.58	62.4808
22.664	62.8516
22.748	63.1183
22.832	63.246
22.916	63.2507
23	63.2109
23.084	63.2336
23.168	63.404
23.252	63.7241
23.336	64.1036
23.42	64.3855
23.504	64.4259
23.588	64.1726
23.672	63.6803
23.756	63.0847
23.84	62.5392
23.924	62.1474
24.008	61.9184
24.092	61.7814
24.176	61.654
24.26	61.4947
24.344	61.3151
24.428	61.1618
24.512	61.0845
24.596	61.0996
24.68	61.2123
24.764	61.4432
24.848	61.8041
24.932	62.3182
25.016	62.9742
25.1	63.6516
25.184	64.0869
25.268	63.98
25.352	63.14
25.436	61.6352
25.52	59.8491
25.604	58.3382
25.688	57.6516
25.772	58.0825
25.856	59.5562
25.94	61.6458
26.024	63.748
26.108	65.3411
26.192	66.1949
26.276	66.2984
26.36	65.7235
26.444	64.507
26.528	62.5849
26.612	59.8163
26.696	56.096
26.78	51.4923
26.864	46.3919
26.948	41.491
27.028	37.853