File: Bakgrunnsmateriale/MATLAB/FTIR/ftir_data/subAa/Mapping_121/BZ1503107-1_t90.asc
PE IR       SPECTRUM    SPECTRUM    ASCII       PEDS        1.60
  -1
BZ394B~1.ASC
17/04/07
20:41:23.00
17/04/07
20:41:49.00
tln
$BZ1503107-1_t0090$<tbV0>[10.4,7.8,8.0,0.0,27,1,0]
27.028
64

2002,4.07
MIRTGS : RIGHTBACK : INTERNAL 2
MIR : ON : INTERNAL 2
OPTKBR

0.200000
8
8.000000
FILLER
RATIO
SPECTRUM
UNLOCKED 256

DOUBLE
64
COMBINED
1
0
0

0.002000
RATIO

1
0
TRUE
51149
0
LEFT NOT FITTED RIGHT NOT FITTED 0
NONE
NONE
15600
12
4.427000
51148
TRUE
1 0 8 72 0 0 0 0

15798

#HDR
-1
-1
#GR
µM
%T
2.38419e-05
0.0
2.000000
0.002000
12515
8
75.7704
52.6259
#DATA
2.000000	 59.0833
2.084000	 59.1116
2.168000	 59.0392
2.252000	 62.4452
2.336000	 59.3715
2.420000	 59.5864
2.504000	 59.86
2.588000	 59.9058
2.672000	 60.011
2.756000	 59.9562
2.840000	 60.1781
2.924000	 60.1532
3.008000	 60.2412
3.092000	 60.2821
3.176000	 60.3472
3.260000	 60.3355
3.344000	 60.4183
3.428000	 60.5134
3.512000	 60.3605
3.596000	 60.6335
3.680000	 60.7165
3.764000	 60.6977
3.848000	 60.759
3.932000	 60.7963
4.016000	 60.9725
4.100000	 60.9677
4.184000	 61.0663
4.268000	 60.9882
4.352000	 61.132
4.436000	 61.1265
4.520000	 61.0912
4.604000	 61.1745
4.688000	 61.2168
4.772000	 61.1784
4.856000	 61.2451
4.940000	 61.2385
5.024000	 61.2339
5.108000	 61.3011
5.192000	 61.2706
5.276000	 61.4515
5.359999	 61.3784
5.444000	 61.4938
5.528000	 61.3613
5.612000	 61.4057
5.696000	 61.2984
5.780000	 61.0287
5.864000	 61.3544
5.948000	 61.3885
6.032000	 61.4111
6.116000	 61.4843
6.200000	 61.4776
6.284000	 61.4906
6.368000	 61.4842
6.452000	 61.452
6.536000	 61.4714
6.620000	 61.474
6.704000	 61.5821
6.788000	 61.5273
6.872000	 61.4169
6.956000	 61.6553
7.040000	 61.5694
7.124000	 61.7442
7.208000	 61.6126
7.292000	 61.6593
7.376000	 61.5562
7.460000	 61.512
7.544000	 61.7401
7.628000	 61.7302
7.712000	 61.6882
7.796000	 61.5702
7.880000	 61.5906
7.964000	 61.7392
8.048000	 61.7076
8.132000	 61.6692
8.216000	 61.5868
8.300000	 61.7649
8.384000	 61.7766
8.468000	 61.7458
8.552000	 61.5426
8.635999	 61.7092
8.719999	 61.6883
8.804000	 61.788
8.888000	 61.7543
8.972000	 61.7573
9.056000	 61.8631
9.140000	 61.9323
9.224000	 61.65
9.308000	 61.6984
9.391999	 61.9612
9.475999	 61.8282
9.560000	 61.8583
9.644000	 61.8993
9.728000	 61.7417
9.812000	 61.7593
9.896000	 61.7292
9.980000	 61.7746
10.064	61.9365
10.148	62.098
10.232	62.0687
10.316	61.9914
10.4	61.8283
10.484	61.882
10.568	61.9075
10.652	62.007
10.736	62.0133
10.82	62.1307
10.904	62.1746
10.988	62.1568
11.072	61.9672
11.156	62.1317
11.24	62.1937
11.324	62.1098
11.408	61.9941
11.492	62.1462
11.576	62.0548
11.66	62.1179
11.744	62.0662
11.828	62.1942
11.912	62.2279
11.996	62.0077
12.08	61.9842
12.164	62.2561
12.248	62.2565
12.332	62.134
12.416	62.0501
12.5	62.0044
12.584	62.1141
12.668	62.2748
12.752	62.2315
12.836	61.9732
12.92	61.948
13.004	62.1589
13.088	62.2885
13.172	62.1656
13.256	62.1425
13.34	62.1633
13.424	62.1111
13.508	62.2317
13.592	62.3967
13.676	62.3494
13.76	62.0876
13.844	61.9531
13.928	62.016
14.012	62.1073
14.096	62.1413
14.18	62.0697
14.264	62.0093
14.348	62.0255
14.432	62.112
14.516	62.172
14.6	62.0406
14.684	61.8812
14.768	61.955
14.852	62.1449
14.936	62.1698
15.02	62.0486
15.104	62.0838
15.188	62.2096
15.272	62.1324
15.356	61.9738
15.44	61.9108
15.524	61.8777
15.608	61.8773
15.692	61.9263
15.776	61.9866
15.86	62.0519
15.944	62.0338
16.028	61.878
16.112	61.7574
16.196	61.7696
16.28	61.7801
16.364	61.7393
16.448	61.7426
16.532	61.8569
16.616	62.065
16.7	62.2394
16.784	62.2724
16.868	62.2509
16.952	62.2605
17.036	62.2346
17.12	62.1724
17.204	62.1678
17.288	62.1686
17.372	62.0623
17.456	61.9506
17.54	62.0319
17.624	62.2576
17.708	62.3571
17.792	62.1923
17.876	61.9409
17.96	61.8988
18.044	62.1507
18.128	62.4703
18.212	62.5505
18.296	62.3162
18.38	61.9953
18.464	61.8845
18.548	62.0784
18.632	62.428
18.716	62.6683
18.8	62.5977
18.884	62.2516
18.968	61.9391
19.052	62.0211
19.136	62.5508
19.22	63.1726
19.304	63.4233
19.388	63.1395
19.472	62.531
19.556	61.9341
19.64	61.563
19.724	61.4717
19.808	61.6183
19.892	61.8825
19.976	62.0781
20.06	62.0767
20.144	61.9379
20.228	61.8823
20.312	62.0571
20.396	62.3665
20.48	62.555
20.564	62.4592
20.648	62.1517
20.732	61.8548
20.816	61.7293
20.9	61.7535
20.984	61.7484
21.068	61.5132
21.152	60.9474
21.236	60.1173
21.32	59.2527
21.404	58.6622
21.488	58.5841
21.572	59.0553
21.656	59.8849
21.74	60.7546
21.824	61.389
21.908	61.6871
21.992	61.7097
22.076	61.5833
22.16	61.4185
22.244	61.2815
22.328	61.2216
22.412	61.2736
22.496	61.4408
22.58	61.6912
22.664	61.9738
22.748	62.24
22.832	62.4658
22.916	62.654
23	62.7885
23.084	62.8465
23.168	62.8008
23.252	62.6445
23.336	62.4199
23.42	62.2146
23.504	62.1212
23.588	62.1904
23.672	62.4054
23.756	62.6761
23.84	62.8865
23.924	62.9265
24.008	62.742
24.092	62.369
24.176	61.9339
24.26	61.644
24.344	61.7451
24.428	62.4171
24.512	63.7473
24.596	65.655
24.68	67.8739
24.764	70.0061
24.848	71.6668
24.932	72.5943
25.016	72.7588
25.1	72.3219
25.184	71.5383
25.268	70.6326
25.352	69.7413
25.436	68.8792
25.52	68.0184
25.604	67.1868
25.688	66.4246
25.772	65.7724
25.856	65.2439
25.94	64.7068
26.024	63.9607
26.108	62.8772
26.192	61.4735
26.276	59.9253
26.36	58.5188
26.444	57.5503
26.528	57.1713
26.612	57.2624
26.696	57.4644
26.78	57.299
26.864	56.3654
26.948	54.6089
27.028	52.6259