File: Bakgrunnsmateriale/MATLAB/FTIR/ftir_data/subAa/Mapping_121/BZ1503107-1_t37_cm-1.asc
PE IR       SPECTRUM    SPECTRUM    ASCII       PEDS        1.60
  -1
BZ6FA0~1.ASC
17/04/07
16:15:08.00
17/04/07
16:15:08.00
tln
$BZ1503107-1_t0037$<tbV0>[5.2,-5.2,8.0,0.0,27,1,0]
370
64

2002,4.07
MIRTGS : RIGHTBACK : INTERNAL 2
MIR : ON : INTERNAL 2
OPTKBR

0.200000
8
8.000000
FILLER
RATIO
SPECTRUM
UNLOCKED 256

DOUBLE
64
COMBINED
1
0
0

1.000000
RATIO

1
0
TRUE
51149
0
LEFT NOT FITTED RIGHT NOT FITTED 0
NONE
NONE
15600
12
4.427000
51148
TRUE
1 0 8 72 0 0 0 0

15798

#HDR
-1
-1
#GR
CM-1
%T
2.38419e-05
0.0
5000
-1.000000
4631
8
77.9148
38.5134
#DATA
5000	65.5849
4984	64.9099
4968	64.9116
4952	64.9356
4936	64.9152
4920	65.2215
4904	65.2715
4888	64.0955
4872	64.5876
4856	64.948
4840	64.7612
4824	64.9883
4808	64.9908
4792	64.581
4776	64.5851
4760	65.1423
4744	64.9893
4728	64.8445
4712	65.2671
4696	64.9855
4680	65.3038
4664	65.1827
4648	65.1896
4632	64.843
4616	65.0389
4600	65.0938
4584	64.7669
4568	64.9432
4552	64.6518
4536	65.4127
4520	64.8721
4504	64.7906
4488	65.0369
4472	65.1754
4456	65.4939
4440	65.0747
4424	72.9196
4408	59.7966
4392	65.0323
4376	65.7396
4360	64.8783
4344	65.0922
4328	65.0402
4312	64.9706
4296	65.2678
4280	65.1513
4264	65.1766
4248	64.948
4232	65.3082
4216	65.2986
4200	65.0005
4184	65.1642
4168	64.9478
4152	65.1284
4136	65.0096
4120	65.1031
4104	64.9896
4088	65.2469
4072	65.0482
4056	65.1577
4040	65.0457
4024	65.4115
4008	65.1116
3992	65.2294
3976	65.4761
3960	65.1656
3944	65.2221
3928	65.1551
3912	65.2769
3896	65.2148
3880	65.1079
3864	65.2575
3848	65.1375
3832	65.4938
3816	65.2808
3800	65.42
3784	65.2189
3768	65.2627
3752	65.2377
3736	65.2463
3720	65.4219
3704	65.2964
3688	65.2108
3672	65.2291
3656	65.3625
3640	65.0967
3624	65.2362
3608	65.3526
3592	65.3441
3576	64.9916
3560	65.1612
3544	65.1093
3528	65.1111
3512	65.2734
3496	65.1547
3480	64.8724
3464	65.0642
3448	65.1037
3432	65.2541
3416	65.2988
3400	65.2613
3384	65.1956
3368	65.0779
3352	65.0377
3336	65.2212
3320	65.0857
3304	65.137
3288	64.8949
3272	65.2225
3256	65.1114
3240	65.1356
3224	64.9295
3208	65.0202
3192	64.9143
3176	65.0568
3160	65.2039
3144	64.9964
3128	64.8809
3112	65.0122
3096	65.1816
3080	65.1386
3064	65.1714
3048	65.251
3032	65.0464
3016	64.9279
3000	65.0716
2984	65.2021
2968	64.9368
2952	65.113
2936	64.9972
2920	65.1832
2904	65.0294
2888	65.0338
2872	65.0749
2856	65.0247
2840	65.0714
2824	65.0671
2808	65.224
2792	65.3516
2776	65.0869
2760	65.0784
2744	65.1291
2728	65.1417
2712	65.0415
2696	65.1026
2680	64.9836
2664	64.9935
2648	65.1196
2632	65.0746
2616	65.0325
2600	65.012
2584	64.9864
2568	64.9904
2552	65.0242
2536	64.9729
2520	65.0177
2504	65.071
2488	64.936
2472	64.9903
2456	64.9067
2440	64.8882
2424	64.7318
2408	65.0185
2392	65.0271
2376	64.8
2360	64.9879
2344	64.9234
2328	64.9094
2312	64.9041
2296	64.9041
2280	64.8091
2264	64.8241
2248	64.7969
2232	64.9827
2216	64.8228
2200	64.9531
2184	64.9391
2168	64.8375
2152	64.744
2136	64.8772
2120	64.9091
2104	64.8855
2088	64.7662
2072	64.9214
2056	64.8899
2040	64.7903
2024	64.8201
2008	64.7929
1992	64.7184
1976	64.7675
1960	64.7194
1944	64.7614
1928	64.8034
1912	64.6996
1896	64.6621
1880	64.6386
1864	64.7132
1848	64.7886
1832	64.6749
1816	64.702
1800	64.5998
1784	64.5927
1768	64.4696
1752	64.4947
1736	64.3112
1720	64.5325
1704	64.611
1688	64.6435
1672	64.6244
1656	64.37
1640	64.4669
1624	64.3654
1608	64.4237
1592	64.4217
1576	64.2027
1560	64.4452
1544	64.4063
1528	64.3587
1512	64.4425
1496	64.2443
1480	64.411
1464	64.2399
1448	64.425
1432	64.1816
1416	64.2993
1400	64.2512
1384	64.3065
1368	64.355
1352	64.1898
1336	64.1845
1320	64.293
1304	64.2959
1288	64.3193
1272	64.1579
1256	64.0776
1240	64.1963
1224	64.1556
1208	64.1439
1192	63.98
1176	64.0032
1160	64.0273
1144	64.0664
1128	63.7337
1112	64.0242
1096	63.9125
1080	63.9904
1064	64.0295
1048	64.0439
1032	63.989
1016	64.1466
1000	64.145
984	 63.9972
968	 63.9107
952	 63.9155
936	 64.1673
920	 64.1953
904	 64.1083
888	 64.0311
872	 63.9379
856	 63.9762
840	 64.1023
824	 63.8939
808	 63.9779
792	 63.9975
776	 64.0724
760	 63.8432
744	 63.7024
728	 63.3624
712	 63.4245
696	 63.3748
680	 64.1533
664	 63.6564
648	 63.8029
632	 64.8088
616	 63.2794
600	 64.5578
584	 63.8369
568	 63.4761
552	 64.3636
536	 63.5806
520	 63.9088
504	 63.7826
488	 63.4952
472	 64.2084
456	 62.0674
440	 62.7819
424	 63.3166
408	 66.3567
392	 63.692
376	 51.6178
370	 39.1054