File: Bakgrunnsmateriale/MATLAB/FTIR/ftir_data/subAa/Mapping_121/BZ1503107-1_t04_cm-1.asc
PE IR       SPECTRUM    SPECTRUM    ASCII       PEDS        1.60
  -1
BZ6C22~1.ASC
17/04/07
13:34:21.00
17/04/07
13:34:21.00
tln
$BZ1503107-1_t0004$<tbV0>[5.2,-13.0,8.0,0.0,27,1,0]
370
64

2002,4.07
MIRTGS : RIGHTBACK : INTERNAL 2
MIR : ON : INTERNAL 2
OPTKBR

0.200000
8
8.000000
FILLER
RATIO
SPECTRUM
UNLOCKED 256

DOUBLE
64
COMBINED
1
0
0

1.000000
RATIO

1
0
TRUE
51149
0
LEFT NOT FITTED RIGHT NOT FITTED 0
NONE
NONE
15600
12
4.427000
51148
TRUE
1 0 8 72 0 0 0 0

15798

#HDR
-1
-1
#GR
CM-1
%T
2.38419e-05
0.0
5000
-1.000000
4631
8
76.9673
30.7092
#DATA
5000	64.354
4984	64.7887
4968	64.2319
4952	64.2762
4936	65.3431
4920	64.5585
4904	65.1534
4888	65.8716
4872	65.2895
4856	64.5271
4840	65.2695
4824	65.2916
4808	65.0542
4792	65.4126
4776	64.3947
4760	65.328
4744	64.8107
4728	64.6579
4712	64.7946
4696	64.3736
4680	64.9221
4664	64.6482
4648	64.9163
4632	64.6733
4616	64.7911
4600	64.4889
4584	64.9108
4568	64.4423
4552	64.3347
4536	64.179
4520	64.2697
4504	64.8895
4488	66.4429
4472	64.7971
4456	63.3298
4440	64.3221
4424	65.4423
4408	64.6111
4392	65.1028
4376	64.6108
4360	64.5399
4344	64.872
4328	64.8389
4312	65.0765
4296	64.9228
4280	64.9877
4264	64.6906
4248	65.0424
4232	65.2229
4216	65.1342
4200	65.1566
4184	65.0073
4168	65.3205
4152	64.8259
4136	64.9113
4120	65.154
4104	65.5121
4088	64.9858
4072	65.033
4056	65.1323
4040	65.4664
4024	65.0287
4008	65.1013
3992	64.8603
3976	65.18
3960	65.0015
3944	65.1449
3928	64.6209
3912	65.0676
3896	65.0691
3880	65.0389
3864	64.9796
3848	65.1516
3832	65.3553
3816	65.1178
3800	65.1277
3784	65.0204
3768	65.2095
3752	65.3137
3736	65.2348
3720	65.133
3704	65.0841
3688	65.2211
3672	65.45
3656	65.2153
3640	65.0884
3624	65.3462
3608	65.2728
3592	64.9733
3576	65.2204
3560	64.9985
3544	65.2154
3528	65.143
3512	65.102
3496	65.1096
3480	65.1314
3464	64.988
3448	65.0381
3432	65.1203
3416	65.2025
3400	65.1026
3384	65.0733
3368	65.2179
3352	65.0855
3336	65.3363
3320	65.1494
3304	65.0804
3288	65.076
3272	65.0969
3256	65.2215
3240	64.973
3224	65.0706
3208	65.0686
3192	65.2385
3176	65.0777
3160	65.2023
3144	65.2812
3128	65.1052
3112	64.999
3096	65.1753
3080	65.1097
3064	65.0023
3048	64.9551
3032	65.0976
3016	65.1829
3000	65.1354
2984	65.0526
2968	65.1008
2952	64.941
2936	65.0065
2920	64.9872
2904	65.1105
2888	64.9611
2872	65.1248
2856	64.9653
2840	65.1397
2824	65.0492
2808	65.0039
2792	65.0123
2776	65.0477
2760	65.0829
2744	65.0608
2728	65.1058
2712	65.073
2696	65.1223
2680	65.0796
2664	65.0196
2648	65.027
2632	65.1066
2616	65.0673
2600	65.1401
2584	65.1754
2568	65.1753
2552	65.0474
2536	65.0483
2520	65.0613
2504	65.0369
2488	65.1681
2472	65.0438
2456	64.8863
2440	65.062
2424	65.0227
2408	65.0076
2392	65.0801
2376	65.0932
2360	65.0397
2344	64.9085
2328	64.9594
2312	65.0196
2296	64.9239
2280	64.9643
2264	64.939
2248	64.9387
2232	64.9791
2216	64.9919
2200	64.9625
2184	64.8795
2168	64.9668
2152	64.7188
2136	64.8281
2120	64.9761
2104	64.9487
2088	64.8094
2072	64.8916
2056	64.8384
2040	64.9184
2024	64.9805
2008	64.8966
1992	64.7704
1976	64.9058
1960	64.8785
1944	64.8928
1928	64.8129
1912	64.9341
1896	64.8068
1880	64.8189
1864	64.9153
1848	64.8372
1832	64.8416
1816	64.921
1800	64.88
1784	64.8746
1768	64.874
1752	64.7921
1736	64.6826
1720	64.7639
1704	64.7853
1688	64.7324
1672	64.7917
1656	64.9092
1640	64.7784
1624	64.7781
1608	64.7361
1592	64.6849
1576	64.6122
1560	64.7369
1544	64.7927
1528	64.5889
1512	64.6122
1496	64.6358
1480	64.616
1464	64.5349
1448	64.4808
1432	64.6165
1416	64.4442
1400	64.5068
1384	64.3368
1368	64.5355
1352	64.5504
1336	64.4415
1320	64.4839
1304	64.4053
1288	64.412
1272	64.3135
1256	64.4684
1240	64.3423
1224	64.4331
1208	64.4582
1192	64.5125
1176	64.2416
1160	64.2832
1144	64.15
1128	64.3945
1112	64.3036
1096	64.3542
1080	64.3446
1064	64.1355
1048	64.2348
1032	64.3211
1016	64.2394
1000	64.1519
984	 64.3136
968	 64.327
952	 64.3089
936	 64.2982
920	 64.5388
904	 64.2397
888	 64.2965
872	 64.3385
856	 64.3754
840	 64.3119
824	 64.2587
808	 64.1364
792	 64.2206
776	 64.2205
760	 64.3674
744	 64.1067
728	 64.1883
712	 64.1993
696	 63.7254
680	 64.0412
664	 64.11
648	 64.1695
632	 64.1442
616	 63.9291
600	 63.8361
584	 64.0117
568	 63.4835
552	 64.0665
536	 63.8513
520	 64.7103
504	 64.1191
488	 63.8004
472	 65.2835
456	 66.6658
440	 64.3026
424	 72.7847
408	 56.7147
392	 67.3278
376	 41.873
370	 55.4017