File: Bakgrunnsmateriale/MATLAB/FTIR/ftir_data/subAa/Mapping_121/BZ1503107-1_t23_cm-1.asc
PE IR       SPECTRUM    SPECTRUM    ASCII       PEDS        1.60
  -1
BZ6B23~1.ASC
17/04/07
15:09:50.00
17/04/07
15:09:50.00
tln
$BZ1503107-1_t0023$<tbV0>[13.0,-7.8,8.0,0.0,27,1,0]
370
64

2002,4.07
MIRTGS : RIGHTBACK : INTERNAL 2
MIR : ON : INTERNAL 2
OPTKBR

0.200000
8
8.000000
FILLER
RATIO
SPECTRUM
UNLOCKED 256

DOUBLE
64
COMBINED
1
0
0

1.000000
RATIO

1
0
TRUE
51149
0
LEFT NOT FITTED RIGHT NOT FITTED 0
NONE
NONE
15600
12
4.427000
51148
TRUE
1 0 8 72 0 0 0 0

15798

#HDR
-1
-1
#GR
CM-1
%T
2.38419e-05
0.0
5000
-1.000000
4631
8
83.5359
54.1584
#DATA
5000	64.8986
4984	65.4804
4968	64.2732
4952	64.3276
4936	64.7307
4920	65.6013
4904	64.8216
4888	64.6974
4872	64.6163
4856	65.0561
4840	64.7149
4824	65.0913
4808	64.7102
4792	64.9908
4776	64.7308
4760	65.2482
4744	65.0801
4728	65.111
4712	66.0878
4696	65.4643
4680	65.0611
4664	64.9232
4648	65.346
4632	64.9633
4616	64.9826
4600	64.6454
4584	64.8799
4568	64.6629
4552	64.5778
4536	65.1392
4520	64.2101
4504	64.9853
4488	64.1439
4472	64.5731
4456	65.4433
4440	63.678
4424	74.3009
4408	66.0606
4392	64.749
4376	64.9923
4360	64.6036
4344	64.3814
4328	64.7748
4312	64.7141
4296	64.4788
4280	65.1864
4264	64.5736
4248	64.8116
4232	64.9027
4216	64.9334
4200	65.1908
4184	65.044
4168	66.0218
4152	64.9153
4136	65.367
4120	65.3401
4104	65.0478
4088	65.2356
4072	65.2994
4056	65.1076
4040	65.077
4024	64.9737
4008	65.3694
3992	65.2318
3976	64.9065
3960	65.1295
3944	65.0892
3928	65.1125
3912	65.0499
3896	65.1201
3880	65.0496
3864	64.9873
3848	65.3507
3832	65.1216
3816	65.0193
3800	65.4925
3784	65.2132
3768	65.174
3752	65.0488
3736	65.1357
3720	65.248
3704	65.4347
3688	65.0624
3672	65.3017
3656	65.3697
3640	65.3424
3624	65.1795
3608	65.3894
3592	65.2477
3576	65.0663
3560	64.9614
3544	65.1077
3528	65.0409
3512	65.2844
3496	65.0825
3480	64.9109
3464	65.19
3448	65.1885
3432	65.2195
3416	65.3808
3400	65.2041
3384	65.1884
3368	65.1434
3352	65.167
3336	65.2029
3320	65.1057
3304	65.0216
3288	65.2196
3272	65.2399
3256	65.1271
3240	65.2434
3224	65.1439
3208	65.2117
3192	65.1045
3176	65.1865
3160	65.0594
3144	64.9907
3128	65.325
3112	64.9774
3096	65.0965
3080	64.9737
3064	65.202
3048	65.1547
3032	65.0683
3016	65.0218
3000	65.0961
2984	65.2218
2968	65.0427
2952	65.0259
2936	64.9528
2920	64.9293
2904	64.969
2888	65.0429
2872	64.9625
2856	65.1357
2840	65.0538
2824	65.0452
2808	65.1614
2792	65.2147
2776	65.0926
2760	65.1659
2744	65.2399
2728	65.0409
2712	65.0908
2696	65.0953
2680	65.0471
2664	65.0087
2648	64.9749
2632	65.0466
2616	64.8359
2600	65.0125
2584	64.9579
2568	64.9776
2552	64.921
2536	65.0397
2520	65.049
2504	65.0376
2488	64.9175
2472	64.942
2456	64.7196
2440	65.0229
2424	64.8697
2408	65.0438
2392	65.0392
2376	64.9391
2360	65.0422
2344	65.061
2328	65.0052
2312	64.9111
2296	64.9289
2280	64.9896
2264	64.9194
2248	64.9756
2232	64.8771
2216	64.8961
2200	64.9919
2184	64.9603
2168	64.8055
2152	64.778
2136	64.717
2120	64.9297
2104	64.8704
2088	64.9416
2072	65.0397
2056	64.8114
2040	64.845
2024	64.8212
2008	64.8018
1992	64.798
1976	64.6825
1960	64.7362
1944	64.7956
1928	64.7341
1912	64.7378
1896	64.8146
1880	64.6728
1864	64.6874
1848	64.7089
1832	64.7264
1816	64.7545
1800	64.6231
1784	64.6258
1768	64.5714
1752	64.4912
1736	64.2888
1720	64.4399
1704	64.677
1688	64.6645
1672	64.5881
1656	64.5275
1640	64.5185
1624	64.44
1608	64.4268
1592	64.4704
1576	64.3947
1560	64.4815
1544	64.436
1528	64.4726
1512	64.5241
1496	64.6059
1480	64.5114
1464	64.313
1448	64.5078
1432	64.4495
1416	64.3903
1400	64.3121
1384	64.3326
1368	64.3576
1352	64.236
1336	64.4655
1320	64.2247
1304	64.241
1288	64.1359
1272	64.1528
1256	64.1143
1240	64.1646
1224	64.1991
1208	64.1732
1192	64.2054
1176	64.1086
1160	64.0259
1144	64.1593
1128	63.9838
1112	63.9781
1096	63.9795
1080	64.0626
1064	64.1033
1048	63.9926
1032	64.0749
1016	64.1284
1000	64.1881
984	 63.926
968	 64.0912
952	 64.296
936	 64.0922
920	 64.3715
904	 64.0313
888	 64.066
872	 64.1025
856	 64.1985
840	 64.1709
824	 64.2678
808	 63.9605
792	 64.2781
776	 64.1419
760	 63.9835
744	 63.8831
728	 63.5964
712	 63.6202
696	 63.9761
680	 63.1131
664	 63.5818
648	 64.3687
632	 64.1654
616	 63.1278
600	 63.2938
584	 62.7754
568	 64.0237
552	 64.0142
536	 63.3656
520	 63.4011
504	 63.8893
488	 63.7402
472	 63.2633
456	 63.1523
440	 64.1908
424	 62.0953
408	 64.0576
392	 62.8916
376	 64.305
370	 56.4813