File: Bakgrunnsmateriale/MATLAB/FTIR/ftir_data/subAa/Mapping_121/BZ1503107-1_t19_cm-1.asc
PE IR       SPECTRUM    SPECTRUM    ASCII       PEDS        1.60
  -1
BZ61B1~1.ASC
17/04/07
14:44:13.00
17/04/07
14:44:13.00
tln
$BZ1503107-1_t0019$<tbV0>[-5.2,-10.4,8.0,0.0,27,1,0]
370
64

2002,4.07
MIRTGS : RIGHTBACK : INTERNAL 2
MIR : ON : INTERNAL 2
OPTKBR

0.200000
8
8.000000
FILLER
RATIO
SPECTRUM
UNLOCKED 256

DOUBLE
64
COMBINED
1
0
0

1.000000
RATIO

1
0
TRUE
51149
0
LEFT NOT FITTED RIGHT NOT FITTED 0
NONE
NONE
15600
12
4.427000
51148
TRUE
1 0 8 72 0 0 0 0

15798

#HDR
-1
-1
#GR
CM-1
%T
2.38419e-05
0.0
5000
-1.000000
4631
8
73.3686
50.8446
#DATA
5000	64.1699
4984	65.6172
4968	65.1907
4952	64.4742
4936	65.238
4920	64.8134
4904	65.2217
4888	64.6848
4872	64.3658
4856	64.9197
4840	65.7259
4824	64.814
4808	65.0334
4792	65.4701
4776	64.6312
4760	65.1662
4744	64.8294
4728	64.7578
4712	64.6952
4696	64.8327
4680	64.9966
4664	65.2459
4648	64.95
4632	65.0185
4616	64.7129
4600	65.0126
4584	65.246
4568	64.5947
4552	64.7211
4536	64.9648
4520	64.0696
4504	65.3418
4488	67.7114
4472	65.3156
4456	62.5337
4440	68.8389
4424	60.9004
4408	64.8705
4392	65.827
4376	64.5797
4360	65.0884
4344	65.1134
4328	64.9345
4312	65.2296
4296	64.924
4280	64.8188
4264	64.9129
4248	64.9227
4232	65.2022
4216	64.8236
4200	65.1168
4184	64.4664
4168	64.9718
4152	64.9339
4136	64.7701
4120	65.0436
4104	65.3116
4088	65.2502
4072	65.2805
4056	65.2245
4040	64.9442
4024	64.9169
4008	65.0101
3992	64.9811
3976	65.1469
3960	65.0684
3944	65.1361
3928	65.0562
3912	64.934
3896	65.0623
3880	64.8534
3864	65.2421
3848	65.4066
3832	65.1891
3816	65.2277
3800	65.2969
3784	65.3242
3768	65.1801
3752	65.2875
3736	65.4158
3720	65.1847
3704	65.2255
3688	65.3103
3672	65.4737
3656	65.2556
3640	65.3716
3624	65.3262
3608	65.1875
3592	65.0934
3576	65.1863
3560	65.0054
3544	65.2258
3528	65.1567
3512	65.2056
3496	65.3117
3480	65.1978
3464	64.9564
3448	64.9932
3432	65.3382
3416	65.2076
3400	65.2375
3384	65.1952
3368	65.2221
3352	65.0981
3336	65.3355
3320	65.1655
3304	65.1295
3288	65.0394
3272	65.2232
3256	65.133
3240	65.0246
3224	65.0244
3208	65.1983
3192	65.2618
3176	65.2366
3160	65.0678
3144	65.1519
3128	65.1716
3112	65.1625
3096	65.134
3080	65.1813
3064	65.1812
3048	65.1882
3032	64.9822
3016	65.377
3000	65.1961
2984	65.0891
2968	65.0142
2952	64.9973
2936	65.1103
2920	65.0856
2904	65.0421
2888	64.9989
2872	65.009
2856	65.147
2840	65.1104
2824	65.1201
2808	65.0377
2792	64.9777
2776	65.0956
2760	65.0243
2744	64.977
2728	65.1267
2712	64.9626
2696	65.2007
2680	65.1216
2664	65.1135
2648	65.0666
2632	64.8333
2616	65.0231
2600	65.067
2584	65.1229
2568	65.0145
2552	65.1292
2536	65.0888
2520	65.0052
2504	64.9312
2488	65.0493
2472	65.094
2456	64.8553
2440	65.0132
2424	64.7456
2408	65.0796
2392	64.9779
2376	64.9944
2360	65.0582
2344	64.9393
2328	65.0315
2312	65.0347
2296	64.9745
2280	64.938
2264	64.9794
2248	64.9885
2232	64.9044
2216	65.0054
2200	65.021
2184	64.8482
2168	64.9447
2152	64.8421
2136	64.7989
2120	65.0195
2104	64.8767
2088	64.9666
2072	64.7868
2056	64.8164
2040	64.8973
2024	64.9327
2008	64.8659
1992	64.7658
1976	64.8548
1960	64.9034
1944	64.8273
1928	64.8439
1912	64.8917
1896	64.8274
1880	64.8148
1864	64.846
1848	64.8431
1832	64.7843
1816	64.9213
1800	64.7639
1784	64.8084
1768	64.6798
1752	64.6155
1736	64.4983
1720	64.5807
1704	64.7367
1688	64.8895
1672	64.7013
1656	64.7834
1640	64.6443
1624	64.6085
1608	64.6236
1592	64.7761
1576	64.898
1560	64.8674
1544	64.6353
1528	64.637
1512	64.7047
1496	64.6497
1480	64.6284
1464	64.6353
1448	64.5068
1432	64.4538
1416	64.4454
1400	64.4325
1384	64.4264
1368	64.4189
1352	64.484
1336	64.3458
1320	64.4603
1304	64.3419
1288	64.392
1272	64.3306
1256	64.3127
1240	64.2394
1224	64.2166
1208	64.2878
1192	64.2939
1176	64.1201
1160	64.2212
1144	64.1682
1128	64.3249
1112	64.2776
1096	64.2452
1080	64.2795
1064	64.0236
1048	64.1727
1032	63.9645
1016	64.2218
1000	64.0258
984	 64.1257
968	 64.0663
952	 64.196
936	 64.2735
920	 64.402
904	 64.1036
888	 63.9744
872	 64.2467
856	 64.0939
840	 64.2983
824	 63.8846
808	 64.2234
792	 64.2033
776	 64.0644
760	 64.1823
744	 64.012
728	 64.0409
712	 63.9123
696	 64.0455
680	 63.9665
664	 63.5834
648	 63.811
632	 63.8704
616	 63.9963
600	 63.0256
584	 63.1305
568	 63.6316
552	 63.2615
536	 64.2109
520	 63.8835
504	 63.3741
488	 64.3251
472	 64.7893
456	 64.4236
440	 63.7063
424	 63.6895
408	 61.0443
392	 66.0058
376	 63.7602
370	 73.3686