File: Bakgrunnsmateriale/MATLAB/FTIR/ftir_data/subAa/Mapping_121/BZ1503107-1_t01.asc
PE IR       SPECTRUM    SPECTRUM    ASCII       PEDS        1.60
  -1
BZ1503~4.ASC
17/04/07
13:20:30.00
17/04/07
13:20:56.00
tln
$BZ1503107-1_t0001$<tbV0>[13.0,-13.0,8.0,0.0,27,1,0]
27.028
64

2002,4.07
MIRTGS : RIGHTBACK : INTERNAL 2
MIR : ON : INTERNAL 2
OPTKBR

0.200000
8
8.000000
FILLER
RATIO
SPECTRUM
UNLOCKED 256

DOUBLE
64
COMBINED
1
0
0

0.002000
RATIO

1
0
TRUE
51149
0
LEFT NOT FITTED RIGHT NOT FITTED 0
NONE
NONE
15600
12
4.427000
51148
TRUE
1 0 8 72 0 0 0 0

15798

#HDR
-1
-1
#GR
µM
%T
2.38419e-05
0.0
2.000000
0.002000
12515
8
109.6
41.8384
#DATA
2.000000	 65.3366
2.084000	 65.9836
2.168000	 64.6876
2.252000	 65.7062
2.336000	 65.0981
2.420000	 64.7334
2.504000	 64.9477
2.588000	 65.0454
2.672000	 65.4273
2.756000	 65.3607
2.840000	 65.0601
2.924000	 65.1944
3.008000	 65.1884
3.092000	 65.0555
3.176000	 65.0901
3.260000	 65.2192
3.344000	 65.1723
3.428000	 64.8742
3.512000	 64.9954
3.596000	 65.153
3.680000	 65.0773
3.764000	 65.1036
3.848000	 64.9983
3.932000	 65.0409
4.016000	 65.0562
4.100000	 65.0009
4.184000	 65.0774
4.268000	 65.0065
4.352000	 64.923
4.436000	 65.0094
4.520000	 64.8659
4.604000	 65.0333
4.688000	 64.9887
4.772000	 64.8923
4.856000	 64.8956
4.940000	 64.9531
5.024000	 64.8415
5.108000	 64.9371
5.192000	 64.8207
5.276000	 64.9123
5.359999	 64.9218
5.444000	 64.8161
5.528000	 64.9026
5.612000	 64.7485
5.696000	 64.732
5.780000	 64.5808
5.864000	 64.7524
5.948000	 64.607
6.032000	 64.7027
6.116000	 64.5284
6.200000	 64.5731
6.284000	 64.6012
6.368000	 64.6352
6.452000	 64.642
6.536000	 64.5907
6.620000	 64.6038
6.704000	 64.6828
6.788000	 64.7167
6.872000	 64.462
6.956000	 64.7082
7.040000	 64.4843
7.124000	 64.4722
7.208000	 64.5242
7.292000	 64.5761
7.376000	 64.4706
7.460000	 64.6374
7.544000	 64.4409
7.628000	 64.3224
7.712000	 64.4216
7.796000	 64.4202
7.880000	 64.3433
7.964000	 64.3005
8.048000	 64.2048
8.132000	 64.3267
8.216000	 64.2916
8.300000	 64.3644
8.384000	 64.332
8.468000	 64.1212
8.552000	 64.2272
8.635999	 64.3126
8.719999	 64.1219
8.804000	 64.3832
8.888000	 64.3857
8.972000	 64.276
9.056000	 64.1688
9.140000	 64.4644
9.224000	 64.427
9.308000	 64.1931
9.391999	 64.2559
9.475999	 64.161
9.560000	 64.2017
9.644000	 64.2603
9.728000	 64.3167
9.812000	 64.1334
9.896000	 64.2504
9.980000	 64.3542
10.064	64.2221
10.148	64.2787
10.232	64.2058
10.316	64.2353
10.4	64.2953
10.484	64.2722
10.568	64.3919
10.652	64.1656
10.736	64.3292
10.82	64.3827
10.904	64.4459
10.988	64.3012
11.072	64.1004
11.156	64.2769
11.24	64.3092
11.324	64.3747
11.408	64.3034
11.492	64.2558
11.576	64.1304
11.66	64.1378
11.744	64.3672
11.828	64.552
11.912	64.3784
11.996	64.2185
12.08	64.1199
12.164	64.1295
12.248	64.1055
12.332	64.1684
12.416	64.1798
12.5	64.1676
12.584	64.2546
12.668	64.1944
12.752	64.1409
12.836	64.2266
12.92	64.4177
13.004	64.3326
13.088	64.1138
13.172	64.1086
13.256	64.1039
13.34	64.0224
13.424	63.9722
13.508	64.03
13.592	64.0804
13.676	64.1286
13.76	64.1272
13.844	64.1126
13.928	64.0701
14.012	64.0751
14.096	64.1879
14.18	64.2868
14.264	64.2861
14.348	64.1437
14.432	64.0598
14.516	64.2215
14.6	64.3586
14.684	64.2069
14.768	64.0787
14.852	64.2169
14.936	64.2753
15.02	64.1528
15.104	64.1817
15.188	64.302
15.272	64.2677
15.356	64.1998
15.44	64.2574
15.524	64.3511
15.608	64.3469
15.692	64.2516
15.776	64.1745
15.86	64.1746
15.944	64.1419
16.028	63.9869
16.112	63.8662
16.196	63.9264
16.28	64.0055
16.364	63.9179
16.448	63.7956
16.532	63.8
16.616	63.8293
16.7	63.7287
16.784	63.5528
16.868	63.505
16.952	63.6677
17.036	63.9147
17.12	64.114
17.204	64.2621
17.288	64.3548
17.372	64.3319
17.456	64.2245
17.54	64.1706
17.624	64.2419
17.708	64.3673
17.792	64.453
17.876	64.4767
17.96	64.4207
18.044	64.2458
18.128	64.0118
18.212	63.8791
18.296	63.9464
18.38	64.1613
18.464	64.3704
18.548	64.4354
18.632	64.3441
18.716	64.2062
18.8	64.139
18.884	64.1786
18.968	64.2813
19.052	64.3776
19.136	64.4428
19.22	64.5062
19.304	64.5831
19.388	64.6505
19.472	64.6877
19.556	64.6994
19.64	64.6891
19.724	64.6486
19.808	64.5759
19.892	64.4801
19.976	64.3709
20.06	64.2598
20.144	64.182
20.228	64.1932
20.312	64.3194
20.396	64.5088
20.48	64.6552
20.564	64.6815
20.648	64.6066
20.732	64.5167
20.816	64.4831
20.9	64.5056
20.984	64.5284
21.068	64.5043
21.152	64.4299
21.236	64.3341
21.32	64.2455
21.404	64.1801
21.488	64.1471
21.572	64.1473
21.656	64.1587
21.74	64.1247
21.824	63.9791
21.908	63.7061
21.992	63.378
22.076	63.1269
22.16	63.0727
22.244	63.2381
22.328	63.5361
22.412	63.8259
22.496	64.0042
22.58	64.0631
22.664	64.0649
22.748	64.0708
22.832	64.0689
22.916	63.9958
23	63.7944
23.084	63.4858
23.168	63.1913
23.252	63.0502
23.336	63.135
23.42	63.4015
23.504	63.7149
23.588	63.93
23.672	63.9852
23.756	63.9457
23.84	63.9338
23.924	64.0519
24.008	64.3448
24.092	64.8059
24.176	65.3885
24.26	66.0684
24.344	66.8261
24.428	67.6196
24.512	68.3827
24.596	69.0075
24.68	69.2999
24.764	69.0144
24.848	68.0574
24.932	66.5138
25.016	64.6784
25.1	63.0495
25.184	62.1463
25.268	62.2969
25.352	63.5905
25.436	65.605
25.52	67.5883
25.604	68.848
25.688	68.9091
25.772	67.6317
25.856	65.0955
25.94	61.8996
26.024	58.4326
26.108	54.3161
26.192	49.4458
26.276	44.5748
26.36	41.9286
26.444	43.3106
26.528	49.2379
26.612	57.2953
26.696	65.0994
26.78	72.0405
26.864	80.5305
26.948	93.694
27.028	109.6