File: Bakgrunnsmateriale/MATLAB/FTIR/ftir_data/subAa/Mapping_121/BZ1503107-1_e127.asc
PE IR       SPECTRUM    SPECTRUM    ASCII       PEDS        1.60
  -1
BZE0AE~1.ASC
17/04/07
22:19:52.00
17/04/07
22:20:18.00
tln
$BZ1503107-1_e0127$<ebV0>[-23.3,12.1,10.0,0.0,27,1,0]
27.028
64

2002,4.07
MIRTGS : RIGHTBACK : INTERNAL 2
MIR : ON : INTERNAL 2
OPTKBR

0.200000
8
8.000000
FILLER
SINGLE
SPECTRUM
UNLOCKED 256

DOUBLE

COMBINED
1
0
0

0.002000
BACKG

1
0
TRUE
51149
0
LEFT NOT FITTED RIGHT NOT FITTED 0
NONE
NONE
15600
12
4.427000
51148
TRUE
1 0 8 72 0 0 0 0

15798

#HDR
-1
-1
#GR
µM
EGY
2.38419e-05
0.0
2.000000
0.002000
12515
8
2.465510
0.008058
#DATA
2.000000	 0.772833
2.084000	 0.877948
2.168000	 0.937460
2.252000	 1.027943
2.336000	 1.145588
2.420000	 1.244231
2.504000	 1.405666
2.588000	 1.459111
2.672000	 1.561475
2.756000	 1.582069
2.840000	 1.640204
2.924000	 1.595835
3.008000	 1.696528
3.092000	 1.795019
3.176000	 1.823141
3.260000	 1.945459
3.344000	 2.041092
3.428000	 1.847203
3.512000	 2.022183
3.596000	 2.227240
3.680000	 2.264028
3.764000	 2.230517
3.848000	 2.235534
3.932000	 2.306078
4.016000	 2.335623
4.100000	 2.294730
4.184000	 2.256080
4.268000	 2.271359
4.352000	 2.349557
4.436000	 2.388686
4.520000	 2.372999
4.604000	 2.345281
4.688000	 2.339717
4.772000	 2.345973
4.856000	 2.391870
4.940000	 2.451426
5.024000	 2.465510
5.108000	 2.438503
5.192000	 2.407569
5.276000	 2.378779
5.359999	 2.387441
5.444000	 2.411737
5.528000	 2.433901
5.612000	 2.432184
5.696000	 2.403600
5.780000	 2.328711
5.864000	 2.285287
5.948000	 2.242265
6.032000	 2.195007
6.116000	 2.143841
6.200000	 2.012708
6.284000	 2.020099
6.368000	 1.984239
6.452000	 1.961815
6.536000	 2.102905
6.620000	 2.085933
6.704000	 1.691742
6.788000	 1.978517
6.872000	 1.793407
6.956000	 1.865774
7.040000	 1.857717
7.124000	 1.727834
7.208000	 1.790478
7.292000	 1.816975
7.376000	 1.818698
7.460000	 1.816919
7.544000	 1.848820
7.628000	 1.855879
7.712000	 1.856185
7.796000	 1.851541
7.880000	 1.775651
7.964000	 1.765311
8.048000	 1.835135
8.132000	 1.827232
8.216000	 1.784488
8.300000	 1.745317
8.384000	 1.741689
8.468000	 1.713351
8.552000	 1.675319
8.635999	 1.622276
8.719999	 1.606081
8.804000	 1.575337
8.888000	 1.526843
8.972000	 1.472850
9.056000	 1.433989
9.140000	 1.425714
9.224000	 1.430997
9.308000	 1.431982
9.391999	 1.437295
9.475999	 1.359534
9.560000	 1.325995
9.644000	 1.387538
9.728000	 1.369758
9.812000	 1.362367
9.896000	 1.381965
9.980000	 1.398987
10.064	1.399837
10.148	1.386287
10.232	1.370853
10.316	1.349260
10.4	1.322577
10.484	1.294567
10.568	1.272308
10.652	1.259055
10.736	1.242584
10.82	1.226380
10.904	1.205055
10.988	1.177939
11.072	1.159384
11.156	1.149002
11.24	1.130015
11.324	1.079503
11.408	1.032583
11.492	1.048132
11.576	1.084306
11.66	1.093891
11.744	1.085975
11.828	1.077978
11.912	1.058916
11.996	0.992728
12.08	0.880865
12.164	0.851445
12.248	0.913262
12.332	0.945814
12.416	0.946195
12.5	0.943493
12.584	0.951266
12.668	0.966482
12.752	0.977276
12.836	0.980564
12.92	0.978130
13.004	0.972813
13.088	0.968788
13.172	0.964226
13.256	0.958854
13.34	0.952516
13.424	0.944500
13.508	0.935805
13.592	0.924315
13.676	0.911232
13.76	0.898732
13.844	0.886712
13.928	0.874480
14.012	0.861903
14.096	0.849321
14.18	0.835221
14.264	0.818752
14.348	0.797843
14.432	0.767716
14.516	0.738984
14.6	0.729899
14.684	0.733530
14.768	0.733867
14.852	0.728633
14.936	0.720645
15.02	0.711787
15.104	0.702644
15.188	0.693489
15.272	0.684607
15.356	0.675298
15.44	0.665496
15.524	0.655697
15.608	0.646141
15.692	0.636690
15.776	0.627547
15.86	0.619207
15.944	0.611468
16.028	0.603788
16.112	0.595262
16.196	0.584269
16.28	0.569496
16.364	0.552002
16.448	0.536393
16.532	0.527423
16.616	0.524823
16.7	0.523969
16.784	0.521907
16.868	0.518738
16.952	0.515830
17.036	0.513763
17.12	0.512051
17.204	0.510073
17.288	0.508198
17.372	0.507119
17.456	0.505611
17.54	0.501472
17.624	0.494464
17.708	0.486949
17.792	0.481192
17.876	0.477367
17.96	0.474161
18.044	0.470517
18.128	0.466284
18.212	0.461676
18.296	0.456430
18.38	0.450383
18.464	0.443894
18.548	0.438003
18.632	0.433917
18.716	0.431323
18.8	0.428805
18.884	0.424988
18.968	0.419844
19.052	0.414092
19.136	0.408367
19.22	0.402762
19.304	0.397107
19.388	0.391321
19.472	0.385413
19.556	0.379586
19.64	0.374139
19.724	0.369135
19.808	0.364093
19.892	0.358305
19.976	0.351311
20.06	0.343231
20.144	0.334779
20.228	0.326518
20.312	0.318823
20.396	0.311647
20.48	0.304764
20.564	0.298098
20.648	0.291545
20.732	0.285070
20.816	0.278627
20.9	0.272140
20.984	0.265851
21.068	0.259790
21.152	0.253974
21.236	0.248314
21.32	0.242560
21.404	0.236614
21.488	0.230378
21.572	0.224040
21.656	0.217715
21.74	0.211532
21.824	0.205313
21.908	0.198968
21.992	0.192448
22.076	0.185894
22.16	0.179667
22.244	0.174159
22.328	0.169570
22.412	0.165788
22.496	0.162370
22.58	0.158824
22.664	0.154813
22.748	0.150222
22.832	0.145186
22.916	0.139928
23	0.134542
23.084	0.129187
23.168	0.123842
23.252	0.118587
23.336	0.113434
23.42	0.108457
23.504	0.103600
23.588	0.098914
23.672	0.094275
23.756	0.089720
23.84	0.085256
23.924	0.081035
24.008	0.077046
24.092	0.073311
24.176	0.069740
24.26	0.066246
24.344	0.062757
24.428	0.059258
24.512	0.055772
24.596	0.052471
24.68	0.049370
24.764	0.046517
24.848	0.043857
24.932	0.041296
25.016	0.038820
25.1	0.036384
25.184	0.034103
25.268	0.031970
25.352	0.029989
25.436	0.028141
25.52	0.026384
25.604	0.024684
25.688	0.022926
25.772	0.021195
25.856	0.019518
25.94	0.017942
26.024	0.016586
26.108	0.015445
26.192	0.014576
26.276	0.013840
26.36	0.013196
26.444	0.012595
26.528	0.011995
26.612	0.011346
26.696	0.010712
26.78	0.010020
26.864	0.009344
26.948	0.008655
27.028	0.008058