File: Bakgrunnsmateriale/MATLAB/FTIR/ftir_data/subAa/Mapping_121/BZ1503107-1_t27.asc
PE IR       SPECTRUM    SPECTRUM    ASCII       PEDS        1.60
  -1
BZ2569~1.ASC
17/04/07
15:28:19.00
17/04/07
15:28:46.00
tln
$BZ1503107-1_t0027$<tbV0>[2.6,-7.8,8.0,0.0,27,1,0]
27.028
64

2002,4.07
MIRTGS : RIGHTBACK : INTERNAL 2
MIR : ON : INTERNAL 2
OPTKBR

0.200000
8
8.000000
FILLER
RATIO
SPECTRUM
UNLOCKED 256

DOUBLE
64
COMBINED
1
0
0

0.002000
RATIO

1
0
TRUE
51149
0
LEFT NOT FITTED RIGHT NOT FITTED 0
NONE
NONE
15600
12
4.427000
51148
TRUE
1 0 8 72 0 0 0 0

15798

#HDR
-1
-1
#GR
µM
%T
2.38419e-05
0.0
2.000000
0.002000
12515
8
81.245
24.9181
#DATA
2.000000	 64.9051
2.084000	 65.0988
2.168000	 64.8262
2.252000	 64.5078
2.336000	 64.6044
2.420000	 65.0794
2.504000	 65.1382
2.588000	 64.9869
2.672000	 65.2006
2.756000	 65.2275
2.840000	 65.2498
2.924000	 65.2291
3.008000	 65.1609
3.092000	 65.0984
3.176000	 64.9715
3.260000	 65.2456
3.344000	 65.0088
3.428000	 64.9344
3.512000	 64.9408
3.596000	 64.9821
3.680000	 65.0147
3.764000	 65.0059
3.848000	 64.9611
3.932000	 64.9433
4.016000	 65.0817
4.100000	 64.8977
4.184000	 64.9584
4.268000	 64.883
4.352000	 64.8014
4.436000	 64.7872
4.520000	 64.9344
4.604000	 64.8327
4.688000	 64.7388
4.772000	 64.8038
4.856000	 64.7555
4.940000	 64.8246
5.024000	 64.7719
5.108000	 64.7671
5.192000	 64.6646
5.276000	 64.563
5.359999	 64.6701
5.444000	 64.7504
5.528000	 64.701
5.612000	 64.5158
5.696000	 64.4975
5.780000	 64.0847
5.864000	 64.5085
5.948000	 64.5399
6.032000	 64.4416
6.116000	 64.5209
6.200000	 64.3692
6.284000	 64.4217
6.368000	 64.4299
6.452000	 64.4156
6.536000	 64.5727
6.620000	 64.5702
6.704000	 64.3913
6.788000	 64.3895
6.872000	 64.251
6.956000	 64.3552
7.040000	 64.4359
7.124000	 64.3557
7.208000	 64.2182
7.292000	 64.3195
7.376000	 64.2402
7.460000	 64.3854
7.544000	 64.1959
7.628000	 64.1717
7.712000	 64.1409
7.796000	 64.2281
7.880000	 64.0335
7.964000	 64.088
8.048000	 64.1288
8.132000	 64.1497
8.216000	 64.0188
8.300000	 64.0325
8.384000	 64.0922
8.468000	 64.0593
8.552000	 63.9716
8.635999	 63.9962
8.719999	 63.8662
8.804000	 64.0345
8.888000	 63.8553
8.972000	 64.0055
9.056000	 64.0249
9.140000	 64.0451
9.224000	 64.1198
9.308000	 63.9972
9.391999	 64.0379
9.475999	 63.947
9.560000	 64.0426
9.644000	 63.9669
9.728000	 64.1516
9.812000	 64.1281
9.896000	 63.9492
9.980000	 63.9034
10.064	64.1652
10.148	63.9396
10.232	64.1577
10.316	64.0928
10.4	64.1691
10.484	64.2423
10.568	64.2882
10.652	63.9268
10.736	64.0716
10.82	64.076
10.904	64.0992
10.988	64.102
11.072	63.9515
11.156	64.0029
11.24	64.0548
11.324	64.1081
11.408	64.2375
11.492	64.0547
11.576	64.1156
11.66	63.9874
11.744	63.7751
11.828	63.7401
11.912	64.082
11.996	64.1866
12.08	63.9891
12.164	63.9028
12.248	63.7927
12.332	63.8591
12.416	63.8608
12.5	64.0355
12.584	64.2915
12.668	64.3536
12.752	64.2672
12.836	63.9983
12.92	63.8638
13.004	63.8507
13.088	64.0613
13.172	64.1417
13.256	63.9034
13.34	63.9146
13.424	64.0005
13.508	63.9059
13.592	64.1071
13.676	64.208
13.76	63.863
13.844	63.4867
13.928	63.3484
14.012	63.3295
14.096	63.5792
14.18	63.9422
14.264	63.8648
14.348	63.81
14.432	64.3632
14.516	64.7345
14.6	64.2218
14.684	63.4423
14.768	63.0939
14.852	63.3043
14.936	63.8273
15.02	64.1951
15.104	64.0484
15.188	63.5333
15.272	63.0949
15.356	62.9698
15.44	63.2268
15.524	63.7741
15.608	64.2564
15.692	64.4921
15.776	64.6597
15.86	64.849
15.944	64.9487
16.028	64.8346
16.112	64.4809
16.196	64.1026
16.28	63.9532
16.364	63.964
16.448	64.0026
16.532	64.1723
16.616	64.4601
16.7	64.5734
16.784	64.369
16.868	64.0202
16.952	63.7511
17.036	63.6492
17.12	63.6977
17.204	63.8494
17.288	64.0139
17.372	64.0564
17.456	63.907
17.54	63.6735
17.624	63.5558
17.708	63.6363
17.792	63.8229
17.876	63.9702
17.96	64.0622
18.044	64.2028
18.128	64.4098
18.212	64.5265
18.296	64.3902
18.38	64.0386
18.464	63.7024
18.548	63.5893
18.632	63.6817
18.716	63.7785
18.8	63.727
18.884	63.5879
18.968	63.5067
19.052	63.499
19.136	63.4725
19.22	63.4176
19.304	63.4513
19.388	63.6634
19.472	63.9992
19.556	64.3026
19.64	64.4493
19.724	64.4128
19.808	64.2441
19.892	64.0217
19.976	63.8051
20.06	63.6133
20.144	63.4478
20.228	63.3337
20.312	63.318
20.396	63.4287
20.48	63.6462
20.564	63.9161
20.648	64.1818
20.732	64.3918
20.816	64.4913
20.9	64.429
20.984	64.2045
21.068	63.8842
21.152	63.576
21.236	63.3656
21.32	63.2926
21.404	63.36
21.488	63.5557
21.572	63.8475
21.656	64.16
21.74	64.3925
21.824	64.4646
21.908	64.3712
21.992	64.1795
22.076	63.958
22.16	63.7124
22.244	63.3798
22.328	62.8907
22.412	62.2362
22.496	61.5069
22.58	60.8427
22.664	60.3627
22.748	60.1154
22.832	60.0852
22.916	60.2453
23	60.602
23.084	61.1887
23.168	62.0013
23.252	62.935
23.336	63.7795
23.42	64.2792
23.504	64.2628
23.588	63.7389
23.672	62.8908
23.756	62.0319
23.84	61.4487
23.924	61.3065
24.008	61.5863
24.092	62.1082
24.176	62.6546
24.26	63.0816
24.344	63.3519
24.428	63.5326
24.512	63.764
24.596	64.1466
24.68	64.7363
24.764	65.5666
24.848	66.6135
24.932	67.8913
25.016	69.441
25.1	71.2063
25.184	73.0255
25.268	74.6598
25.352	75.8647
25.436	76.5193
25.52	76.7394
25.604	76.8357
25.688	77.191
25.772	78.0272
25.856	79.2484
25.94	80.4882
26.024	81.2103
26.108	80.9209
26.192	79.3924
26.276	76.6609
26.36	73.0004
26.444	68.7383
26.528	64.077
26.612	59.0482
26.696	53.475
26.78	47.0865
26.864	39.8204
26.948	32.0331
27.028	24.9181