File: Bakgrunnsmateriale/MATLAB/FTIR/ftir_data/subAa/Mapping_121/BZ1503107-1_t69.asc
PE IR       SPECTRUM    SPECTRUM    ASCII       PEDS        1.60
  -1
BZ2D61~1.ASC
17/04/07
18:57:17.00
17/04/07
18:57:43.00
tln
$BZ1503107-1_t0069$<tbV0>[7.8,2.6,8.0,0.0,27,1,0]
27.028
64

2002,4.07
MIRTGS : RIGHTBACK : INTERNAL 2
MIR : ON : INTERNAL 2
OPTKBR

0.200000
8
8.000000
FILLER
RATIO
SPECTRUM
UNLOCKED 256

DOUBLE
64
COMBINED
1
0
0

0.002000
RATIO

1
0
TRUE
51149
0
LEFT NOT FITTED RIGHT NOT FITTED 0
NONE
NONE
15600
12
4.427000
51148
TRUE
1 0 8 72 0 0 0 0

15798

#HDR
-1
-1
#GR
µM
%T
2.38419e-05
0.0
2.000000
0.002000
12515
8
66.3639
47.737
#DATA
2.000000	 65.3958
2.084000	 64.3898
2.168000	 65.2419
2.252000	 64.6552
2.336000	 65.199
2.420000	 64.7877
2.504000	 64.8939
2.588000	 65.1601
2.672000	 65.1078
2.756000	 65.0486
2.840000	 65.1514
2.924000	 65.1121
3.008000	 64.9734
3.092000	 64.9562
3.176000	 65.1115
3.260000	 65.0106
3.344000	 64.9995
3.428000	 64.8377
3.512000	 64.7686
3.596000	 64.9391
3.680000	 64.8558
3.764000	 64.7394
3.848000	 64.7019
3.932000	 64.7695
4.016000	 64.7616
4.100000	 64.7776
4.184000	 64.5773
4.268000	 64.7045
4.352000	 64.6313
4.436000	 64.6903
4.520000	 64.6103
4.604000	 64.5485
4.688000	 64.6612
4.772000	 64.5874
4.856000	 64.5107
4.940000	 64.5133
5.024000	 64.3624
5.108000	 64.4606
5.192000	 64.3911
5.276000	 64.24
5.359999	 64.3363
5.444000	 64.2501
5.528000	 64.2189
5.612000	 64.269
5.696000	 64.2447
5.780000	 64.1008
5.864000	 64.074
5.948000	 64.1433
6.032000	 64.0758
6.116000	 64.0461
6.200000	 64.0791
6.284000	 63.9948
6.368000	 63.9445
6.452000	 63.9861
6.536000	 63.9541
6.620000	 64.0337
6.704000	 63.8855
6.788000	 63.8628
6.872000	 63.8962
6.956000	 64.0234
7.040000	 64.0473
7.124000	 63.8346
7.208000	 63.9295
7.292000	 63.9143
7.376000	 63.7308
7.460000	 63.876
7.544000	 63.9299
7.628000	 63.6947
7.712000	 63.8086
7.796000	 63.7597
7.880000	 63.713
7.964000	 63.7297
8.048000	 63.716
8.132000	 63.6025
8.216000	 63.634
8.300000	 63.7033
8.384000	 63.6947
8.468000	 63.5263
8.552000	 63.5341
8.635999	 63.6629
8.719999	 63.62
8.804000	 63.676
8.888000	 63.6112
8.972000	 63.7542
9.056000	 63.7868
9.140000	 63.5598
9.224000	 63.5852
9.308000	 63.5708
9.391999	 63.6426
9.475999	 63.7806
9.560000	 63.7942
9.644000	 63.5778
9.728000	 63.5477
9.812000	 63.4553
9.896000	 63.5386
9.980000	 63.783
10.064	63.5401
10.148	63.5934
10.232	63.7412
10.316	63.5636
10.4	63.5793
10.484	63.4063
10.568	63.5444
10.652	63.5587
10.736	63.4439
10.82	63.5378
10.904	63.5078
10.988	63.6515
11.072	63.6193
11.156	63.6058
11.24	63.6556
11.324	63.7043
11.408	63.5982
11.492	63.7458
11.576	63.4706
11.66	63.4504
11.744	63.5709
11.828	63.4708
11.912	63.4159
11.996	63.5367
12.08	63.587
12.164	63.6191
12.248	63.4524
12.332	63.43
12.416	63.4658
12.5	63.4249
12.584	63.4181
12.668	63.4125
12.752	63.4134
12.836	63.5075
12.92	63.5026
13.004	63.2816
13.088	63.2501
13.172	63.2878
13.256	63.2887
13.34	63.2452
13.424	63.0799
13.508	63.0538
13.592	63.084
13.676	62.9147
13.76	62.8396
13.844	62.926
13.928	63.027
14.012	63.3213
14.096	63.3819
14.18	63.1073
14.264	62.885
14.348	62.5785
14.432	62.5175
14.516	62.959
14.6	63.2849
14.684	63.134
14.768	62.9249
14.852	63.0356
14.936	63.2331
15.02	63.1196
15.104	63.0842
15.188	63.3807
15.272	63.4528
15.356	63.2667
15.44	63.1558
15.524	62.9507
15.608	62.6271
15.692	62.515
15.776	62.7543
15.86	63.0118
15.944	62.852
16.028	62.45
16.112	62.3507
16.196	62.6397
16.28	62.9934
16.364	63.2029
16.448	63.3114
16.532	63.4448
16.616	63.5364
16.7	63.4005
16.784	63.1056
16.868	62.86
16.952	62.6941
17.036	62.5958
17.12	62.6528
17.204	62.8662
17.288	63.1158
17.372	63.3094
17.456	63.3761
17.54	63.2666
17.624	63.0874
17.708	63.0404
17.792	63.1522
17.876	63.2385
17.96	63.1887
18.044	63.0888
18.128	63.0456
18.212	63.0582
18.296	63.0959
18.38	63.1603
18.464	63.2386
18.548	63.2825
18.632	63.2487
18.716	63.1375
18.8	62.9783
18.884	62.8081
18.968	62.677
19.052	62.6379
19.136	62.6884
19.22	62.7458
19.304	62.7189
19.388	62.6131
19.472	62.5354
19.556	62.5762
19.64	62.7072
19.724	62.8217
19.808	62.8572
19.892	62.848
19.976	62.8742
20.06	62.9783
20.144	63.115
20.228	63.1821
20.312	63.1091
20.396	62.9156
20.48	62.6841
20.564	62.4894
20.648	62.3671
20.732	62.3221
20.816	62.336
20.9	62.3685
20.984	62.359
21.068	62.2574
21.152	62.065
21.236	61.8425
21.32	61.6639
21.404	61.5701
21.488	61.5542
21.572	61.5797
21.656	61.6074
21.74	61.6094
21.824	61.582
21.908	61.5568
21.992	61.5843
22.076	61.6996
22.16	61.8929
22.244	62.104
22.328	62.2735
22.412	62.3885
22.496	62.5017
22.58	62.6816
22.664	62.9465
22.748	63.2165
22.832	63.3544
22.916	63.2513
23	62.9156
23.084	62.467
23.168	62.0861
23.252	61.8956
23.336	61.9141
23.42	62.0732
23.504	62.2832
23.588	62.5034
23.672	62.7446
23.756	63.0156
23.84	63.2916
23.924	63.4905
24.008	63.5196
24.092	63.3461
24.176	63.0371
24.26	62.7394
24.344	62.5997
24.428	62.6607
24.512	62.8356
24.596	62.9469
24.68	62.8136
24.764	62.3508
24.848	61.6347
24.932	60.8348
25.016	60.1036
25.1	59.5125
25.184	58.9673
25.268	58.2769
25.352	57.3082
25.436	56.0474
25.52	54.6634
25.604	53.4488
25.688	52.7276
25.772	52.6697
25.856	53.186
25.94	53.9569
26.024	54.5449
26.108	54.5996
26.192	53.9557
26.276	52.72
26.36	51.2703
26.444	50.1006
26.528	49.6618
26.612	50.2789
26.696	52.0682
26.78	54.8787
26.864	58.3971
26.948	62.3242
27.028	66.3275