File: Bakgrunnsmateriale/MATLAB/FTIR/ftir_data/subAa/Mapping_121/BZ1503107-1_t09_cm-1.asc
PE IR       SPECTRUM    SPECTRUM    ASCII       PEDS        1.60
  -1
BZ6132~1.ASC
17/04/07
13:57:25.00
17/04/07
13:57:25.00
tln
$BZ1503107-1_t0009$<tbV0>[-7.8,-13.0,8.0,0.0,27,1,0]
370
64

2002,4.07
MIRTGS : RIGHTBACK : INTERNAL 2
MIR : ON : INTERNAL 2
OPTKBR

0.200000
8
8.000000
FILLER
RATIO
SPECTRUM
UNLOCKED 256

DOUBLE
64
COMBINED
1
0
0

1.000000
RATIO

1
0
TRUE
51149
0
LEFT NOT FITTED RIGHT NOT FITTED 0
NONE
NONE
15600
12
4.427000
51148
TRUE
1 0 8 72 0 0 0 0

15798

#HDR
-1
-1
#GR
CM-1
%T
2.38419e-05
0.0
5000
-1.000000
4631
8
91.7465
56.4675
#DATA
5000	64.0221
4984	66.1395
4968	63.6207
4952	66.4316
4936	65.0323
4920	64.4642
4904	64.9436
4888	64.8567
4872	64.8254
4856	64.934
4840	65.085
4824	65.4849
4808	64.7353
4792	65.5532
4776	64.7738
4760	65.5705
4744	64.9026
4728	64.5369
4712	64.8386
4696	64.7425
4680	65.2759
4664	64.6305
4648	64.9989
4632	64.8252
4616	64.4748
4600	64.7424
4584	65.1151
4568	64.6448
4552	64.3889
4536	65.2136
4520	64.168
4504	64.9805
4488	68.1108
4472	65.3233
4456	62.5791
4440	73.3798
4424	65.3573
4408	64.7856
4392	65.0518
4376	64.7811
4360	64.9444
4344	64.9369
4328	64.6482
4312	64.7771
4296	64.7674
4280	64.8441
4264	64.7252
4248	64.8987
4232	65.0756
4216	64.8562
4200	64.9479
4184	65.1601
4168	65.0876
4152	65.0107
4136	65.0518
4120	65.0068
4104	65.2267
4088	65.0864
4072	65.3099
4056	65.1128
4040	65.1712
4024	65.1601
4008	65.0502
3992	65.0206
3976	65.1344
3960	64.6931
3944	65.1016
3928	64.899
3912	64.9462
3896	65.2549
3880	65.1285
3864	65.1699
3848	65.2077
3832	65.2556
3816	65.1226
3800	65.1258
3784	65.08
3768	65.2301
3752	65.4489
3736	65.2405
3720	65.2129
3704	65.3745
3688	65.316
3672	65.2917
3656	64.9843
3640	65.2224
3624	65.2606
3608	65.2119
3592	65.0823
3576	65.2823
3560	65.1195
3544	65.1897
3528	65.3821
3512	65.0539
3496	65.1383
3480	65.1156
3464	64.9115
3448	64.9934
3432	65.1071
3416	65.2481
3400	65.1297
3384	65.1477
3368	65.2037
3352	65.1419
3336	65.2174
3320	65.2583
3304	64.9915
3288	65.262
3272	65.087
3256	65.0824
3240	65.0269
3224	64.9373
3208	65.279
3192	65.029
3176	65.1418
3160	65.2021
3144	65.0793
3128	65.2228
3112	65.1106
3096	64.976
3080	65.1135
3064	65.1486
3048	65.1649
3032	65.1555
3016	65.1839
3000	65.1837
2984	65.045
2968	65.1044
2952	64.9788
2936	64.9012
2920	65.0442
2904	64.9668
2888	65.1669
2872	65.0835
2856	65.0241
2840	65.1349
2824	65.081
2808	65.142
2792	65.0581
2776	65.0425
2760	65.0269
2744	65.0336
2728	65.0962
2712	65.026
2696	65.1119
2680	65.079
2664	65.0006
2648	64.9425
2632	65.0164
2616	64.9883
2600	64.9875
2584	65.0633
2568	65.0502
2552	65.0157
2536	65.0585
2520	65.0106
2504	65.0755
2488	64.9281
2472	65.1585
2456	65.0418
2440	65.0031
2424	64.961
2408	65.0244
2392	64.9835
2376	65.0799
2360	65.0267
2344	65.0438
2328	64.9656
2312	65.0715
2296	64.9281
2280	64.9878
2264	64.9773
2248	64.9765
2232	64.876
2216	64.8992
2200	64.8405
2184	64.9318
2168	65.0671
2152	64.7696
2136	64.8918
2120	65.0184
2104	64.9212
2088	64.9912
2072	64.8981
2056	64.8752
2040	64.9191
2024	64.9289
2008	64.851
1992	64.9015
1976	64.8756
1960	64.8792
1944	64.8706
1928	64.9527
1912	64.8999
1896	64.9303
1880	64.8546
1864	64.8019
1848	64.9347
1832	64.7804
1816	64.9948
1800	64.8559
1784	64.7606
1768	64.8626
1752	64.7952
1736	64.5975
1720	64.6521
1704	64.7286
1688	64.6448
1672	64.7805
1656	64.8585
1640	64.724
1624	64.7409
1608	64.7455
1592	64.5977
1576	64.6829
1560	64.7573
1544	64.6571
1528	64.6545
1512	64.7994
1496	64.7388
1480	64.6906
1464	64.7292
1448	64.5802
1432	64.7024
1416	64.6696
1400	64.5476
1384	64.512
1368	64.459
1352	64.5905
1336	64.5218
1320	64.2482
1304	64.4031
1288	64.4176
1272	64.4567
1256	64.3244
1240	64.3442
1224	64.4786
1208	64.2292
1192	64.3696
1176	64.2104
1160	64.2617
1144	64.2277
1128	64.3529
1112	64.3342
1096	64.3314
1080	64.5188
1064	64.1007
1048	64.198
1032	64.116
1016	64.3106
1000	64.1974
984	 64.0821
968	 64.1858
952	 64.3024
936	 64.2806
920	 64.3603
904	 64.3066
888	 64.0135
872	 64.3162
856	 64.3128
840	 64.2586
824	 64.0274
808	 64.2087
792	 64.1032
776	 64.1944
760	 64.262
744	 64.0209
728	 64.3302
712	 64.253
696	 64.0468
680	 64.3742
664	 64.3075
648	 64.2508
632	 64.3392
616	 64.0795
600	 63.9731
584	 63.6681
568	 64.733
552	 63.1038
536	 63.7916
520	 64.1476
504	 65.2276
488	 63.9704
472	 65.0735
456	 64.5984
440	 62.8413
424	 63.4938
408	 68.2564
392	 67.6775
376	 91.7465
370	 75.4718