File: Bakgrunnsmateriale/MATLAB/FTIR/ftir_data/subAa/Mapping_121/BZ1503107-1_t80_cm-1.asc
PE IR       SPECTRUM    SPECTRUM    ASCII       PEDS        1.60
  -1
BZ6826~1.ASC
17/04/07
19:48:42.00
17/04/07
19:48:42.00
tln
$BZ1503107-1_t0080$<tbV0>[7.8,5.2,8.0,0.0,27,1,0]
370
64

2002,4.07
MIRTGS : RIGHTBACK : INTERNAL 2
MIR : ON : INTERNAL 2
OPTKBR

0.200000
8
8.000000
FILLER
RATIO
SPECTRUM
UNLOCKED 256

DOUBLE
64
COMBINED
1
0
0

1.000000
RATIO

1
0
TRUE
51149
0
LEFT NOT FITTED RIGHT NOT FITTED 0
NONE
NONE
15600
12
4.427000
51148
TRUE
1 0 8 72 0 0 0 0

15798

#HDR
-1
-1
#GR
CM-1
%T
2.38419e-05
0.0
5000
-1.000000
4631
8
78.3276
48.5216
#DATA
5000	64.6998
4984	65.0223
4968	65.3149
4952	65.4158
4936	64.8948
4920	64.472
4904	64.5522
4888	64.9539
4872	65.4148
4856	64.978
4840	64.9804
4824	64.6358
4808	64.711
4792	64.5106
4776	64.7246
4760	64.8854
4744	64.5819
4728	64.9533
4712	64.7935
4696	64.588
4680	64.4979
4664	64.688
4648	64.967
4632	64.7784
4616	65.0047
4600	65.3975
4584	64.9883
4568	65.426
4552	65.1162
4536	65.193
4520	65.7182
4504	65.662
4488	66.041
4472	65.6809
4456	63.3574
4440	55.5245
4424	71.9345
4408	67.5833
4392	65.0482
4376	64.9149
4360	65.8776
4344	65.8414
4328	65.1231
4312	65.4166
4296	65.3022
4280	64.9741
4264	65.0275
4248	65.0057
4232	64.6203
4216	64.975
4200	64.9316
4184	64.8501
4168	64.9
4152	64.7885
4136	64.7109
4120	64.7506
4104	64.9597
4088	65.0082
4072	64.8799
4056	65.1394
4040	64.8965
4024	64.9783
4008	65.1605
3992	64.8945
3976	65.2153
3960	65.0302
3944	65.1359
3928	64.7906
3912	64.9924
3896	65.1104
3880	65.037
3864	65.0283
3848	64.886
3832	64.8755
3816	64.6868
3800	65.2109
3784	65.0702
3768	64.9544
3752	65.1285
3736	65.1857
3720	65.0544
3704	65.1205
3688	65.0318
3672	65.1761
3656	65.0568
3640	65.143
3624	65.007
3608	64.9709
3592	64.9728
3576	65.0481
3560	65.0603
3544	65.1535
3528	65.0699
3512	65.1674
3496	65.0626
3480	64.8974
3464	65.2115
3448	65.2661
3432	64.869
3416	64.962
3400	64.9852
3384	65.0662
3368	65.0717
3352	65.0374
3336	64.9662
3320	64.7677
3304	65.0031
3288	64.8102
3272	64.9496
3256	64.8325
3240	64.8171
3224	65.0206
3208	64.9643
3192	64.9939
3176	65.0498
3160	65.0046
3144	64.9589
3128	64.7547
3112	65.0839
3096	64.8189
3080	64.8362
3064	64.9406
3048	65.0415
3032	64.9543
3016	64.8348
3000	64.8308
2984	64.8488
2968	64.7254
2952	64.6537
2936	64.7211
2920	64.8208
2904	64.745
2888	64.8696
2872	64.8554
2856	64.7565
2840	64.8769
2824	64.7655
2808	65.0349
2792	64.8058
2776	64.8071
2760	64.898
2744	64.6901
2728	64.91
2712	64.6831
2696	64.8191
2680	64.8166
2664	64.754
2648	64.7962
2632	64.7786
2616	64.8144
2600	64.8443
2584	64.6024
2568	64.6608
2552	64.6203
2536	64.6801
2520	64.6716
2504	64.6694
2488	64.6873
2472	64.5868
2456	64.6194
2440	64.5461
2424	64.6916
2408	64.5863
2392	64.5631
2376	64.5811
2360	64.5678
2344	64.5077
2328	64.6471
2312	64.5382
2296	64.4769
2280	64.5416
2264	64.5979
2248	64.5626
2232	64.5679
2216	64.5079
2200	64.5899
2184	64.5645
2168	64.4593
2152	64.5675
2136	64.4639
2120	64.4214
2104	64.3897
2088	64.3526
2072	64.4025
2056	64.377
2040	64.3309
2024	64.3876
2008	64.3249
1992	64.285
1976	64.319
1960	64.4019
1944	64.2188
1928	64.327
1912	64.183
1896	64.1554
1880	64.2389
1864	64.2019
1848	64.2482
1832	64.3285
1816	64.1855
1800	64.2369
1784	64.1283
1768	64.2006
1752	63.9683
1736	63.8985
1720	63.9535
1704	63.9616
1688	63.9463
1672	63.9575
1656	64.0138
1640	63.993
1624	64.2232
1608	63.9361
1592	63.9239
1576	63.8486
1560	63.8052
1544	63.9322
1528	63.8283
1512	63.9471
1496	63.8354
1480	63.7764
1464	63.7071
1448	63.7561
1432	63.8954
1416	63.6986
1400	63.7149
1384	63.6642
1368	63.6851
1352	63.5508
1336	63.7576
1320	63.6686
1304	63.6879
1288	63.5188
1272	63.2501
1256	63.4948
1240	63.4965
1224	63.4918
1208	63.4801
1192	63.3195
1176	63.4275
1160	63.3323
1144	63.4478
1128	63.289
1112	63.4404
1096	63.2212
1080	63.226
1064	63.4298
1048	63.3556
1032	63.0407
1016	63.3201
1000	63.3603
984	 63.2417
968	 63.2624
952	 63.195
936	 63.1862
920	 63.2874
904	 63.3253
888	 63.4922
872	 63.3821
856	 63.1304
840	 63.2761
824	 63.2888
808	 63.0167
792	 62.9869
776	 63.2369
760	 62.9213
744	 62.9561
728	 62.677
712	 62.7573
696	 62.4857
680	 63.0317
664	 62.6848
648	 62.3957
632	 62.5247
616	 62.9802
600	 62.5625
584	 62.1855
568	 63.119
552	 63.204
536	 61.5964
520	 62.6486
504	 61.2421
488	 63.7683
472	 62.5696
456	 62.5431
440	 61.0845
424	 62.8402
408	 60.3312
392	 56.6199
376	 48.9263
370	 68.7618