File: Bakgrunnsmateriale/MATLAB/FTIR/ftir_data/subAa/Mapping_121/BZ1503107-1_t77.asc
PE IR       SPECTRUM    SPECTRUM    ASCII       PEDS        1.60
  -1
BZ256F~1.ASC
17/04/07
19:34:14.00
17/04/07
19:34:40.00
tln
$BZ1503107-1_t0077$<tbV0>[-13.0,2.6,8.0,0.0,27,1,0]
27.028
64

2002,4.07
MIRTGS : RIGHTBACK : INTERNAL 2
MIR : ON : INTERNAL 2
OPTKBR

0.200000
8
8.000000
FILLER
RATIO
SPECTRUM
UNLOCKED 256

DOUBLE
64
COMBINED
1
0
0

0.002000
RATIO

1
0
TRUE
51149
0
LEFT NOT FITTED RIGHT NOT FITTED 0
NONE
NONE
15600
12
4.427000
51148
TRUE
1 0 8 72 0 0 0 0

15798

#HDR
-1
-1
#GR
µM
%T
2.38419e-05
0.0
2.000000
0.002000
12515
8
75.2989
54.7334
#DATA
2.000000	 66.1398
2.084000	 65.1379
2.168000	 65.4094
2.252000	 61.1445
2.336000	 65.2647
2.420000	 65.2292
2.504000	 65.2038
2.588000	 65.3044
2.672000	 65.5049
2.756000	 65.4018
2.840000	 65.5519
2.924000	 65.2613
3.008000	 65.4209
3.092000	 65.3791
3.176000	 65.3008
3.260000	 65.1875
3.344000	 65.1858
3.428000	 64.8192
3.512000	 64.9909
3.596000	 65.2084
3.680000	 65.1987
3.764000	 64.9834
3.848000	 65.0068
3.932000	 64.9682
4.016000	 64.9195
4.100000	 64.9584
4.184000	 64.8782
4.268000	 64.8239
4.352000	 64.7166
4.436000	 64.8901
4.520000	 64.8212
4.604000	 64.6196
4.688000	 64.7687
4.772000	 64.6908
4.856000	 64.6734
4.940000	 64.6944
5.024000	 64.5228
5.108000	 64.5561
5.192000	 64.5703
5.276000	 64.555
5.359999	 64.4262
5.444000	 64.3804
5.528000	 64.4433
5.612000	 64.3539
5.696000	 64.1571
5.780000	 63.0401
5.864000	 64.1366
5.948000	 64.2018
6.032000	 64.1872
6.116000	 64.1362
6.200000	 64.2924
6.284000	 64.1115
6.368000	 64.1089
6.452000	 63.9859
6.536000	 64.0424
6.620000	 64.3529
6.704000	 64.1108
6.788000	 64.0013
6.872000	 63.9333
6.956000	 63.7652
7.040000	 64.0024
7.124000	 63.9356
7.208000	 64.0001
7.292000	 63.8657
7.376000	 63.9132
7.460000	 63.9125
7.544000	 63.9162
7.628000	 63.8195
7.712000	 63.7748
7.796000	 63.5844
7.880000	 63.5656
7.964000	 63.4773
8.048000	 63.4261
8.132000	 63.5301
8.216000	 63.4808
8.300000	 63.6085
8.384000	 63.4529
8.468000	 63.1806
8.552000	 63.1541
8.635999	 63.1966
8.719999	 63.5081
8.804000	 63.58
8.888000	 63.6078
8.972000	 63.458
9.056000	 63.5468
9.140000	 63.4244
9.224000	 63.5991
9.308000	 63.4441
9.391999	 63.6327
9.475999	 63.5737
9.560000	 63.5708
9.644000	 63.5533
9.728000	 63.535
9.812000	 63.4756
9.896000	 63.3787
9.980000	 63.6692
10.064	63.4854
10.148	63.7052
10.232	63.8883
10.316	63.5316
10.4	63.5954
10.484	63.6177
10.568	63.6051
10.652	63.5129
10.736	63.5963
10.82	63.5585
10.904	63.4253
10.988	63.5578
11.072	63.4149
11.156	63.3397
11.24	63.4679
11.324	63.5417
11.408	63.3372
11.492	63.5721
11.576	63.5112
11.66	63.373
11.744	63.5963
11.828	63.5013
11.912	63.5486
11.996	63.5912
12.08	63.5816
12.164	63.6627
12.248	63.4936
12.332	63.4053
12.416	63.5359
12.5	63.478
12.584	63.27
12.668	63.2093
12.752	63.2703
12.836	63.4443
12.92	63.4979
13.004	63.3535
13.088	63.383
13.172	63.3687
13.256	63.1888
13.34	63.0856
13.424	63.0884
13.508	63.1217
13.592	63.0428
13.676	62.987
13.76	62.9731
13.844	63.0956
13.928	63.319
14.012	63.3255
14.096	62.9997
14.18	62.8018
14.264	62.9317
14.348	63.004
14.432	63.0079
14.516	63.0949
14.6	63.3053
14.684	63.5935
14.768	63.6533
14.852	63.4045
14.936	63.0853
15.02	62.8995
15.104	62.8956
15.188	62.9072
15.272	62.8744
15.356	62.8804
15.44	62.9663
15.524	62.9863
15.608	62.674
15.692	62.3053
15.776	62.4541
15.86	62.8448
15.944	62.8402
16.028	62.7877
16.112	63.2687
16.196	63.9145
16.28	64.1439
16.364	63.9604
16.448	63.5369
16.532	63.0008
16.616	62.5717
16.7	62.3864
16.784	62.2877
16.868	61.9935
16.952	61.5945
17.036	61.5445
17.12	62.0301
17.204	62.7562
17.288	63.3691
17.372	63.6948
17.456	63.6867
17.54	63.4509
17.624	63.1615
17.708	62.9464
17.792	62.9351
17.876	63.2019
17.96	63.597
18.044	63.8271
18.128	63.7596
18.212	63.541
18.296	63.3811
18.38	63.3499
18.464	63.3865
18.548	63.4264
18.632	63.4884
18.716	63.6052
18.8	63.7319
18.884	63.7892
18.968	63.7611
19.052	63.6997
19.136	63.6508
19.22	63.6178
19.304	63.5818
19.388	63.517
19.472	63.382
19.556	63.1432
19.64	62.8243
19.724	62.5087
19.808	62.2778
19.892	62.1595
19.976	62.1331
20.06	62.1722
20.144	62.2645
20.228	62.3963
20.312	62.5355
20.396	62.6458
20.48	62.7219
20.564	62.7944
20.648	62.8898
20.732	62.9972
20.816	63.0732
20.9	63.0832
20.984	63.0229
21.068	62.9289
21.152	62.8644
21.236	62.8858
21.32	62.997
21.404	63.1262
21.488	63.1627
21.572	63.0308
21.656	62.7502
21.74	62.4272
21.824	62.1889
21.908	62.1067
21.992	62.1706
22.076	62.3218
22.16	62.5016
22.244	62.6731
22.328	62.8088
22.412	62.8769
22.496	62.8478
22.58	62.7161
22.664	62.5157
22.748	62.3091
22.832	62.1388
22.916	62.0108
23	61.9032
23.084	61.8023
23.168	61.7398
23.252	61.7851
23.336	62.0034
23.42	62.403
23.504	62.9067
23.588	63.3703
23.672	63.6534
23.756	63.6858
23.84	63.5114
23.924	63.2802
24.008	63.1663
24.092	63.2881
24.176	63.6682
24.26	64.208
24.344	64.7353
24.428	65.0974
24.512	65.1896
24.596	64.9914
24.68	64.5504
24.764	63.9516
24.848	63.2644
24.932	62.5442
25.016	61.8276
25.1	61.1245
25.184	60.4461
25.268	59.8281
25.352	59.342
25.436	59.0259
25.52	58.9164
25.604	59.0989
25.688	59.6554
25.772	60.6551
25.856	62.1339
25.94	64.0204
26.024	66.1265
26.108	68.1859
26.192	69.9032
26.276	71.0104
26.36	71.3219
26.444	70.8156
26.528	69.5989
26.612	67.8479
26.696	65.6896
26.78	63.1658
26.864	60.2848
26.948	57.2378
27.028	54.7334