File: Bakgrunnsmateriale/MATLAB/FTIR/ftir_data/subAa/Mapping_121/BZ1503107-1_t89_cm-1.asc
PE IR       SPECTRUM    SPECTRUM    ASCII       PEDS        1.60
  -1
BZ6136~1.ASC
17/04/07
20:36:45.00
17/04/07
20:36:45.00
tln
$BZ1503107-1_t0089$<tbV0>[13.0,7.8,8.0,0.0,27,1,0]
370
64

2002,4.07
MIRTGS : RIGHTBACK : INTERNAL 2
MIR : ON : INTERNAL 2
OPTKBR

0.200000
8
8.000000
FILLER
RATIO
SPECTRUM
UNLOCKED 256

DOUBLE
64
COMBINED
1
0
0

1.000000
RATIO

1
0
TRUE
51149
0
LEFT NOT FITTED RIGHT NOT FITTED 0
NONE
NONE
15600
12
4.427000
51148
TRUE
1 0 8 72 0 0 0 0

15798

#HDR
-1
-1
#GR
CM-1
%T
2.38419e-05
0.0
5000
-1.000000
4631
8
82.3045
42.2561
#DATA
5000	64.1441
4984	64.029
4968	63.9503
4952	66.6242
4936	65.2844
4920	63.7962
4904	65.5834
4888	64.7393
4872	64.7718
4856	63.6942
4840	63.9031
4824	64.2639
4808	63.862
4792	63.9756
4776	64.1705
4760	63.5366
4744	64.0064
4728	63.7778
4712	64.132
4696	64.0988
4680	64.4427
4664	64.5381
4648	64.2215
4632	64.825
4616	64.6746
4600	64.552
4584	64.4084
4568	64.9739
4552	64.6704
4536	65.1893
4520	65.314
4504	65.3368
4488	64.4112
4472	65.9415
4456	63.8855
4440	51.2293
4424	66.3702
4408	65.348
4392	64.6515
4376	64.6874
4360	65.1515
4344	64.7897
4328	65.0493
4312	64.8368
4296	64.5406
4280	64.6958
4264	64.1769
4248	64.4307
4232	64.1372
4216	64.0381
4200	64.4844
4184	64.4538
4168	64.5864
4152	64.366
4136	64.2411
4120	64.13
4104	64.3924
4088	64.305
4072	64.4553
4056	64.2494
4040	64.6255
4024	64.6243
4008	64.3178
3992	64.4395
3976	64.4744
3960	64.5465
3944	64.3569
3928	64.8169
3912	64.3949
3896	64.5277
3880	64.4576
3864	64.4828
3848	64.5463
3832	64.7742
3816	64.3622
3800	64.424
3784	64.6055
3768	64.3955
3752	64.5619
3736	64.4969
3720	64.6426
3704	64.6392
3688	64.6109
3672	64.4369
3656	64.5285
3640	64.6404
3624	64.2589
3608	64.5855
3592	64.7579
3576	64.5717
3560	64.4982
3544	64.5065
3528	64.7354
3512	64.5715
3496	64.7167
3480	64.6664
3464	64.6595
3448	64.5208
3432	64.5715
3416	64.6647
3400	64.4492
3384	64.5781
3368	64.4256
3352	64.5736
3336	64.4206
3320	64.3904
3304	64.5129
3288	64.5561
3272	64.4867
3256	64.4902
3240	64.4469
3224	64.4977
3208	64.4382
3192	64.5667
3176	64.5068
3160	64.6262
3144	64.4955
3128	64.418
3112	64.5424
3096	64.5219
3080	64.4307
3064	64.5053
3048	64.6504
3032	64.5889
3016	64.6221
3000	64.6177
2984	64.4126
2968	64.3227
2952	64.349
2936	64.4851
2920	64.4573
2904	64.3281
2888	64.4194
2872	64.368
2856	64.42
2840	64.3667
2824	64.417
2808	64.4005
2792	64.4397
2776	64.4932
2760	64.5003
2744	64.4806
2728	64.4795
2712	64.5152
2696	64.4838
2680	64.51
2664	64.4778
2648	64.471
2632	64.5036
2616	64.5018
2600	64.3975
2584	64.4653
2568	64.5254
2552	64.322
2536	64.371
2520	64.4196
2504	64.251
2488	64.4095
2472	64.3893
2456	64.5221
2440	64.396
2424	64.3094
2408	64.2805
2392	64.2895
2376	64.385
2360	64.3093
2344	64.2946
2328	64.2449
2312	64.223
2296	64.3159
2280	64.2182
2264	64.3035
2248	64.3262
2232	64.2822
2216	64.2793
2200	64.0994
2184	64.2266
2168	64.2316
2152	64.2144
2136	64.3724
2120	64.225
2104	64.2808
2088	64.1983
2072	63.9996
2056	64.2743
2040	64.1244
2024	64.176
2008	64.0433
1992	64.136
1976	64.0656
1960	64.149
1944	64.0394
1928	63.9521
1912	64.1445
1896	64.1291
1880	64.0356
1864	64.1044
1848	64.0587
1832	64.0737
1816	63.9621
1800	64.0465
1784	63.922
1768	64.0054
1752	63.8125
1736	63.7181
1720	63.7831
1704	63.8631
1688	63.8487
1672	63.7775
1656	63.8668
1640	63.8626
1624	63.7105
1608	63.8098
1592	63.9451
1576	63.7933
1560	63.9135
1544	63.7715
1528	63.6923
1512	63.6924
1496	63.867
1480	63.6481
1464	63.7629
1448	63.6525
1432	63.5222
1416	63.6713
1400	63.4274
1384	63.5723
1368	63.5837
1352	63.5668
1336	63.415
1320	63.5836
1304	63.5076
1288	63.4002
1272	63.4392
1256	63.4087
1240	63.4451
1224	63.51
1208	63.4207
1192	63.4458
1176	63.3159
1160	63.2962
1144	63.3303
1128	63.274
1112	63.0619
1096	63.2924
1080	63.1321
1064	63.1499
1048	63.2358
1032	63.1953
1016	63.1206
1000	63.1125
984	 63.3325
968	 63.1071
952	 62.978
936	 63.2523
920	 63.0964
904	 63.1322
888	 63.0744
872	 63.1987
856	 63.0605
840	 63.1451
824	 63.1184
808	 63.1185
792	 63.1858
776	 63.0818
760	 62.9702
744	 63.0963
728	 63.0344
712	 62.7499
696	 62.6559
680	 62.6045
664	 62.7923
648	 62.4633
632	 62.9595
616	 61.893
600	 62.4312
584	 62.7753
568	 62.6354
552	 63.1465
536	 61.5571
520	 62.366
504	 60.6841
488	 62.9634
472	 61.4749
456	 63.3682
440	 61.7351
424	 62.2044
408	 57.6297
392	 62.6195
376	 73.08
370	 82.3045