File: Bakgrunnsmateriale/MATLAB/FTIR/ftir_data/subAa/Mapping_121/BZ1503107-1_t116_cm-1.asc
PE IR       SPECTRUM    SPECTRUM    ASCII       PEDS        1.60
  -1
BZ4C79~1.ASC
17/04/07
22:48:22.00
17/04/07
22:48:22.00
tln
$BZ1503107-1_t0116$<tbV0>[0.0,13.0,8.0,0.0,27,1,0]
370
64

2002,4.07
MIRTGS : RIGHTBACK : INTERNAL 2
MIR : ON : INTERNAL 2
OPTKBR

0.200000
8
8.000000
FILLER
RATIO
SPECTRUM
UNLOCKED 256

DOUBLE
64
COMBINED
1
0
0

1.000000
RATIO

1
0
TRUE
51149
0
LEFT NOT FITTED RIGHT NOT FITTED 0
NONE
NONE
15600
12
4.427000
51148
TRUE
1 0 8 72 0 0 0 0

15798

#HDR
-1
-1
#GR
CM-1
%T
2.38419e-05
0.0
5000
-1.000000
4631
8
71.4419
34.7091
#DATA
5000	65.8665
4984	65.9611
4968	65.7116
4952	66.5575
4936	66.0981
4920	66.5183
4904	66.1133
4888	65.8482
4872	65.8779
4856	65.728
4840	65.6253
4824	65.4374
4808	65.4854
4792	65.8772
4776	65.089
4760	65.3828
4744	65.4512
4728	65.545
4712	65.4518
4696	65.763
4680	65.4639
4664	65.7296
4648	65.791
4632	65.9587
4616	66.0403
4600	66.0506
4584	66.108
4568	66.4104
4552	65.8642
4536	66.2696
4520	66.1005
4504	66.4166
4488	66.0766
4472	65.7878
4456	67.6178
4440	62.2971
4424	54.833
4408	69.0972
4392	66.917
4376	66.9558
4360	66.4956
4344	66.0398
4328	66.2716
4312	65.807
4296	65.9824
4280	65.8801
4264	65.6828
4248	65.5465
4232	65.5416
4216	65.6029
4200	65.5077
4184	65.6402
4168	65.606
4152	65.5293
4136	65.4164
4120	65.4749
4104	65.4994
4088	65.5392
4072	65.4482
4056	65.795
4040	65.4433
4024	65.4796
4008	65.4819
3992	65.6371
3976	65.4791
3960	65.6219
3944	65.6634
3928	65.2096
3912	65.6934
3896	65.5757
3880	65.6582
3864	65.6767
3848	65.6349
3832	65.5171
3816	65.9944
3800	65.6553
3784	65.6824
3768	65.5413
3752	65.5747
3736	65.5499
3720	65.5805
3704	65.5756
3688	65.499
3672	65.5968
3656	65.5455
3640	65.4808
3624	65.6316
3608	65.6359
3592	65.5636
3576	65.3371
3560	65.4757
3544	65.4925
3528	65.2654
3512	65.403
3496	65.5287
3480	65.5399
3464	65.3126
3448	65.4182
3432	65.486
3416	65.3527
3400	65.4901
3384	65.2956
3368	65.4154
3352	65.3972
3336	65.3058
3320	65.2926
3304	65.2737
3288	65.3328
3272	65.2084
3256	65.2777
3240	65.1143
3224	65.127
3208	65.0777
3192	65.2356
3176	65.178
3160	65.2422
3144	65.0801
3128	65.1335
3112	65.2045
3096	65.0067
3080	65.0948
3064	65.2016
3048	65.0263
3032	65.2125
3016	65.0036
3000	64.9873
2984	64.8752
2968	64.493
2952	64.4202
2936	64.5884
2920	64.6469
2904	64.701
2888	64.764
2872	64.5412
2856	64.9404
2840	65.0698
2824	64.8563
2808	64.9643
2792	64.8457
2776	65.0229
2760	64.8401
2744	64.8505
2728	64.9112
2712	64.9789
2696	64.8183
2680	64.9875
2664	64.8871
2648	64.7738
2632	64.8239
2616	64.7104
2600	64.651
2584	64.8376
2568	64.8111
2552	64.6791
2536	64.8219
2520	64.8226
2504	64.6471
2488	64.6726
2472	64.7295
2456	64.6744
2440	64.828
2424	64.4808
2408	64.4742
2392	64.5259
2376	64.55
2360	64.5533
2344	64.5081
2328	64.5399
2312	64.4541
2296	64.571
2280	64.4911
2264	64.4361
2248	64.4589
2232	64.3619
2216	64.4949
2200	64.4321
2184	64.3728
2168	64.328
2152	64.3102
2136	64.3439
2120	64.2354
2104	64.2273
2088	64.2393
2072	64.1928
2056	64.1337
2040	64.0988
2024	64.0604
2008	64.0706
1992	64.0774
1976	64.0338
1960	64.0233
1944	64.0665
1928	63.9771
1912	64.0191
1896	63.9617
1880	64.0444
1864	63.9763
1848	63.9401
1832	63.8447
1816	63.848
1800	63.8259
1784	63.7944
1768	63.6292
1752	63.3122
1736	61.9172
1720	63.0678
1704	63.4513
1688	63.657
1672	63.6671
1656	63.4973
1640	63.4985
1624	63.4682
1608	63.453
1592	63.3283
1576	63.3752
1560	63.4413
1544	63.3621
1528	63.2957
1512	63.3369
1496	63.2652
1480	63.1831
1464	63.1055
1448	63.2004
1432	63.0693
1416	63.1593
1400	63.0545
1384	62.7772
1368	63.0189
1352	63.0422
1336	62.9783
1320	63.0021
1304	62.8734
1288	62.8295
1272	62.5763
1256	62.3997
1240	62.406
1224	62.3508
1208	62.6123
1192	62.3804
1176	62.1071
1160	61.9597
1144	62.5211
1128	62.518
1112	62.3171
1096	62.3872
1080	62.2597
1064	62.435
1048	62.2891
1032	62.317
1016	62.478
1000	62.4127
984	 62.4017
968	 62.3954
952	 62.3439
936	 62.2325
920	 62.6291
904	 62.4022
888	 62.3706
872	 62.2085
856	 62.349
840	 62.3305
824	 62.1589
808	 62.3152
792	 62.0907
776	 61.9365
760	 61.8276
744	 61.7728
728	 61.8214
712	 61.5645
696	 62.1064
680	 61.5438
664	 61.774
648	 60.6012
632	 61.8885
616	 61.1208
600	 62.0485
584	 61.2637
568	 61.78
552	 60.8697
536	 62.0344
520	 60.5929
504	 60.6027
488	 60.6808
472	 60.069
456	 58.9605
440	 60.2216
424	 60.2808
408	 60.0659
392	 56.3691
376	 53.073
370	 34.7091