File: Bakgrunnsmateriale/MATLAB/FTIR/ftir_data/subAa/Mapping_121/BZ1503107-1_t07.asc
PE IR       SPECTRUM    SPECTRUM    ASCII       PEDS        1.60
  -1
BZ1565~1.ASC
17/04/07
13:48:11.00
17/04/07
13:48:38.00
tln
$BZ1503107-1_t0007$<tbV0>[-2.6,-13.0,8.0,0.0,27,1,0]
27.028
64

2002,4.07
MIRTGS : RIGHTBACK : INTERNAL 2
MIR : ON : INTERNAL 2
OPTKBR

0.200000
8
8.000000
FILLER
RATIO
SPECTRUM
UNLOCKED 256

DOUBLE
64
COMBINED
1
0
0

0.002000
RATIO

1
0
TRUE
51149
0
LEFT NOT FITTED RIGHT NOT FITTED 0
NONE
NONE
15600
12
4.427000
51148
TRUE
1 0 8 72 0 0 0 0

15798

#HDR
-1
-1
#GR
µM
%T
2.38419e-05
0.0
2.000000
0.002000
12515
8
80.6439
48.6151
#DATA
2.000000	 64.4937
2.084000	 65.6566
2.168000	 64.4247
2.252000	 72.9351
2.336000	 64.7682
2.420000	 64.7762
2.504000	 65.018
2.588000	 64.889
2.672000	 65.1377
2.756000	 65.2882
2.840000	 64.774
2.924000	 64.8316
3.008000	 64.9662
3.092000	 64.7893
3.176000	 64.94
3.260000	 64.9805
3.344000	 64.8371
3.428000	 64.7401
3.512000	 64.8427
3.596000	 64.9292
3.680000	 64.8838
3.764000	 64.8357
3.848000	 64.8219
3.932000	 64.9626
4.016000	 64.9162
4.100000	 64.7956
4.184000	 64.8941
4.268000	 64.8453
4.352000	 64.8177
4.436000	 64.8639
4.520000	 64.8364
4.604000	 64.8275
4.688000	 64.7001
4.772000	 64.86
4.856000	 64.7627
4.940000	 64.7665
5.024000	 64.6947
5.108000	 64.7102
5.192000	 64.7006
5.276000	 64.7868
5.359999	 64.6967
5.444000	 64.7431
5.528000	 64.7596
5.612000	 64.7338
5.696000	 64.6861
5.780000	 64.4422
5.864000	 64.6549
5.948000	 64.6455
6.032000	 64.7286
6.116000	 64.6242
6.200000	 64.6313
6.284000	 64.6748
6.368000	 64.5396
6.452000	 64.6528
6.536000	 64.4534
6.620000	 64.543
6.704000	 64.7265
6.788000	 64.6949
6.872000	 64.65
6.956000	 64.5958
7.040000	 64.5118
7.124000	 64.5315
7.208000	 64.3653
7.292000	 64.3124
7.376000	 64.3437
7.460000	 64.4235
7.544000	 64.4582
7.628000	 64.2651
7.712000	 64.2239
7.796000	 64.3185
7.880000	 64.2331
7.964000	 64.2759
8.048000	 64.2395
8.132000	 64.2015
8.216000	 64.2411
8.300000	 64.2232
8.384000	 64.3389
8.468000	 64.1606
8.552000	 64.0857
8.635999	 64.2234
8.719999	 64.1351
8.804000	 64.2696
8.888000	 64.1755
8.972000	 64.2923
9.056000	 64.2687
9.140000	 64.2631
9.224000	 64.2728
9.308000	 64.2087
9.391999	 64.0907
9.475999	 64.2057
9.560000	 64.1839
9.644000	 64.1152
9.728000	 64.1919
9.812000	 64.0301
9.896000	 64.216
9.980000	 64.237
10.064	64.4038
10.148	64.2734
10.232	64.2061
10.316	64.2924
10.4	64.2729
10.484	64.1236
10.568	64.2511
10.652	64.2806
10.736	64.1963
10.82	64.0798
10.904	64.0368
10.988	64.1972
11.072	64.0882
11.156	64.1876
11.24	64.0638
11.324	64.143
11.408	64.2017
11.492	64.1425
11.576	64.2352
11.66	64.1972
11.744	64.2229
11.828	64.3052
11.912	64.1743
11.996	63.9114
12.08	63.9162
12.164	64.0394
12.248	64.1366
12.332	64.0235
12.416	63.9551
12.5	64.0217
12.584	64.1106
12.668	64.0855
12.752	64.1262
12.836	64.1682
12.92	64.0417
13.004	63.9371
13.088	63.9816
13.172	64.0791
13.256	64.2271
13.34	64.3943
13.424	64.4013
13.508	64.2878
13.592	64.1913
13.676	64.1837
13.76	64.2103
13.844	63.994
13.928	63.8246
14.012	63.9061
14.096	64.0528
14.18	64.1414
14.264	64.1403
14.348	64.1165
14.432	64.1391
14.516	64.2951
14.6	64.3576
14.684	64.117
14.768	63.9017
14.852	64.0074
14.936	64.1927
15.02	64.2449
15.104	64.2477
15.188	64.2111
15.272	64.122
15.356	64.0338
15.44	63.9687
15.524	63.9585
15.608	63.963
15.692	63.8978
15.776	63.8082
15.86	63.7603
15.944	63.7487
16.028	63.7825
16.112	63.8842
16.196	64.0266
16.28	64.103
16.364	64.0086
16.448	63.8099
16.532	63.6744
16.616	63.646
16.7	63.6678
16.784	63.7393
16.868	63.8945
16.952	64.0684
17.036	64.1385
17.12	64.0706
17.204	63.9614
17.288	63.9462
17.372	64.0135
17.456	64.0089
17.54	63.9054
17.624	63.9038
17.708	64.1176
17.792	64.3802
17.876	64.4911
17.96	64.4369
18.044	64.2888
18.128	64.1216
18.212	64.0323
18.296	64.0909
18.38	64.233
18.464	64.3187
18.548	64.2896
18.632	64.2082
18.716	64.1475
18.8	64.1024
18.884	64.0003
18.968	63.7921
19.052	63.5637
19.136	63.5335
19.22	63.9029
19.304	64.6377
19.388	65.4009
19.472	65.768
19.556	65.5636
19.64	65.0055
19.724	64.4839
19.808	64.2157
19.892	64.1123
19.976	63.9849
20.06	63.7853
20.144	63.6212
20.228	63.5675
20.312	63.5568
20.396	63.4782
20.48	63.3239
20.564	63.186
20.648	63.1445
20.732	63.1899
20.816	63.3026
20.9	63.5463
20.984	64.0104
21.068	64.6603
21.152	65.2619
21.236	65.5078
21.32	65.253
21.404	64.652
21.488	64.0563
21.572	63.7508
21.656	63.7503
21.74	63.8335
21.824	63.7553
21.908	63.4727
21.992	63.1751
22.076	63.1115
22.16	63.3852
22.244	63.8577
22.328	64.2518
22.412	64.3469
22.496	64.1064
22.58	63.6524
22.664	63.1587
22.748	62.7642
22.832	62.5428
22.916	62.5549
23	62.8501
23.084	63.4406
23.168	64.2626
23.252	65.1646
23.336	65.9201
23.42	66.3139
23.504	66.1887
23.588	65.4956
23.672	64.303
23.756	62.7982
23.84	61.2447
23.924	59.9532
24.008	59.2249
24.092	59.2925
24.176	60.2297
24.26	61.8827
24.344	63.8837
24.428	65.7894
24.512	67.1462
24.596	67.7009
24.68	67.4141
24.764	66.422
24.848	64.9565
24.932	63.3069
25.016	61.7484
25.1	60.5169
25.184	59.7573
25.268	59.4735
25.352	59.5434
25.436	59.7307
25.52	59.8018
25.604	59.6421
25.688	59.0971
25.772	58.1782
25.856	57.1437
25.94	56.7876
26.024	57.5344
26.108	58.662
26.192	59.6629
26.276	60.7739
26.36	63.9016
26.444	69.6633
26.528	76.7812
26.612	80.6176
26.696	78.0981
26.78	70.584
26.864	64.7497
26.948	67.7404
27.028	78.1386